Jaz Data File
++++++++++++++++++++++++++++++++++++
Date: Wed Feb 07 06:54:49 2024
User: jaz
Dark Spectrum Present: Yes
Reference Spectrum Present: Yes
Processed Spectrum Present: Yes
Spectrometers: JAZA3692
Integration Time (usec): 43800 (JAZA3692)
Spectra Averaged: 1 (JAZA3692)
Boxcar Smoothing: 0 (JAZA3692)
Correct for Electrical Dark: No (JAZA3692)
Strobe/Lamp Enabled: Yes (JAZA3692)
Correct for Detector Non-linearity: No (JAZA3692)
Correct for Stray Light: No (JAZA3692)
Number of Pixels in Processed Spectrum: 2048
>>>>>Begin Processed Spectral Data<<<<<
W	D	R	S	P
190.244385	0.000000	0.000000	0.000000	0.000000
190.627136	0.000000	0.000000	0.000000	0.000000
191.009842	892.004150	873.799988	812.360901	437.500214
191.392532	855.595825	892.004150	837.391663	-50.000000
191.775177	960.269775	844.218201	926.136963	29.411762
192.157791	967.096313	969.371887	866.973450	-4399.895508
192.540390	892.004150	894.279663	917.034912	1100.005371
192.922943	939.790100	935.239075	889.728638	1100.004028
193.305481	980.749451	928.412476	962.545288	34.782604
193.687958	917.034912	937.514587	905.657288	-55.555687
194.070419	967.096313	905.657288	898.830688	111.111176
194.452866	948.892151	935.239075	923.861450	183.333786
194.835251	932.963501	985.300537	885.177612	-91.304153
195.217621	917.034912	907.932800	914.759338	25.000504
195.599960	962.545288	939.790100	969.371887	-30.000187
195.982254	932.963501	944.341125	894.279663	-339.999237
196.364517	973.922913	955.718750	951.167725	124.999916
196.746750	967.096313	976.198425	905.657288	-674.997498
197.128952	967.096313	892.004150	951.167725	21.212051
197.511139	864.697876	919.310425	919.310425	100.000000
197.893280	962.545288	889.728638	901.106262	84.374969
198.275391	953.443237	907.932800	951.167725	4.999980
198.657471	903.381775	937.514587	1035.361938	386.666534
199.039520	948.892151	935.239075	1003.504700	-400.001801
199.421539	917.034912	998.953613	957.994263	50.000000
199.803513	951.167725	973.922913	855.595825	-420.000488
200.185471	953.443237	983.024963	919.310425	-115.384789
200.567383	967.096313	985.300537	957.994263	-49.999664
200.949265	951.167725	1010.331238	951.167725	0.000000
201.331131	898.830688	964.820801	926.136963	41.379341
201.712967	923.861450	898.830688	914.759338	36.363705
202.094742	903.381775	942.065613	876.075500	-70.588326
202.476517	944.341125	887.453125	937.514587	11.999961
202.858231	976.198425	973.922913	914.759338	2700.010742
203.239944	1044.463989	903.381775	887.453125	111.290329
203.621582	937.514587	1030.810913	962.545288	26.829247
204.003235	953.443237	955.718750	917.034912	-1600.005371
204.384827	951.167725	932.963501	962.545288	-62.499580
204.766388	969.371887	903.381775	964.820801	6.896619
205.147934	873.799988	901.106262	935.239075	224.999893
205.529449	923.861450	910.208313	860.146851	466.666382
205.910904	910.208313	955.718750	946.616638	79.999947
206.292343	903.381775	978.473938	937.514587	45.454559
206.673767	885.177612	907.932800	953.443237	300.000275
207.055115	871.524475	985.300537	866.973450	-3.999985
207.436462	948.892151	896.555176	955.718750	-13.043550
207.817780	955.718750	917.034912	935.239075	52.941166
208.199051	853.320313	910.208313	876.075500	39.999977
208.580307	832.840637	976.198425	873.799988	28.571417
208.961517	903.381775	957.994263	878.351013	-45.833405
209.342712	905.657288	905.657288	960.269775	0.000000
209.723846	955.718750	969.371887	910.208313	-333.333191
210.104965	969.371887	957.994263	848.769287	1059.998047
210.486069	914.759338	946.616638	923.861450	28.571510
210.867111	912.483826	962.545288	923.861450	22.727312
211.248123	905.657288	885.177612	985.300537	-388.889221
211.629120	926.136963	917.034912	923.861450	25.000000
212.010071	873.799988	971.647400	907.932800	34.883717
212.390991	857.871338	946.616638	942.065613	94.871811
212.771881	946.616638	937.514587	937.514587	100.000000
213.152756	876.075500	973.922913	871.524475	-4.651145
213.533569	864.697876	930.687988	928.412476	96.551735
213.914368	876.075500	951.167725	964.820801	118.181747
214.295135	903.381775	896.555176	980.749451	-1133.326782
214.675858	923.861450	967.096313	964.820801	94.736855
215.056549	866.973450	901.106262	892.004150	73.333252
215.437225	832.840637	907.932800	935.239075	136.363678
215.817841	910.208313	932.963501	855.595825	-240.000168
216.198441	973.922913	855.595825	942.065613	26.923082
216.579025	880.626526	932.963501	878.351013	-4.347811
216.959549	942.065613	878.351013	830.565063	175.000000
217.340057	932.963501	1003.504700	946.616638	19.354841
217.720535	889.728638	860.146851	892.004150	-7.692276
218.100967	953.443237	923.861450	914.759338	130.769318
218.481369	939.790100	948.892151	923.861450	-175.000671
218.861740	910.208313	939.790100	928.412476	61.538414
219.242065	912.483826	944.341125	932.963501	64.285660
219.622391	869.248962	935.239075	937.514587	103.448265
220.002670	896.555176	896.555176	860.146851	0.000000
220.382919	926.136963	928.412476	930.687988	200.000000
220.763123	944.341125	937.514587	969.371887	-366.668457
221.143295	873.799988	973.922913	948.892151	74.999969
221.523453	921.585938	928.412476	866.973450	-800.002686
221.903549	848.769287	942.065613	892.004150	46.341442
222.283630	892.004150	926.136963	912.483826	59.999966
222.663696	932.963501	1001.229126	957.994263	36.666714
223.043701	980.749451	939.790100	921.585938	144.444458
223.423676	862.422363	930.687988	903.381775	60.000053
223.803635	944.341125	946.616638	885.177612	-2600.008057
224.183548	980.749451	955.718750	930.687988	200.000244
224.563431	935.239075	1012.606750	942.065613	8.823502
224.943283	946.616638	987.576050	873.799988	-177.777573
225.323105	951.167725	960.269775	905.657288	-500.002014
225.702881	901.106262	898.830688	887.453125	599.986572
226.082642	853.320313	903.381775	932.963501	159.090820
226.462357	905.657288	1046.739624	932.963501	19.354807
226.842041	907.932800	1055.841675	930.687988	15.384600
227.221695	857.871338	980.749451	882.902100	20.370399
227.601318	935.239075	978.473938	882.902100	-121.052711
227.980911	921.585938	1028.535400	901.106262	-19.148928
228.360474	917.034912	939.790100	932.963501	69.999809
228.739990	905.657288	957.994263	951.167725	86.956566
229.119476	946.616638	1042.188477	901.106262	-47.619022
229.498932	971.647400	1119.556274	976.198425	3.076912
229.878372	871.524475	1171.893188	928.412476	18.939390
230.257736	928.412476	1171.893188	903.381775	-10.280363
230.637115	855.595825	1112.729614	894.279663	15.044246
231.016449	946.616638	1158.240112	953.443237	3.225823
231.395737	853.320313	1115.005249	901.106262	18.260872
231.774994	912.483826	1083.147949	866.973450	-26.666634
232.154221	921.585938	1183.270874	896.555176	-9.565228
232.533417	894.279663	1051.290649	932.963501	24.637663
232.912582	926.136963	1037.637451	857.871338	-61.224506
233.291702	821.463013	1030.810913	1005.780212	88.043488
233.670792	910.208313	1049.015137	889.728638	-14.754084
234.049866	926.136963	1058.117188	851.044800	-56.896526
234.428894	853.320313	1074.045776	885.177612	14.432997
234.807892	932.963501	1089.974487	896.555176	-23.188393
235.186874	880.626526	1135.484863	887.453125	2.678586
235.565781	989.851563	1046.739624	903.381775	-151.999878
235.944687	957.994263	1103.627563	903.381775	-37.500000
236.323547	917.034912	1105.903076	921.585938	2.409631
236.702377	960.269775	1039.912964	989.851563	37.142895
237.081177	873.799988	1101.352051	898.830688	10.999989
237.459946	869.248962	1178.719727	892.004150	7.352936
237.838669	969.371887	1149.138062	962.545288	-3.797488
238.217361	955.718750	1140.035889	919.310425	-19.753088
238.596039	953.443237	1083.147949	951.167725	-1.754379
238.974670	937.514587	1133.209351	901.106262	-18.604650
239.353271	901.106262	1126.382813	957.994263	25.252518
239.731842	930.687988	1169.617676	921.585938	-3.809510
240.110367	901.106262	1158.240112	946.616638	17.699099
240.488876	871.524475	1167.342163	901.106262	10.000006
240.867340	896.555176	1235.607788	951.167725	16.107397
241.245789	894.279663	1119.556274	907.932800	6.060610
241.624176	910.208313	1233.332275	980.749451	21.830982
242.002548	955.718750	1319.802124	967.096313	3.124989
242.380890	882.902100	1308.424438	855.595825	-6.417119
242.759186	907.932800	1454.057739	880.626526	-5.000005
243.137451	894.279663	1481.364014	914.759338	3.488370
243.515686	917.034912	1556.456177	971.647400	8.540925
243.893890	885.177612	1658.854614	976.198425	11.764705
244.272049	948.892151	1479.088501	976.198425	5.150219
244.650192	926.136963	1567.833862	1033.086426	16.666664
245.028290	844.218201	1415.373901	978.473938	23.505980
245.406357	901.106262	1369.863525	957.994263	12.135919
245.784393	907.932800	1372.139038	901.106262	-1.470583
246.162384	928.412476	1365.312500	946.616638	4.166666
246.540359	919.310425	1454.057739	976.198425	10.638296
246.918289	901.106262	1636.099487	983.024963	11.145504
247.296204	894.279663	1656.579102	976.198425	10.746271
247.674057	926.136963	1952.396851	1026.259888	9.756099
248.051895	844.218201	2207.255127	1130.933838	21.035061
248.429703	914.759338	2129.887451	1076.321289	13.295877
248.807465	942.065613	2079.825928	1069.494751	11.199999
249.185196	835.116150	2002.458252	960.269775	10.721247
249.562897	917.034912	1781.732788	1001.229126	9.736836
249.940567	921.585938	1695.262939	1074.045776	19.705877
250.318192	919.310425	1595.140137	969.371887	7.407408
250.695801	901.106262	1567.833862	1026.259888	18.771328
251.073349	885.177612	1522.323364	1012.606750	19.999998
251.450882	937.514587	1495.017212	946.616638	1.632647
251.828400	937.514587	1469.986450	930.687988	-1.282058
252.205872	935.239075	1510.945801	989.851563	9.486165
252.583313	907.932800	1599.691162	962.545288	7.894735
252.960693	896.555176	1590.588989	942.065613	6.557380
253.338074	812.360901	1604.242188	951.167725	17.528742
253.715408	848.769287	1677.058838	1030.810913	21.978018
254.092682	944.341125	1615.619751	983.024963	5.762710
254.469955	903.381775	1504.119263	978.473938	12.499996
254.847198	848.769287	1456.333252	1012.606750	26.966290
255.224365	887.453125	1449.506714	1001.229126	20.242910
255.601563	869.248962	1415.373901	1023.984375	28.333336
255.978683	960.269775	1424.476074	976.198425	3.431373
256.355743	814.636475	1458.608887	1030.810913	33.568897
256.732819	962.545288	1410.822876	987.576050	5.583764
257.109894	951.167725	1454.057739	992.127075	8.144793
257.486877	914.759338	1451.782227	951.167725	6.779671
257.863831	930.687988	1583.762451	1053.566162	18.815338
258.240753	901.106262	1670.232300	1001.229126	13.017745
258.617645	898.830688	1663.405762	1051.290649	19.940483
258.994507	914.759338	1795.385864	1067.219238	17.312662
259.371307	923.861450	1947.845825	1108.178589	17.999994
259.748108	1019.433350	1929.641602	1083.147949	7.000002
260.124878	896.555176	2145.816162	1099.076538	16.211294
260.501617	946.616638	2327.857666	1108.178589	11.696869
260.878296	912.483826	2685.114502	1151.413574	13.478824
261.254944	887.453125	2778.410889	1151.413574	13.959087
261.631561	912.483826	2569.062988	1121.831787	12.637366
262.008179	914.759338	2264.143311	1112.729614	14.671159
262.384735	907.932800	2154.918213	1010.331238	8.211679
262.761261	937.514587	1997.907227	1074.045776	12.875532
263.137695	901.106262	1881.855713	1042.188477	14.385143
263.514191	855.595825	1815.865601	1026.259888	17.772512
263.890594	912.483826	1745.324463	1051.290649	16.666674
264.267029	962.545288	1795.385864	1039.912964	9.289614
264.643341	880.626526	1672.507813	971.647400	11.494258
265.019653	885.177612	1758.977539	1010.331238	14.322915
265.395935	857.871338	1763.528564	1014.882263	17.336683
265.772217	935.239075	1740.773438	1049.015137	14.124296
266.148407	917.034912	1779.457275	1017.157776	11.609493
266.524597	928.412476	1818.141113	998.953613	7.928388
266.900726	928.412476	1849.998413	1062.668213	14.567903
267.276855	896.555176	1929.641602	976.198425	7.709253
267.652924	944.341125	1991.080688	1055.841675	10.652178
268.028992	976.198425	2027.489014	1085.423462	10.389615
268.404999	1003.504700	2032.040039	1110.454102	10.398223
268.781006	914.759338	2034.315552	985.300537	6.300818
269.156921	919.310425	2011.560425	1037.637451	10.833328
269.532837	928.412476	2000.182739	1028.535400	9.341827
269.908661	921.585938	1991.080688	1001.229126	7.446805
270.284546	923.861450	2009.284912	1094.525513	15.723270
270.660339	919.310425	2050.244141	1064.943726	12.877262
271.036133	905.657288	2068.448486	996.678101	7.827786
271.411835	892.004150	2063.897461	1115.005249	19.029129
271.787537	869.248962	2266.418701	1046.739624	12.703587
272.163239	894.279663	2571.338623	1105.903076	12.618722
272.538849	960.269775	2598.644775	1101.352051	8.611110
272.914459	960.269775	2453.011475	1192.372925	15.548781
273.290070	905.657288	2430.256104	1010.331238	6.865672
273.665588	866.973450	2387.021240	1078.596802	13.922151
274.041046	932.963501	2323.306641	1069.494751	9.819968
274.416565	889.728638	2325.582275	1128.658325	16.640253
274.791962	951.167725	2216.357178	987.576050	2.877697
275.167389	889.728638	2264.143311	1067.219238	12.913905
275.542755	928.412476	2136.714111	1053.566162	10.357819
275.918060	971.647400	2179.948975	1042.188477	5.838036
276.293365	939.790100	2179.948975	1085.423462	11.743121
276.668640	917.034912	2220.908203	1046.739624	9.947647
277.043854	942.065613	2341.510986	1064.943726	8.780487
277.419037	944.341125	2323.306641	1099.076538	11.221122
277.794189	914.759338	2291.449463	1080.872437	12.066120
278.169312	860.146851	2330.133301	1119.556274	17.647062
278.544373	910.208313	2261.867676	1046.739624	10.101014
278.919464	892.004150	2236.836914	980.749451	6.598984
279.294464	896.555176	2318.755615	1064.943726	11.840001
279.669464	862.422363	2236.836914	1140.035889	20.198675
280.044403	889.728638	2239.112549	1089.974487	14.839798
280.419312	926.136963	2302.827148	1044.463989	8.595037
280.794189	896.555176	2380.194824	1044.463989	9.969322
281.169037	896.555176	2366.541748	1037.637451	9.597522
281.543854	953.443237	2566.787354	1099.076538	9.026797
281.918671	885.177612	2603.195801	1092.250000	12.052979
282.293365	951.167725	2701.043213	1103.627563	8.712610
282.668091	980.749451	2746.553711	1092.250000	6.314435
283.042786	917.034912	2960.452637	1119.556274	9.910913
283.417419	857.871338	2892.187012	1117.280762	12.751680
283.792053	889.728638	2842.125488	1094.525513	10.489511
284.166595	905.657288	2682.839111	1137.760376	13.060176
284.541138	919.310425	2664.634766	1094.525513	10.039113
284.915619	919.310425	2594.093750	1142.311401	13.315213
285.290100	898.830688	2687.390137	1087.698975	10.559799
285.664520	880.626526	2776.135498	1206.026001	17.166864
286.038940	805.534363	2862.605225	1174.168701	17.920353
286.413300	876.075500	2846.676514	1151.413574	13.972289
286.787628	887.453125	2935.421875	1226.505737	16.555555
287.161896	889.728638	3147.045166	1210.577026	14.213709
287.536194	835.116150	3108.361328	1310.699951	20.920921
287.910400	901.106262	3005.962891	1171.893188	12.864862
288.284607	869.248962	2869.431641	1192.372925	16.154722
288.658752	921.585938	2812.543701	1206.026001	15.042116
289.032867	951.167725	2662.359375	1206.026001	14.893614
289.406921	946.616638	2851.227539	1169.617676	11.708483
289.781006	957.994263	2778.410889	1210.577026	13.874998
290.154999	889.728638	2792.063965	1203.750488	16.507177
290.529022	898.830688	2883.084961	1290.220337	19.724773
290.902954	928.412476	3165.249512	1294.771362	16.378435
291.276825	930.687988	3192.555664	1363.036987	19.114691
291.650757	930.687988	3044.646729	1342.557251	19.483316
292.024597	928.412476	3081.055176	1358.485962	19.978863
292.398407	885.177612	3071.953125	1424.476074	24.661814
292.772156	889.728638	2912.666504	1303.873413	20.472443
293.145905	871.524475	2807.992676	1256.087524	19.858990
293.519592	821.463013	2726.073975	1319.802124	26.164877
293.893280	871.524475	2924.044189	1333.455200	22.505543
294.266907	878.351013	2880.809326	1360.761475	24.090912
294.640533	857.871338	2994.585449	1388.067749	24.813633
295.014069	928.412476	3210.759766	1413.098389	21.236292
295.387604	860.146851	3283.576416	1474.537476	25.352112
295.761078	932.963501	3345.015625	1440.404663	21.037735
296.134552	903.381775	3363.219727	1549.629639	26.271969
296.507996	869.248962	3360.944336	1522.323364	26.210043
296.881378	921.585938	3504.302002	1419.924927	19.295153
297.254730	903.381775	3549.812500	1510.945801	22.957867
297.628021	894.279663	3863.834229	1535.976563	21.609196
298.001282	942.065613	3868.385254	1545.078613	20.606533
298.374573	942.065613	3813.772949	1563.282837	21.632332
298.747803	939.790100	3745.507324	1558.731689	22.060013
299.121002	880.626526	3581.669678	1501.843750	22.999159
299.494141	967.096313	3335.913574	1510.945801	22.958693
299.867188	928.412476	3281.301025	1451.782227	22.243711
300.240265	942.065613	3304.056152	1474.537476	22.543354
300.613312	894.279663	3092.432861	1376.690063	21.946167
300.986328	937.514587	3124.290039	1403.996338	21.331945
301.359314	910.208313	3249.443604	1401.720825	21.011675
301.732239	887.453125	3115.187988	1463.159912	25.842697
302.105103	896.555176	3217.586426	1433.578125	23.137257
302.477997	932.963501	3140.218750	1374.414551	19.999998
302.850830	919.310425	3122.014648	1374.414551	20.661156
303.223602	917.034912	2976.381104	1440.404663	25.414364
303.596375	905.657288	2930.870850	1454.057739	27.078648
303.969116	887.453125	2894.462402	1338.006226	22.448980
304.341766	930.687988	2873.982666	1342.557251	21.194380
304.714478	866.973450	2933.146240	1301.597900	21.035242
305.087067	857.871338	2860.329590	1360.761475	25.113640
305.459656	841.942688	3026.442627	1383.516602	24.791664
305.832214	928.412476	2878.533936	1358.485962	22.053677
306.204681	964.820801	2962.728027	1344.832764	19.020500
306.577148	919.310425	2876.258301	1394.894287	24.302326
306.949646	892.004150	2949.074951	1331.179688	21.349558
307.322021	935.239075	2914.942139	1335.730713	20.229883
307.694397	876.075500	2903.564453	1381.241089	24.915823
308.066742	869.248962	2896.738037	1349.383789	23.681253
308.439026	903.381775	2930.870850	1392.618774	24.130192
308.811279	951.167725	3008.238525	1381.241089	20.907076
309.183502	898.830688	3188.004639	1403.996338	22.067596
309.555695	919.310425	3240.341553	1463.159912	23.431374
309.927887	935.239075	3308.607178	1383.516602	18.887821
310.299988	887.453125	3217.586426	1424.476074	23.046877
310.672058	882.902100	3258.545898	1422.200562	22.701151
311.044128	939.790100	3397.352539	1413.098389	19.259258
311.416168	853.320313	3420.107666	1442.680176	22.960993
311.788147	944.341125	3358.668701	1449.506714	20.923655
312.160065	930.687988	3306.331787	1479.088501	23.084290
312.531982	905.657288	3399.628174	1369.863525	18.613138
312.903870	957.994263	3372.321777	1433.578125	19.698399
313.275696	910.208313	3151.596191	1365.312500	20.304569
313.647491	907.932800	3299.505127	1392.618774	20.266415
314.019318	942.065613	3076.504150	1381.241089	20.575691
314.391022	955.718750	3151.596191	1312.975464	16.269428
314.762726	855.595825	3201.657715	1442.680176	25.024246
315.134369	800.983337	3231.239502	1410.822876	25.093632
315.505981	914.759338	3449.689453	1365.312500	17.773790
315.877594	955.718750	3488.373291	1410.822876	17.969452
316.249146	914.759338	3326.811523	1378.965576	19.245281
316.620636	948.892151	3240.341553	1378.965576	18.768620
316.992157	919.310425	3096.983887	1403.996338	22.257053
317.363586	878.351013	2978.656738	1312.975464	20.693390
317.735016	919.310425	2999.136475	1306.148926	18.599560
318.106354	905.657288	2990.034424	1344.832764	21.069866
318.477722	878.351013	2955.901611	1287.944824	19.715227
318.849060	955.718750	3062.851074	1301.597900	16.414686
319.220306	841.942688	3019.616211	1333.455200	22.570532
319.591522	921.585938	3094.708252	1342.557251	19.371727
319.962738	1001.229126	3142.494141	1397.169800	18.490969
320.333923	857.871338	3253.994629	1331.179688	19.753088
320.705017	980.749451	3156.147461	1358.485962	17.364019
321.076111	962.545288	3117.463379	1390.343262	19.852169
321.447144	882.902100	3122.014648	1310.699951	19.105688
321.818176	885.177612	2844.401123	1358.485962	24.157955
322.189178	816.911987	2892.187012	1306.148926	23.574560
322.560120	887.453125	2933.146240	1331.179688	21.690769
322.931030	939.790100	3126.565674	1376.690063	19.979185
323.301910	898.830688	3149.320801	1415.373901	22.952475
323.672729	880.626526	3294.954102	1369.863525	20.263903
324.043549	857.871338	3495.199951	1394.894287	20.362383
324.414337	832.840637	3772.813477	1408.547363	19.582043
324.785095	882.902100	3900.242676	1419.924927	17.797886
325.155792	1014.882263	3845.630127	1410.822876	13.987139
325.526428	923.861450	3897.967041	1429.027100	16.985466
325.897034	894.279663	3777.364502	1399.445313	17.521706
326.267670	901.106262	3665.864014	1403.996338	18.189299
326.638184	892.004150	3811.497314	1424.476074	18.238506
327.008728	896.555176	3868.385254	1454.057739	18.759571
327.379211	962.545288	3841.079102	1422.200562	15.968383
327.749634	873.799988	3677.241699	1424.476074	19.642859
328.120026	921.585938	3613.527100	1383.516602	17.159761
328.490417	921.585938	3602.149414	1479.088501	20.797962
328.860748	921.585938	3511.128662	1426.751587	19.507910
329.231079	862.422363	3422.383301	1381.241089	20.266666
329.601318	901.106262	3333.637939	1297.046875	16.276894
329.971558	896.555176	3472.444824	1363.036987	18.109541
330.341736	928.412476	3481.546875	1378.965576	17.647058
330.711914	939.790100	3476.995850	1294.771362	13.991032
331.082062	914.759338	3533.883789	1385.792114	17.984360
331.452148	921.585938	3422.383301	1338.006226	16.651501
331.822174	946.616638	3520.230713	1399.445313	17.595051
332.192200	889.728638	3581.669678	1424.476074	19.864754
332.562134	928.412476	3729.578613	1388.067749	16.409426
332.932129	905.657288	3706.823486	1335.730713	15.353370
333.302063	948.892151	3806.946289	1383.516602	15.207006
333.671906	885.177612	4000.365479	1476.812988	18.991964
334.041718	926.136963	3843.354736	1410.822876	16.614664
334.411499	973.922913	3984.437012	1365.312500	13.000755
334.781281	935.239075	4002.641113	1460.884399	17.136499
335.151001	1037.637451	3966.232666	1547.354126	17.404818
335.520721	898.830688	3797.844238	1431.302612	18.367348
335.890350	957.994263	3816.048340	1415.373901	16.003183
336.259979	919.310425	3847.905762	1460.884399	18.492620
336.629547	921.585938	3995.814453	1392.618774	15.321985
336.999084	889.728638	3850.181152	1406.271851	17.448116
337.368622	928.412476	3847.905762	1415.373901	16.679657
337.738098	983.024963	3975.334961	1372.139038	13.003802
338.107513	830.565063	3963.957275	1394.894287	18.010170
338.476898	912.483826	3922.997803	1465.435425	18.367350
338.846252	887.453125	3886.589600	1431.302612	18.133535
339.215576	907.932800	4045.875977	1397.169800	15.591009
339.584869	873.799988	4023.120850	1399.445313	16.690752
339.954132	885.177612	3973.059326	1385.792114	16.212231
340.323334	841.942688	3806.946289	1488.190552	21.795855
340.692505	973.922913	3827.426025	1419.924927	15.629981
341.061646	923.861450	3686.343750	1419.924927	17.957163
341.430786	851.044800	3788.742188	1406.271851	18.900078
341.799896	887.453125	3845.630127	1481.364014	20.076921
342.168915	871.524475	3988.988037	1358.485962	15.620439
342.537903	873.799988	4007.192139	1447.231201	18.300653
342.906830	951.167725	3948.028564	1570.109375	20.653000
343.275757	946.616638	4116.416992	1447.231201	15.793252
343.644684	814.636475	4291.632324	1419.924927	17.408375
344.013550	914.759338	4155.101074	1485.915039	17.626404
344.382355	930.687988	4312.111816	1495.017212	16.689100
344.751129	957.994263	4760.389648	1529.150024	15.020946
345.119873	923.861450	4844.583984	1524.598877	15.322110
345.488586	935.239075	5049.380859	1629.272949	16.869471
345.857269	928.412476	4924.227051	1590.588989	16.571753
346.225891	955.718750	5078.962402	1626.997314	16.280352
346.594482	978.473938	5210.942871	1631.548462	15.430109
346.963043	903.381775	4974.288574	1642.926025	18.166573
347.331543	878.351013	4885.542969	1449.506714	14.253265
347.700043	896.555176	4694.399414	1474.537476	15.218694
348.068512	892.004150	4607.929688	1435.853638	14.635640
348.436951	937.514587	4528.286621	1467.710938	14.765526
348.805328	919.310425	4564.694824	1586.037964	18.289637
349.173645	921.585938	4421.336914	1547.354126	17.880363
349.541931	876.075500	4332.591797	1465.435425	17.050692
349.910217	932.963501	4623.858398	1533.701050	16.276203
350.278473	939.790100	4803.624512	1510.945801	14.782096
350.646667	912.483826	4701.226074	1529.150024	16.276278
351.014801	832.840637	4865.063477	1515.496826	16.930021
351.382935	957.994263	4744.460938	1624.721802	17.608171
351.751007	907.932800	4821.828613	1479.088501	14.593023
352.119049	882.902100	4726.256836	1526.874512	16.755476
352.487091	892.004150	4753.562988	1592.864502	18.149673
352.855072	857.871338	4956.084473	1601.966675	18.156580
353.222992	948.892151	4969.737305	1563.282837	15.280138
353.590881	926.136963	5090.339844	1565.558350	15.355192
353.958740	889.728638	5122.197266	1633.823975	17.580647
354.326599	939.790100	5370.229004	1601.966675	14.946072
354.694397	935.239075	5527.240234	1522.323364	12.784934
355.062134	917.034912	5647.842773	1588.313477	14.189513
355.429840	1003.504700	5663.771484	1679.334351	14.501952
355.797516	992.127075	5693.353027	1636.099487	13.697968
356.165192	919.310425	5961.864258	1583.762451	13.176895
356.532776	894.279663	5895.874512	1677.058838	15.650592
356.900360	921.585938	6114.324219	1793.110352	16.783524
357.267883	903.381775	6284.988281	1872.753662	18.012686
357.635376	917.034912	6644.520508	1843.171875	16.170046
358.002808	848.769287	6892.552734	1815.865601	16.001505
358.370270	846.493713	7149.686523	1804.488037	15.198556
358.737640	892.004150	7324.901367	1863.651489	15.104350
359.105011	937.514587	7070.042969	1902.335449	15.732840
359.472321	944.341125	6724.164063	1809.039063	14.960630
359.839569	882.902100	6646.796387	1847.722900	16.739044
360.206787	876.075500	6660.449219	1768.079712	15.420930
360.574005	851.044800	7013.155273	1777.181763	15.029542
360.941193	912.483826	7229.329590	1950.121338	16.426512
361.308319	894.279663	7582.035156	2011.560425	16.706364
361.675415	907.932800	8216.905273	2011.560425	15.099628
362.042450	894.279663	8924.592773	2038.866699	14.253330
362.409424	928.412476	9202.206055	2198.153076	15.346534
362.776428	932.963501	9491.197266	2116.234375	13.826111
363.143402	851.044800	9024.715820	2102.581299	15.311805
363.510284	962.545288	8387.569336	2004.733887	14.036165
363.877136	942.065613	7372.687500	1922.815063	15.251238
364.243988	980.749451	7138.308594	1913.713013	15.151516
364.610779	964.820801	6699.133301	1770.355225	14.047620
364.977539	921.585938	6489.785156	1733.946899	14.589294
365.344269	923.861450	6478.407715	1765.804199	15.157722
365.710938	910.208313	6121.150879	1772.630737	16.550220
366.077576	953.443237	6107.498047	1811.314575	16.644590
366.444183	878.351013	6018.752441	1793.110352	17.795485
366.810760	905.657288	5995.997070	1727.120239	16.137684
367.177277	912.483826	6218.998535	1779.457275	16.337908
367.543823	901.106262	6316.845703	1645.201538	13.739496
367.910248	892.004150	6300.916992	1740.773438	15.692049
368.276642	894.279663	6080.191406	1645.201538	14.480036
368.643036	887.453125	6032.405762	1674.783325	15.302963
369.009399	932.963501	5836.710938	1704.365112	15.730859
369.375671	878.351013	5791.200684	1626.997314	15.238535
369.741974	901.106262	5850.363770	1586.037964	13.839081
370.108215	964.820801	6014.201660	1622.446289	13.023884
370.474396	898.830688	5980.068848	1633.823975	14.464846
370.840546	919.310425	6050.609863	1720.293701	15.609756
371.206665	923.861450	6077.916016	1679.334351	14.657836
371.572784	998.953613	6068.813965	1688.436401	13.599641
371.938843	873.799988	6385.111328	1761.253052	16.102394
372.304840	912.483826	6307.743652	1722.569214	15.014762
372.670807	905.657288	6275.886230	1697.538574	14.745764
373.036713	928.412476	6287.264160	1736.222412	15.074310
373.402649	876.075500	6121.150879	1645.201538	14.663775
373.768524	912.483826	6153.008301	1656.579102	14.198871
374.134308	889.728638	6244.029297	1777.181763	16.574585
374.500122	864.697876	6266.784180	1777.181763	16.891323
374.865875	896.555176	6280.437500	1677.058838	14.497042
375.231567	898.830688	6421.519531	1706.640625	14.627112
375.597260	871.524475	6530.744629	1749.875488	15.520707
375.962891	869.248962	6642.245117	1754.426514	15.333071
376.328461	905.657288	6940.338379	1774.906250	14.404223
376.694031	871.524475	7017.706055	1763.528564	14.513143
377.059540	910.208313	7274.839844	1872.753662	15.123348
377.425049	942.065613	7650.300781	1881.855713	14.009498
377.790497	873.799988	8053.068359	2002.458252	15.721075
378.155945	942.065613	8059.894531	1941.019287	14.034528
378.521301	955.718750	7959.771973	1927.366089	13.872643
378.886597	901.106262	7641.198730	1938.743774	15.395003
379.251892	880.626526	7456.881836	1952.396851	16.297577
379.617157	948.892151	7088.247070	1909.161987	15.641217
379.982422	955.718750	6840.215332	1758.977539	13.650425
380.347595	919.310425	6883.450195	1865.927002	15.871804
380.712738	903.381775	6785.603027	1758.977539	14.545454
381.077820	812.360901	6924.409668	1822.692139	16.530157
381.442902	923.861450	6928.960938	1758.977539	13.906781
381.807953	901.106262	7138.308594	1822.692139	14.775629
382.172974	942.065613	6951.715820	1774.906250	13.858388
382.537933	971.647400	7045.012207	1724.844727	12.401649
382.902832	896.555176	6792.429688	1788.559326	15.129293
383.267700	866.973450	6867.521973	1747.599976	14.675768
383.632538	919.310425	7170.166016	1781.732788	13.796869
383.997345	998.953613	7349.932129	1838.620850	13.221068
384.362152	898.830688	7568.382324	1865.927002	14.500170
384.726898	889.728638	7481.912598	1820.416626	14.118052
385.091553	869.248962	7591.137207	1979.703125	16.519974
385.456238	864.697876	7552.453613	1843.171875	14.630827
385.820862	944.341125	7456.881836	1995.631714	16.142557
386.185425	957.994263	7652.576660	1827.243164	12.984364
386.549988	855.595825	7820.964844	1856.824951	14.374387
386.914490	860.146851	7698.086914	1922.815063	15.540766
387.278961	928.412476	7864.199707	1838.620850	13.123361
387.643372	944.341125	7850.546875	1886.406738	13.640857
388.007782	942.065613	8114.507324	1934.192627	13.832486
388.372101	896.555176	8248.762695	1918.264038	13.896627
388.736450	944.341125	7930.189941	1984.254150	14.885995
389.100739	896.555176	7871.026367	1995.631714	15.758564
389.464966	914.759338	8034.863770	1895.508789	13.774369
389.829163	921.585938	7764.077148	1895.508789	14.233454
390.193329	889.728638	7832.342773	1840.896362	13.700426
390.557495	898.830688	7786.832031	1843.171875	13.709945
390.921570	880.626526	7937.016602	1884.131226	14.221219
391.285614	957.994263	8255.589844	1804.488037	11.599626
391.649597	862.422363	8590.090820	1956.947876	14.163722
392.013550	910.208313	9215.859375	1979.703125	12.876713
392.377502	932.963501	9404.727539	2070.723877	13.430030
392.741455	917.034912	9275.022461	2061.621826	13.694528
393.105316	932.963501	9174.899414	1888.682251	11.595805
393.469086	976.198425	8956.450195	1927.366089	11.919018
393.832886	905.657288	8697.040039	1947.845825	13.376168
394.196655	948.892151	9024.715820	1968.325439	12.623273
394.560333	967.096313	8951.898438	1988.805176	12.795669
394.924042	896.555176	9311.430664	1945.570313	12.466200
395.287659	880.626526	9252.267578	1986.529663	13.210112
395.651245	928.412476	9099.807617	1968.325439	12.726260
396.014771	889.728638	8883.632813	1909.161987	12.752634
396.378296	971.647400	8567.335938	1829.518677	11.294188
396.741791	985.300537	8269.242188	1765.804199	10.715403
397.105255	903.381775	8317.028320	1863.651489	12.952731
397.468628	851.044800	8062.170410	1770.355225	12.748501
397.832001	926.136963	8023.486328	1797.661377	12.279575
398.195313	944.341125	8348.885742	1795.385864	11.493546
398.558624	923.861450	8266.966797	1793.110352	11.837620
398.921844	926.136963	8305.651367	1756.702026	11.255010
399.285095	921.585938	8046.241699	1770.355225	11.913127
399.648254	896.555176	8182.772949	1740.773438	11.586509
400.011383	919.310425	8226.007813	1820.416626	12.332606
400.374451	930.687988	8150.915527	1804.488037	12.102113
400.737549	942.065613	8339.784180	1738.497925	10.765918
401.100586	841.942688	8207.803711	1772.630737	12.635157
401.463562	901.106262	8212.354492	1772.630737	11.920324
401.826508	841.942688	8344.334961	1749.875488	12.101911
402.189392	923.861450	8255.589844	1749.875488	11.266294
402.552246	844.218201	8617.397461	1745.324463	11.592506
402.915070	946.616638	8210.079102	1729.395752	10.776941
403.277893	896.555176	8617.397461	1790.834839	11.582670
403.640656	937.514587	8785.786133	1815.865601	11.191649
404.003326	903.381775	9240.889648	1838.620850	11.217250
404.366028	926.136963	9022.440430	1788.559326	10.652051
404.728699	848.769287	9523.054688	1868.202637	11.752361
405.091248	880.626526	9889.413086	1799.937012	10.204598
405.453857	876.075500	9680.065430	1884.131226	11.449986
405.816345	860.146851	9470.717773	1820.416626	11.152219
406.178833	944.341125	9657.310547	1827.243164	10.133193
406.541260	923.861450	9807.495117	1879.580200	10.758196
406.903687	896.555176	9404.727539	1824.967651	10.912009
407.266052	905.657288	9318.257813	1733.946899	9.845821
407.628387	919.310425	9341.012695	1722.569214	9.537963
407.990662	869.248962	9106.633789	1795.385864	11.243093
408.352905	910.208313	9140.766602	1718.018188	9.814764
408.715118	898.830688	9277.297852	1736.222412	9.994570
409.077332	985.300537	8942.796875	1761.253052	9.751215
409.439484	957.994263	9391.074219	1740.773438	9.282246
409.801575	944.341125	9090.706055	1654.303589	8.715083
410.163605	951.167725	9479.819336	1679.334351	8.537888
410.525635	955.718750	9634.554688	1765.804199	9.334033
410.887604	898.830688	9925.821289	1811.314575	10.108396
411.249573	876.075500	9882.586914	1706.640625	9.221829
411.611481	889.728638	9750.606445	1649.752563	8.577298
411.973328	930.687988	9609.524414	1677.058838	8.599895
412.335144	998.953613	9716.473633	1740.773438	8.509529
412.696930	912.483826	9570.840820	1649.752563	8.515111
413.058685	914.759338	9432.034180	1606.517700	8.121828
413.420410	980.749451	9416.105469	1586.037964	7.175613
413.782104	946.616638	9686.891602	1617.895264	7.680292
414.143707	917.034912	9673.239258	1599.691162	7.796258
414.505310	921.585938	9586.769531	1613.344238	7.983192
414.866852	878.351013	9604.973633	1606.517700	8.344198
415.228394	885.177612	9832.525391	1677.058838	8.850458
415.589874	896.555176	10039.597656	1624.721802	7.964160
415.951324	896.555176	10098.761719	1572.384888	7.344213
416.312683	944.341125	10558.416992	1713.467163	8.000000
416.674072	921.585938	10522.007813	1672.507813	7.821759
417.035370	892.004150	10904.295898	1649.752563	7.568182
417.396667	910.208313	11150.051758	1697.538574	7.688890
417.757935	896.555176	11172.807617	1649.752563	7.329495
418.119141	887.453125	11798.575195	1718.018188	7.612096
418.480286	876.075500	12133.077148	1663.405762	6.994138
418.841400	1005.780212	12551.772461	1658.854614	5.656287
419.202484	885.177612	13034.183594	1774.906250	7.323469
419.563568	937.514587	13361.858398	1804.488037	6.978022
419.924591	937.514587	14260.688477	1865.927002	6.968403
420.285553	889.728638	14219.729492	1745.324463	6.418573
420.646484	898.830688	15389.347656	1811.314575	6.297111
421.007355	878.351013	15753.430664	1849.998413	6.532048
421.368225	853.320313	16620.404297	1909.161987	6.696493
421.729065	892.004150	16961.732422	1863.651489	6.046445
422.089874	860.146851	17610.255859	1981.978638	6.697460
422.450592	942.065613	17207.488281	1931.917114	6.085618
422.811279	851.044800	17189.283203	1909.161987	6.476324
423.171936	953.443237	16948.078125	1904.610962	5.946793
423.532593	876.075500	16868.435547	2009.284912	7.085943
423.893127	935.239075	17287.130859	1977.427612	6.373504
424.253723	928.412476	17521.509766	1997.907227	6.445419
424.614197	985.300537	17291.681641	2057.070801	6.572705
424.974670	955.718750	18163.207031	1988.805176	6.003703
425.335052	978.473938	18185.962891	2011.560425	6.003703
425.695496	953.443237	17214.314453	1986.529663	6.353205
426.055817	989.851563	17341.744141	2052.519775	6.498747
426.416168	969.371887	17255.273438	2068.448486	6.748639
426.776398	939.790100	16233.565430	2016.111450	7.037643
427.136627	887.453125	15805.767578	1956.947876	7.169005
427.496826	939.790100	15589.592773	1922.815063	6.710158
427.856995	955.718750	15164.070313	1938.743774	6.918643
428.217102	903.381775	14529.200195	1931.917114	7.548430
428.577179	967.096313	14192.422852	1865.927002	6.796284
428.937195	828.289551	13976.249023	1802.212524	7.407408
429.297180	862.422363	13291.317383	1740.773438	7.067009
429.657135	926.136963	13418.746094	1788.559326	6.903461
430.017059	996.678101	13600.788086	1793.110352	6.318830
430.376984	923.861450	13423.296875	1761.253052	6.699435
430.736786	907.932800	12945.437500	1811.314575	7.504726
431.096588	955.718750	12977.294922	1738.497925	6.511452
431.456360	876.075500	12972.744141	1818.141113	7.787810
431.816071	957.994263	12738.365234	1736.222412	6.606143
432.175781	926.136963	12879.447266	1754.426514	6.929374
432.535400	930.687988	13029.631836	1736.222412	6.657891
432.895020	866.973450	12697.406250	1827.243164	8.116945
433.254578	923.861450	13034.183594	1797.661377	7.215332
433.614105	989.851563	13534.797852	1695.262939	5.623072
433.973602	892.004150	13514.318359	1724.844727	6.598161
434.333038	876.075500	13846.543945	1834.069824	7.385965
434.692444	894.279663	13737.319336	1763.528564	6.768249
435.051819	901.106262	13973.973633	1847.722900	7.241079
435.411133	921.585938	14046.790039	1722.569214	6.102635
435.770416	967.096313	13075.142578	1615.619751	5.356136
436.129669	919.310425	14026.310547	1752.151001	6.354167
436.488861	917.034912	13527.970703	1706.640625	6.261278
436.848083	907.932800	13562.103516	1733.946899	6.527604
437.207184	903.381775	13564.379883	1649.752563	5.895039
437.566254	851.044800	13769.176758	1724.844727	6.764135
437.925293	857.871338	13862.472656	1681.609863	6.334208
438.284363	896.555176	14165.117188	1720.293701	6.208197
438.643311	926.136963	14342.607422	1688.436401	5.681818
439.002258	962.545288	14240.208984	1674.783325	5.364182
439.361145	901.106262	14888.732422	1649.752563	5.352204
439.719971	903.381775	15325.632813	1720.293701	5.664247
440.078827	937.514587	15557.735352	1692.987427	5.167315
440.437592	932.963501	16090.208008	1797.661377	5.704849
440.796295	855.595825	16153.921875	1704.365112	5.548119
441.155029	887.453125	17064.130859	1788.559326	5.570404
441.513672	948.892151	17375.876953	1795.385864	5.153068
441.872253	864.697876	17205.212891	1829.518677	5.904470
442.230865	903.381775	17075.507813	1754.426514	5.262417
442.589386	932.963501	17048.201172	1738.497925	4.998589
442.947876	905.657288	16386.025391	1686.160889	5.041893
443.306335	862.422363	16399.677734	1672.507813	5.213826
443.664764	885.177612	15828.522461	1579.211426	4.644434
444.023102	882.902100	15726.124023	1633.823975	5.059022
444.381500	910.208313	15553.184570	1642.926025	5.003885
444.739777	873.799988	15783.012695	1727.120239	5.723443
445.098022	932.963501	16247.218750	1692.987427	4.962853
445.456238	880.626526	16413.332031	1665.681274	5.054205
445.814423	880.626526	16677.291016	1636.099487	4.782484
446.172577	912.483826	17821.878906	1768.079712	5.059885
446.530701	957.994263	17901.521484	1797.661377	4.955681
446.888733	907.932800	18104.042969	1688.436401	4.538838
447.246765	903.381775	19371.507813	1847.722900	5.113356
447.604736	964.820801	18572.800781	1765.804199	4.548979
447.962677	896.555176	18768.496094	1847.722900	5.322129
448.320587	894.279663	18971.017578	1786.283813	4.934542
448.678436	926.136963	18231.472656	1838.620850	5.272847
449.036255	882.902100	18135.900391	1879.580200	5.776840
449.394043	887.453125	17089.162109	1827.243164	5.800561
449.751770	919.310425	17455.519531	1897.784302	5.917160
450.109467	876.075500	17139.222656	1770.355225	5.498811
450.467163	876.075500	16954.906250	1795.385864	5.717520
450.824768	892.004150	16747.833984	1929.641602	6.544201
451.182343	901.106262	16508.904297	1881.855713	6.283714
451.539886	846.493713	15787.563477	1863.651489	6.807798
451.897369	889.728638	15821.696289	1868.202637	6.552880
452.254822	955.718750	15910.441406	1918.264038	6.436397
452.612274	889.728638	16365.545898	1938.743774	6.778415
452.969635	937.514587	16042.421875	2095.754639	7.667972
453.326965	826.014038	16147.095703	1936.468262	7.247884
453.684326	839.667175	15985.533203	1984.254150	7.557091
454.041534	905.657288	15421.204102	2011.560425	7.618749
454.398773	989.851563	15239.163086	2016.111450	7.202172
454.755951	903.381775	14704.415039	2088.927979	8.590271
455.113098	953.443237	14333.505859	2059.346436	8.265306
455.470215	878.351013	14886.457031	2161.744873	9.161794
455.827240	905.657288	14467.761719	2166.295898	9.295302
456.184265	939.790100	14344.882813	2289.173828	10.066202
456.541260	853.320313	14563.333008	2352.888428	10.937758
456.898193	905.657288	14338.056641	2311.929199	10.469254
457.255096	816.911987	14451.833008	2266.418701	10.630840
457.611969	910.208313	14347.158203	2443.909424	11.414057
457.968781	894.279663	14338.056641	2491.695313	11.882194
458.325531	930.687988	15052.570313	2594.093750	11.778923
458.682312	928.412476	15685.165039	2707.869873	12.058598
459.039001	939.790100	16511.179688	2958.177002	12.962151
459.395630	892.004150	16929.875000	3046.922363	13.436436
459.752289	876.075500	18545.494141	3351.842041	14.011591
460.108856	914.759338	19642.294922	3720.476563	14.981775
460.465363	926.136963	20502.443359	3784.191162	14.599558
460.821899	876.075500	20427.349609	3806.946289	14.990690
461.178345	848.769287	19778.826172	3850.181152	15.855271
461.534760	994.402588	19205.396484	3863.834229	15.756590
461.891144	889.728638	18263.330078	3895.691650	17.301899
462.247467	901.106262	17312.162109	3718.200928	17.165834
462.603760	962.545288	17223.416016	3802.395264	17.464317
462.960052	910.208313	16577.169922	3674.966064	17.647058
463.316254	910.208313	16010.564453	3756.884766	18.851717
463.672424	896.555176	15864.930664	3747.782715	19.048344
464.028564	878.351013	15259.642578	3679.517090	19.477846
464.384644	930.687988	15182.274414	3822.875000	20.293791
464.740723	901.106262	15448.510742	3952.579590	20.976068
465.096741	914.759338	15384.795898	3868.385254	20.412016
465.452698	871.524475	15296.050781	4089.110840	22.306358
465.808655	969.371887	15293.775391	4118.692871	21.985704
466.164520	901.106262	15225.509766	4048.151611	21.969818
466.520355	889.728638	15871.757813	4328.040527	22.949575
466.876190	937.514587	16067.452148	4500.979980	23.552412
467.231964	973.922913	16215.361328	4464.571777	22.902359
467.587677	857.871338	16661.363281	4739.909668	24.564434
467.943390	871.524475	16588.546875	4762.665039	24.757492
468.299011	907.932800	16153.921875	4771.767090	25.343283
468.654633	928.412476	16035.594727	4876.440918	26.133451
469.010223	923.861450	16190.330078	4805.899902	25.428530
469.365723	896.555176	15539.531250	4799.073242	26.651125
469.721191	903.381775	15596.419922	4849.134766	26.854574
470.076660	901.106262	15139.040039	4648.889160	26.322521
470.432068	901.106262	15500.847656	4892.369629	27.337906
470.787445	923.861450	14993.406250	4801.349121	27.559441
471.142792	903.381775	15107.182617	4762.665039	27.170778
471.498016	896.555176	15343.836914	4951.533203	28.067413
471.853271	903.381775	15626.000977	4960.635254	27.557959
472.208496	896.555176	15337.009766	5135.850586	29.357077
472.563660	903.381775	15687.440430	5240.524414	29.336617
472.918762	905.657288	15717.022461	5397.535156	30.327238
473.273865	939.790100	16420.158203	5345.198242	28.458033
473.628876	907.932800	16577.169922	5711.557129	30.656403
473.983917	919.310425	16845.679688	5811.680176	30.718676
474.338837	898.830688	16690.945313	5625.087402	29.927956
474.693787	869.248962	16456.566406	5713.832520	31.080290
475.048645	951.167725	16502.076172	5868.568359	31.621307
475.403503	957.994263	16643.158203	6023.303711	32.293636
475.758270	889.728638	16795.619141	6084.742676	32.660946
476.113037	898.830688	16827.476563	6027.854492	32.200001
476.467773	948.892151	17202.937500	6250.855469	32.619347
476.822418	937.514587	18122.248047	6510.265137	32.428493
477.177063	889.728638	17742.236328	6517.091797	33.391846
477.531647	807.809875	18110.869141	6881.174805	35.099949
477.886200	896.555176	18891.373047	6862.970703	33.156296
478.240723	932.963501	19030.179688	7060.940918	33.861435
478.595184	866.973450	19457.978516	6990.399902	32.937572
478.949585	905.657288	19592.234375	7299.870605	34.218220
479.303986	873.799988	19685.531250	7374.962891	34.559090
479.658325	969.371887	19931.287109	7593.413086	34.933395
480.012634	873.799988	20090.572266	7748.148438	35.772652
480.366913	887.453125	20579.810547	7857.373535	35.394039
480.721130	926.136963	21146.414063	8032.588379	35.145172
481.075317	844.218201	22136.265625	8412.600586	35.545582
481.429474	937.514587	23082.882813	8856.327148	35.758324
481.783569	914.759338	24038.601563	9370.594727	36.567604
482.137604	926.136963	25083.066406	9666.412109	36.181236
482.491669	923.861450	27929.742188	10608.477539	35.861137
482.845612	866.973450	30978.939453	11780.371094	36.242725
483.199554	951.167725	34697.140625	13432.399414	36.985840
483.553436	896.555176	40647.628906	15801.216797	37.494991
483.907318	857.871338	47194.300781	18841.312500	38.810589
484.261139	928.412476	53442.882813	21462.712891	39.102177
484.614899	860.146851	55315.636719	23324.087891	41.251934
484.968628	869.248962	55247.371094	22793.892578	40.318871
485.322357	907.932800	52143.558594	21230.609375	39.665127
485.675964	932.963501	48812.195313	19521.693359	38.824203
486.029572	914.759338	44577.453125	17931.103516	38.972271
486.383148	894.279663	41990.183594	16750.109375	38.582508
486.736694	939.790100	39962.695313	16131.166992	38.929382
487.090149	962.545288	39990.003906	16401.953125	39.560375
487.443604	903.381775	41186.925781	16977.660156	39.902840
487.796997	914.759338	42966.382813	17835.531250	40.238091
488.150360	880.626526	44199.714844	18113.146484	39.780430
488.503693	955.718750	45096.269531	18650.167969	40.086609
488.856964	942.065613	44233.847656	18276.982422	40.042049
489.210175	901.106262	41532.804688	17070.957031	39.796146
489.563416	910.208313	39173.089844	16313.208984	40.255726
489.916565	898.830688	37065.957031	15655.583008	40.801563
490.269653	989.851563	34660.734375	14604.292969	40.433872
490.622772	946.616638	33559.378906	14183.321289	40.587502
490.975769	871.524475	33727.769531	14376.740234	41.103954
491.328735	855.595825	35097.632813	15079.875977	41.540405
491.681732	853.320313	37154.703125	15935.472656	41.547047
492.034607	946.616638	39655.500000	16747.833984	40.820652
492.387482	935.239075	40040.062500	17328.091797	41.920284
492.740326	901.106262	39107.101563	16961.732422	42.036926
493.093079	864.697876	36990.867188	15896.788086	41.609978
493.445862	848.769287	33832.441406	14638.425781	41.807522
493.798523	917.034912	31297.513672	13534.797852	41.532467
494.151215	923.861450	28680.664063	12608.661133	42.097065
494.503815	960.269775	26939.890625	11796.299805	41.709732
494.856384	919.310425	25576.853516	11127.296875	41.399040
495.208923	976.198425	24252.500000	10681.294922	41.695187
495.561432	964.820801	23756.437500	10501.528320	41.843048
495.913879	873.799988	23333.189453	10638.059570	43.475182
496.266296	871.524475	23847.457031	10435.538086	41.626228
496.618683	853.320313	23688.171875	10603.926758	42.700546
496.970978	910.208313	24309.388672	10840.581055	42.438980
497.323273	896.555176	24543.767578	10824.652344	41.984219
497.675507	912.483826	24869.166016	11143.225586	42.705173
498.027710	923.861450	24885.095703	10933.877930	41.775879
498.379852	885.177612	24334.419922	11090.888672	43.522560
498.731995	835.116150	24263.878906	10826.927734	42.647625
499.084076	898.830688	23697.273438	10515.181641	42.179855
499.436096	903.381775	23563.017578	10606.202148	42.819839
499.788086	928.412476	22828.025391	10449.191406	43.474648
500.140106	937.514587	22605.023438	10264.874023	43.047676
500.491943	903.381775	22097.582031	10069.179688	43.246723
500.843842	885.177612	21731.224609	10041.873047	43.925331
501.195679	844.218201	21267.017578	9889.413086	44.289696
501.547455	855.595825	20795.984375	9591.320313	43.809200
501.899231	912.483826	20807.361328	9498.023438	43.154526
502.250885	917.034912	20695.861328	9452.513672	43.154625
502.602600	855.595825	20666.279297	9416.105469	43.211582
502.954193	978.473938	20331.779297	9209.032227	42.527924
503.305786	898.830688	20097.400391	9463.890625	44.613007
503.657379	994.402588	20600.289063	9454.789063	43.152279
504.008820	898.830688	20283.992188	9281.849609	43.244511
504.360291	923.861450	20916.587891	9616.350586	43.478256
504.711700	903.381775	21280.669922	9837.076172	43.841427
505.063080	898.830688	20957.546875	9775.637695	44.254108
505.414368	862.422363	21121.384766	9559.462891	42.929348
505.765656	944.341125	20893.832031	9579.942383	43.287331
506.116943	896.555176	20570.708984	9787.014648	45.188519
506.468109	878.351013	20477.412109	9468.442383	43.829102
506.819305	917.034912	20709.515625	9575.391602	43.745686
507.170410	919.310425	20472.861328	9436.584961	43.558708
507.521484	846.493713	20830.117188	9377.420898	42.689590
507.872559	944.341125	20468.310547	9718.749023	44.941723
508.223480	955.718750	20802.810547	9627.728516	43.694107
508.574493	951.167725	21201.027344	9909.893555	44.240929
508.925385	866.973450	21619.722656	10110.138672	44.539471
509.276245	905.657288	21692.539063	9923.545898	43.382595
509.627045	928.412476	21826.794922	10107.863281	43.924217
509.977814	903.381775	22104.408203	10271.701172	44.188046
510.328613	889.728638	22493.523438	10560.692383	44.765118
510.679260	878.351013	22404.777344	10412.783203	44.291759
511.029999	851.044800	22498.074219	10585.722656	44.970039
511.380585	926.136963	23010.066406	10772.315430	44.585266
511.731140	917.034912	22960.005859	10963.458984	45.576542
512.081726	896.555176	23219.414063	10822.376953	44.464832
512.432129	821.463013	23360.496094	10911.122070	44.765270
512.782654	876.075500	23592.599609	11043.102539	44.756088
513.133057	967.096313	23685.896484	11259.277344	45.302483
513.483398	921.585938	23326.363281	11095.439453	45.409306
513.833801	976.198425	23510.681641	11093.164063	44.895489
514.183960	992.127075	23180.730469	10845.131836	44.405701
514.534302	887.453125	23062.404297	10947.530273	45.366852
514.884460	939.790100	23101.087891	10590.273438	43.546566
515.234619	914.759338	22700.595703	10779.141602	45.278877
515.584717	903.381775	22630.054688	10683.570313	45.014660
515.934753	955.718750	22812.095703	10708.600586	44.622593
516.284851	932.963501	22800.718750	10881.540039	45.494270
516.634766	955.718750	23353.669922	11236.521484	45.900639
516.984741	901.106262	23531.160156	11006.694336	44.655605
517.334595	903.381775	24561.970703	11416.288086	44.435894
517.684448	946.616638	25192.291016	11898.698242	45.171284
518.034363	953.443237	26371.009766	12478.956055	45.344673
518.384094	889.728638	27592.964844	12633.691406	43.979549
518.733826	905.657288	28503.173828	13273.113281	44.813656
519.083496	869.248962	29174.453125	13450.603516	44.448906
519.433167	869.248962	29190.380859	13648.574219	45.122932
519.782776	951.167725	28798.992188	13525.695313	45.154434
520.132324	896.555176	28682.939453	13286.765625	44.590942
520.481873	882.902100	28089.029297	13318.623047	45.709267
520.831299	887.453125	27445.056641	12781.600586	44.786224
521.180786	871.524475	26710.062500	12219.546875	43.918983
521.530151	923.861450	26441.550781	12242.301758	44.355270
521.879517	901.106262	25572.302734	11926.004883	44.687325
522.228882	907.932800	26163.937500	12048.882813	44.112087
522.578064	885.177612	25167.259766	11951.035156	45.572113
522.927307	987.576050	25843.089844	11926.004883	44.008057
523.276489	983.024963	25408.464844	11944.208984	44.876095
523.625610	885.177612	25720.210938	12155.832031	45.382080
523.974792	896.555176	26330.050781	12187.689453	44.394741
524.323792	894.279663	26948.992188	12610.936523	44.969437
524.672852	905.657288	27251.636719	12849.866211	45.335987
525.021790	907.932800	28532.755859	13334.551758	44.983524
525.370728	953.443237	29859.384766	14130.984375	45.587654
525.719604	869.248962	31752.617188	14638.425781	44.584438
526.068420	855.595825	33252.183594	15505.398438	45.220203
526.417297	921.585938	34401.324219	15996.911133	45.028206
526.765991	864.697876	35429.859375	16706.873047	45.832783
527.114746	978.473938	36399.230469	16934.425781	45.046898
527.463379	928.412476	38160.484375	17423.662109	44.303875
527.812012	919.310425	40156.117188	18761.669922	45.473522
528.160706	887.453125	43601.253906	20334.054688	45.527679
528.509155	880.626526	48680.214844	22796.167969	45.848804
528.857727	910.208313	52662.378906	25139.953125	46.818798
529.206177	876.075500	55422.585938	27253.912109	48.358429
529.554565	914.759338	55893.617188	27017.257813	47.477337
529.902893	896.555176	54414.527344	25972.794922	46.855736
530.251221	896.555176	51624.742188	24159.205078	45.857445
530.599548	921.585938	47813.242188	22052.072266	45.062359
530.947876	880.626526	43831.082031	20390.941406	45.425163
531.296021	951.167725	40561.160156	18773.046875	44.993393
531.644165	860.146851	37823.707031	17626.183594	45.358288
531.992249	901.106262	36424.261719	16743.281250	44.596756
532.340454	860.146851	35673.339844	16486.148438	44.885288
532.688354	894.279663	35812.144531	16556.689453	44.855007
533.036438	932.963501	37254.828125	16993.589844	44.217518
533.384338	919.310425	39241.355469	18065.359375	44.741997
533.732239	894.279663	41368.968750	18957.363281	44.628101
534.080139	898.830688	41471.367188	19403.365234	45.608524
534.427917	914.759338	41070.875000	18925.505859	44.851810
534.775757	894.279663	38809.007813	17915.175781	44.892574
535.123474	914.759338	37329.917969	17450.968750	45.410233
535.471191	935.239075	35120.386719	16174.402344	44.578316
535.818848	844.218201	33673.156250	15651.032227	45.102936
536.166382	880.626526	32387.488281	14936.518555	44.612160
536.513977	971.647400	33295.421875	15248.264648	44.167542
536.861511	989.851563	33488.839844	15230.060547	43.817390
537.208984	910.208313	33909.812500	15368.867188	43.814644
537.556396	939.790100	33673.156250	15020.712891	43.017033
537.903809	919.310425	32683.304688	15029.814453	44.422951
538.251160	892.004150	31452.248047	14743.099609	45.323902
538.598389	889.728638	30077.833984	14087.749023	45.217121
538.945740	957.994263	28899.113281	13887.503906	46.274132
539.292969	910.208313	28714.796875	13669.053711	45.887554
539.640137	923.861450	28694.316406	13389.164063	44.886921
539.987244	873.799988	29049.298828	13436.950195	44.588921
540.334351	955.718750	30350.896484	14112.780273	44.759251
540.681458	898.830688	31850.464844	14749.925781	44.750771
541.028442	912.483826	34895.113281	16640.882813	46.283646
541.375366	917.034912	37766.820313	17969.787109	46.276394
541.722290	807.809875	41066.324219	19457.978516	46.326019
542.069153	871.524475	42975.484375	20006.378906	45.446682
542.416016	864.697876	42650.085938	20074.644531	45.972885
542.762756	848.769287	41535.082031	19339.650391	45.447422
543.109558	964.820801	40224.382813	18654.718750	45.058826
543.456299	862.422363	38444.925781	17869.664063	45.253086
543.802917	896.555176	36324.136719	16986.763672	45.417179
544.149536	939.790100	35074.878906	16235.840820	44.810345
544.496094	912.483826	32967.746094	15546.358398	45.652023
544.842651	992.127075	31331.646484	14460.934570	44.393608
545.189148	937.514587	29586.322266	13942.116211	45.393166
545.535583	923.861450	28871.808594	13639.471680	45.497475
545.882019	887.453125	28048.070313	13493.837891	46.414207
546.228333	917.034912	27715.843750	13273.113281	46.106819
546.574707	957.994263	27693.087891	13505.215820	46.931652
546.920898	926.136963	27727.220703	13138.857422	45.568008
547.267212	898.830688	27906.986328	13223.051758	45.631477
547.613342	896.555176	27549.730469	13366.409180	46.785622
547.959473	864.697876	27440.505859	12824.834961	45.003849
548.305664	919.310425	26305.019531	12549.497070	45.813911
548.651611	926.136963	25237.800781	11848.636719	44.926994
548.997742	953.443237	24325.316406	11138.674805	43.579014
549.343689	876.075500	23233.068359	10983.938477	45.211193
549.689575	1001.229126	22313.757813	10196.608398	43.145412
550.035522	983.024963	21517.324219	10096.485352	44.381645
550.381287	951.167725	20909.759766	9630.003906	43.484211
550.727173	898.830688	21050.843750	9468.442383	42.524837
551.072876	905.657288	20436.453125	9129.389648	42.106491
551.418640	882.902100	20290.818359	8922.317383	41.423382
551.764282	846.493713	19985.898438	9124.838867	43.252888
552.109863	882.902100	20181.593750	8876.806641	41.422001
552.455505	939.790100	20500.166016	9186.277344	42.159149
552.801025	939.790100	20634.421875	9086.154297	41.363377
553.146545	855.595825	20964.373047	9240.889648	41.699669
553.491943	930.687988	21128.210938	9213.583984	41.009464
553.837341	894.279663	20905.208984	9209.032227	41.551056
554.182800	898.830688	20916.587891	9118.011719	41.059448
554.528015	973.922913	20238.482422	9072.500977	42.038742
554.873352	882.902100	19630.917969	8922.317383	42.881420
555.218628	907.932800	19965.419922	8799.438477	41.408955
555.563721	898.830688	19435.222656	8558.233398	41.320892
555.908875	912.483826	19062.037109	8492.243164	41.762787
556.254028	914.759338	18490.882813	8166.844238	41.261005
556.599121	889.728638	18545.494141	7977.976074	40.146927
556.944031	901.106262	18588.728516	8198.701172	41.258198
557.289063	921.585938	18408.962891	7943.843262	40.156151
557.633972	930.687988	18531.841797	8012.108887	40.232708
557.978882	944.341125	18288.361328	7873.301758	39.950142
558.323792	942.065613	17953.859375	7898.332520	40.890854
558.668518	892.004150	17860.562500	7636.647949	39.747887
559.013306	985.300537	17817.328125	7836.893555	40.705688
559.358032	894.279663	17628.458984	7741.321777	40.916508
559.702637	905.657288	17746.787109	7534.249512	39.359547
560.047363	889.728638	17603.429688	7611.617188	40.217834
560.391846	905.657288	17744.511719	7800.485352	40.945946
560.736450	937.514587	17769.541016	7657.127441	39.921589
561.080933	926.136963	17915.175781	7577.484375	39.150818
561.425354	898.830688	18327.044922	7764.077148	39.391563
561.769775	914.759338	18106.318359	7675.331543	39.324951
562.114136	905.657288	17821.878906	7586.586426	39.494217
562.458496	901.106262	18238.298828	7652.576660	38.942116
562.802673	907.932800	18361.177734	7707.188965	38.956978
563.146912	869.248962	17906.072266	7557.004395	39.254707
563.491150	919.310425	17817.328125	7552.453613	39.253971
563.835266	905.657288	17937.929688	7429.575195	38.303276
564.179443	937.514587	18065.359375	7582.035156	38.793674
564.523438	844.218201	17919.726563	7550.178223	39.272388
564.867493	992.127075	17933.378906	7481.912598	38.307590
565.211426	894.279663	18295.187500	7600.239258	38.537987
565.555359	905.657288	18506.810547	7686.709473	38.526184
565.899231	942.065613	18884.546875	7921.087891	38.896641
566.243042	882.902100	19398.814453	7934.741211	38.085289
566.586914	914.759338	19694.632813	8139.538086	38.470860
566.930603	907.932800	20133.808594	8257.865234	38.229378
567.274292	896.555176	20293.093750	8433.080078	38.855000
567.617981	912.483826	20122.429688	8139.538086	37.621422
567.961609	928.412476	19888.052734	8226.007813	38.490154
568.305237	921.585938	19168.986328	7877.853027	38.121964
568.648682	923.861450	18957.363281	7866.475586	38.498425
568.992188	921.585938	18509.085938	7509.218750	37.456333
569.335632	901.106262	18465.851563	7611.617188	38.204430
569.679016	873.799988	18559.148438	7372.687500	36.747299
570.022461	928.412476	18502.259766	7420.473145	36.941601
570.365662	860.146851	18725.259766	7372.687500	36.453957
570.708984	937.514587	18561.423828	7525.147461	37.378952
571.052185	914.759338	18647.892578	7679.882813	38.149624
571.395386	917.034912	19130.302734	7700.362305	37.243877
571.738525	926.136963	19628.642578	7743.597168	36.452122
572.081604	876.075500	20099.675781	7909.710449	36.588543
572.424683	896.555176	20290.818359	7802.760742	35.609528
572.767578	887.453125	20500.166016	7900.608398	35.758209
573.110596	862.422363	20172.492188	7957.496094	36.742870
573.453552	873.799988	20249.859375	7818.689453	35.842632
573.796387	912.483826	20065.542969	7670.780762	35.285732
574.139282	969.371887	19594.509766	7909.710449	37.263283
574.481995	876.075500	19355.580078	7686.709473	36.855068
574.824768	1012.606750	19316.896484	7388.616211	34.833416
575.167480	923.861450	19528.519531	7340.830078	34.491196
575.510132	944.341125	19107.548828	7379.514160	35.429718
575.852722	921.585938	19244.080078	7349.932129	35.084450
576.195251	901.106262	19098.445313	7525.147461	36.401150
576.537842	967.096313	18859.515625	7363.585449	35.749714
576.880188	976.198425	18572.800781	7088.247070	34.734257
577.222717	946.616638	18185.962891	7013.155273	35.190075
577.565063	930.687988	17940.205078	6733.266113	34.113712
577.907410	889.728638	17589.775391	6806.082520	35.427170
578.249756	907.932800	17093.712891	6626.316406	35.329678
578.591919	871.524475	16663.638672	6430.621582	35.201729
578.934204	948.892151	16267.698242	6355.529785	35.294121
579.276306	978.473938	16370.096680	6207.620605	33.973976
579.618469	853.320313	15889.961914	5966.415527	34.004238
579.960571	853.320313	15519.051758	5927.731445	34.600464
580.302551	921.585938	15421.204102	5777.547363	33.490273
580.644531	939.790100	15503.123047	5920.905273	34.203125
580.986511	964.820801	15323.357422	5727.485840	33.169571
581.328369	964.820801	14852.324219	5732.037109	34.327381
581.670227	930.687988	15013.886719	5600.056641	33.155598
582.012024	905.657288	14440.455078	5552.270996	34.330868
582.353821	887.453125	14838.670898	5438.494629	32.621105
582.695496	973.922913	14699.864258	5506.760254	33.023872
583.037231	944.341125	14408.597656	5408.913086	33.158695
583.378845	873.799988	14763.579102	5504.484863	33.338795
583.720398	919.310425	14504.169922	5358.851563	32.680065
584.062012	892.004150	14406.322266	5315.616699	32.732780
584.403442	912.483826	14551.955078	5238.249023	31.715050
584.744934	955.718750	14303.923828	5261.003906	32.253662
585.086365	907.932800	14283.444336	5224.595703	32.272881
585.427734	942.065613	14242.484375	5324.718750	32.951244
585.768982	901.106262	14035.412109	5042.554199	31.531532
586.110291	907.932800	14042.239258	5003.870117	31.185028
586.451599	903.381775	13935.289063	5072.135742	31.988825
586.792725	901.106262	14035.412109	5033.452148	31.462233
587.133850	951.167725	13937.564453	5060.758301	31.645351
587.474915	935.239075	14269.791016	5094.891113	31.194538
587.815979	907.932800	14224.280273	4912.849609	30.075190
588.157043	923.861450	14053.616211	5154.054688	32.218372
588.497925	871.524475	14258.413086	5069.860352	31.361551
588.838867	967.096313	14276.617188	4901.471680	29.560610
589.179749	985.300537	14397.219727	4976.563965	29.759079
589.520569	921.585938	14588.364258	4958.359863	29.537128
589.861450	892.004150	14576.986328	5108.544434	30.811440
590.202087	978.473938	14624.772461	4985.666016	29.364681
590.542847	871.524475	14886.457031	5108.544434	30.232183
590.883484	939.790100	15070.774414	5097.166504	29.420290
591.224121	939.790100	14840.946289	5015.248047	29.317404
591.564636	905.657288	14759.028320	4865.063477	28.580814
591.905151	971.647400	14599.741211	4946.982422	29.170147
592.245667	935.239075	14620.220703	4842.308105	28.550051
592.585999	882.902100	14306.199219	4810.451172	29.259199
592.926453	882.902100	14222.004883	4685.297363	28.505630
593.266724	912.483826	14130.984375	4673.919922	28.455845
593.607056	882.902100	14215.178711	4662.541992	28.349546
593.947388	876.075500	14322.127930	4694.399414	28.397360
594.287476	910.208313	14303.923828	4776.318359	28.865105
594.627686	894.279663	14467.761719	4769.491699	28.549873
594.967773	898.830688	14820.466797	4776.318359	27.852243
595.307861	928.412476	14811.365234	4760.389648	27.602032
595.647888	898.830688	14838.670898	4692.124023	27.211887
595.987854	882.902100	15170.897461	4835.481934	27.663643
596.327820	926.136963	15441.684570	4794.522461	26.649944
596.667725	928.412476	15842.175781	4958.359863	27.021666
597.007568	930.687988	16609.025391	5140.401367	26.850508
597.347351	948.892151	16923.048828	5119.921875	26.111113
597.687073	926.136963	17582.949219	5179.085449	25.532785
598.026794	969.371887	17089.162109	4933.329102	24.590626
598.366455	905.657288	16597.648438	4833.206055	25.029003
598.706116	926.136963	16208.535156	4871.890137	25.818939
599.045654	851.044800	15662.410156	4644.337891	25.610691
599.385193	901.106262	14931.967773	4548.766113	25.997406
599.724731	898.830688	14438.179688	4507.806641	26.655462
600.064087	939.790100	14251.586914	4248.397461	24.854702
600.403564	828.289551	14151.463867	4328.040527	26.268148
600.742920	887.453125	13714.563477	4184.682617	25.705162
601.082153	935.239075	13746.420898	4050.427002	24.316164
601.421387	905.657288	13550.726563	4200.611328	26.057224
601.760620	919.310425	13375.511719	4086.835449	25.429300
602.099854	887.453125	13566.655273	3872.936523	23.546303
602.438843	987.576050	13776.002930	3918.446777	22.918148
602.778015	994.402588	13755.523438	4064.080078	24.054920
603.117065	876.075500	14592.915039	4182.407227	24.104179
603.456055	978.473938	14542.853516	4334.867188	24.744171
603.794983	989.851563	15011.610352	4257.499512	23.304123
604.133850	905.657288	15578.215820	4318.938477	23.263027
604.472778	935.239075	16119.789063	4494.153809	23.437737
604.811584	948.892151	16672.740234	4539.664063	22.836472
605.150330	905.657288	16954.906250	4703.501465	23.663689
605.489075	930.687988	17243.896484	4648.889160	22.792580
605.827698	898.830688	17152.875000	4685.297363	23.295536
606.166382	878.351013	16731.904297	4582.898926	23.367302
606.504883	887.453125	16147.095703	4480.500488	23.546078
606.843445	1023.984375	15653.307617	4243.846191	22.009644
607.181946	923.861450	15284.672852	4145.999023	22.437017
607.520386	928.412476	14774.957031	4068.631104	22.678717
607.858826	910.208313	14240.208984	4070.906738	23.711164
608.197083	953.443237	13962.595703	3893.416016	22.599264
608.535461	871.524475	14133.259766	3811.497314	22.168840
608.873718	866.973450	14174.218750	3863.834229	22.520521
609.211914	919.310425	14322.127930	4041.324951	23.293718
609.550171	953.443237	14963.825195	3963.957275	21.487738
609.888245	800.983337	15205.030273	4045.875977	22.527645
610.226318	901.106262	15557.735352	4248.397461	22.838070
610.564392	955.718750	15528.154297	4102.764160	21.595879
610.902344	905.657288	15220.958984	4116.416992	22.428865
611.240295	955.718750	15116.285156	4082.284424	22.079382
611.578247	923.861450	14715.792969	3925.273438	21.762087
611.916138	894.279663	14308.474609	3893.416016	22.357929
612.253845	892.004150	14108.228516	3752.333740	21.642561
612.591675	955.718750	13798.757813	3740.956299	21.686749
612.929382	851.044800	13380.062500	3668.139648	22.484562
613.267090	914.759338	12849.866211	3502.026611	21.677790
613.604736	889.728638	12724.711914	3458.791504	21.707365
613.942261	830.565063	12699.681641	3383.699463	21.510736
614.279785	866.973450	12522.191406	3420.107666	21.905504
614.617310	932.963501	12349.250977	3442.863037	21.985250
614.954712	923.861450	12244.577148	3354.117676	21.467339
615.292175	926.136963	12048.882813	3388.250488	22.135841
615.629517	930.687988	12092.117188	3365.495361	21.814476
615.966797	923.861450	12119.423828	3299.505127	21.219511
616.304138	896.555176	11978.341797	3292.678711	21.622177
616.641296	942.065613	12110.321289	3342.739990	21.495518
616.978516	942.065613	11991.994141	3167.524902	20.140032
617.315552	967.096313	12048.882813	3206.208740	20.205338
617.652771	885.177612	12069.362305	3258.545898	21.220753
617.989685	892.004150	11896.422852	3256.270264	21.484697
618.326721	878.351013	11969.239258	3313.158203	21.953220
618.663696	839.667175	12069.362305	3215.310791	21.155014
619.000549	912.483826	12073.913086	3233.515137	20.795107
619.337463	873.799988	12135.352539	3144.769775	20.165689
619.674194	866.973450	11848.636719	3251.719238	21.715708
620.010986	910.208313	11830.432617	3178.902588	20.775162
620.347778	926.136963	11805.402344	3119.739014	20.163145
620.684387	928.412476	12039.780273	3140.218750	19.905794
621.020996	969.371887	11862.290039	3192.555664	20.409443
621.357605	971.647400	11709.830078	3160.698486	20.385675
621.694214	894.279663	11545.992188	3213.035400	21.768854
622.030579	932.963501	11675.697266	3122.014648	20.377041
622.367065	846.493713	11482.278320	3083.330566	21.031237
622.703430	892.004150	11543.716797	3003.687500	19.824823
623.039795	978.473938	11322.991211	3165.249512	21.139465
623.376160	871.524475	11464.074219	3037.820313	20.451128
623.712402	942.065613	11459.522461	3090.157227	20.424059
624.048645	914.759338	11498.207031	3085.606201	20.511719
624.384766	873.799988	11400.359375	3051.473389	20.687418
624.720886	946.616638	11357.124023	3083.330566	20.524588
625.057007	901.106262	11384.430664	3069.677490	20.685913
625.392944	914.759338	11596.053711	3213.035400	21.516832
625.729004	855.595825	11709.830078	3162.973877	21.257860
626.064941	871.524475	11912.351563	3167.524902	20.795547
626.400818	910.208313	11987.443359	3174.351563	20.439606
626.736633	873.799988	12306.016602	3244.892578	20.740444
627.072449	917.034912	12558.599609	3199.382324	19.605160
627.408264	864.697876	12524.466797	3360.944336	21.409058
627.743896	919.310425	12649.620117	3363.219727	20.834141
628.079590	919.310425	12804.355469	3315.433838	20.160830
628.415161	951.167725	12492.609375	3247.168213	19.893534
628.750793	994.402588	12021.576172	3210.759766	20.099051
629.086365	926.136963	12039.780273	3176.626953	20.249794
629.421753	917.034912	11900.973633	3065.126465	19.556660
629.757263	894.279663	11743.962891	3217.586426	21.413589
630.092651	998.953613	11509.583984	3008.238525	19.116692
630.427917	964.820801	11291.133789	2980.932129	19.524019
630.763184	898.830688	11204.664063	3010.513916	20.490173
631.098511	917.034912	11020.347656	2976.381104	20.382881
631.433716	946.616638	10879.264648	2949.074951	20.160366
631.768799	967.096313	10756.386719	3024.167236	21.013483
632.103943	894.279663	10751.835938	3033.269287	21.698984
632.438965	901.106262	10719.978516	2821.645752	19.559675
632.773987	866.973450	10405.957031	2971.830078	22.065838
633.109070	930.687988	10469.670898	2801.166016	19.608780
633.443848	951.167725	10537.936523	2807.992676	19.368622
633.778870	971.647400	10565.243164	2833.023438	19.402277
634.113708	985.300537	10519.732422	2944.523926	20.548927
634.448425	994.402588	10742.733398	2805.717041	18.580765
634.783264	980.749451	10724.529297	2780.686523	18.472677
635.117859	882.902100	10492.426758	2864.880615	20.625147
635.452576	912.483826	10490.151367	2869.431641	20.432404
635.787170	919.310425	10164.750977	2905.840088	21.486588
636.121704	932.963501	10492.426758	2771.584229	19.233515
636.456177	885.177612	10141.996094	2748.829102	20.132744
636.790588	862.422363	10101.037109	2794.339600	20.911329
637.125122	919.310425	9884.862305	2687.390137	19.720814
637.459412	885.177612	10087.383789	2648.706299	19.164194
637.793762	887.453125	9964.505859	2653.257324	19.453497
638.128052	932.963501	9616.350586	2646.430664	19.732706
638.462280	892.004150	9623.177734	2721.522949	20.953871
638.796509	957.994263	9518.503906	2678.288086	20.095694
639.130615	892.004150	9320.533203	2555.409912	19.735422
639.464722	912.483826	9479.819336	2539.481201	18.990704
639.798767	885.177612	9368.319336	2623.675537	20.493563
640.132751	932.963501	9090.706055	2632.777588	20.836819
640.466736	830.565063	9445.686523	2482.593262	19.175915
640.800598	917.034912	9199.930664	2575.889648	20.027473
641.134521	903.381775	9024.715820	2478.042236	19.389185
641.468262	919.310425	8901.836914	2559.960938	20.553024
641.802063	896.555176	8958.725586	2484.868652	19.700817
642.135803	873.799988	8945.072266	2584.991699	21.201015
642.469421	919.310425	8947.347656	2496.246338	19.642859
642.803101	985.300537	8767.582031	2487.144287	19.298246
643.136658	919.310425	8869.980469	2523.552490	20.177444
643.470215	901.106262	8685.663086	2523.552490	20.841858
643.803711	851.044800	8592.366211	2423.429688	20.311583
644.137085	928.412476	8692.489258	2487.144287	20.076202
644.470581	864.697876	8742.550781	2489.419678	20.623917
644.803833	937.514587	8526.375977	2530.379150	20.989506
645.137207	907.932800	8697.040039	2507.624023	20.537542
645.470459	869.248962	8610.570313	2443.909424	20.340977
645.803589	853.320313	8489.967773	2425.705078	20.589987
646.136780	907.932800	8603.744141	2466.664551	20.254286
646.469849	957.994263	8674.285156	2466.664551	19.551754
646.802979	935.239075	8683.387695	2443.909424	19.471367
647.135986	921.585938	8731.172852	2564.511963	21.037298
647.468994	942.065613	8569.611328	2396.123291	19.063244
647.801941	917.034912	8776.683594	2437.082764	19.339897
648.134766	826.014038	8681.112305	2346.062012	19.351101
648.467651	917.034912	8758.479492	2500.797363	20.197330
648.800354	878.351013	8637.876953	2489.419678	20.762463
649.133179	928.412476	8571.886719	2409.776611	19.380770
649.465881	905.657288	8592.366211	2373.368164	19.094139
649.798462	960.269775	8913.214844	2418.878662	18.340487
650.131104	871.524475	8474.039063	2457.562500	20.862019
650.463623	932.963501	8742.550781	2418.878662	19.026808
650.796143	948.892151	8610.570313	2453.011475	19.631721
651.128662	955.718750	8715.245117	2464.388916	19.442812
651.461060	896.555176	8760.754883	2455.286865	19.820602
651.793396	887.453125	8537.753906	2484.868652	20.880428
652.125732	898.830688	8558.233398	2462.113525	20.409983
652.458008	983.024963	8658.356445	2514.450439	19.952566
652.790222	955.718750	8537.753906	2473.491211	20.018009
653.122437	1017.157776	8715.245117	2407.500977	18.060892
653.454529	955.718750	8496.794922	2396.123291	19.100782
653.786621	887.453125	8417.151367	2453.011475	20.791780
654.118713	923.861450	8444.458008	2405.225586	19.697428
654.450623	953.443237	8401.222656	2371.092773	19.034527
654.782654	898.830688	8269.242188	2339.235352	19.543070
655.114502	898.830688	8367.089844	2400.674561	20.109692
655.446350	912.483826	8137.262207	2330.133301	19.622047
655.778198	907.932800	8294.273438	2398.398926	20.178680
656.109863	957.994263	8119.058105	2393.847900	20.050842
656.441650	960.269775	8289.722656	2352.888428	19.000307
656.773254	869.248962	8196.425781	2453.011475	21.614906
657.104919	980.749451	8000.730957	2396.123291	20.162073
657.436462	873.799988	8064.445801	2375.643799	20.886076
657.767944	860.146851	8248.762695	2507.624023	22.297508
658.099548	841.942688	8378.467773	2473.491211	21.648554
658.430908	862.422363	8621.948242	2464.388916	20.645161
658.762268	946.616638	8685.663086	2439.358398	19.288445
659.093628	921.585938	8849.500000	2500.797363	19.919634
659.424927	914.759338	9197.655273	2621.399902	20.604397
659.756226	894.279663	9538.983398	2671.461426	20.558041
660.087341	930.687988	9552.636719	2696.492188	20.480337
660.418518	935.239075	9602.698242	2742.002686	20.845367
660.749573	905.657288	9736.953125	2726.073975	20.613247
661.080627	898.830688	9498.023438	2703.318604	20.984388
661.411621	992.127075	9088.429688	2730.625000	21.472738
661.742554	923.861450	9031.541992	2619.124512	20.909348
662.073547	876.075500	8890.459961	2569.062988	21.124363
662.404297	932.963501	8753.928711	2544.032227	20.599360
662.735229	901.106262	8367.089844	2484.868652	21.213045
663.065979	926.136963	8373.916992	2471.215576	20.745491
663.396667	878.351013	8269.242188	2466.664551	21.490149
663.727417	996.678101	7857.373535	2343.786377	19.635157
664.057922	937.514587	7925.639160	2471.215576	21.947247
664.388611	903.381775	7766.352539	2330.133301	20.789124
664.719116	939.790100	7739.046387	2393.847900	21.385542
665.049622	823.738525	7450.055176	2309.653564	22.424450
665.380005	873.799988	7566.106445	2368.817139	22.339340
665.710388	942.065613	7616.167969	2327.857666	20.763720
666.040771	912.483826	7468.259277	2350.613037	21.936829
666.371033	848.769287	7611.617188	2380.194824	22.644686
666.701294	889.728638	7511.494141	2346.062012	21.993128
667.031555	948.892151	7390.891602	2286.898438	20.770048
667.361633	896.555176	7616.167969	2305.102539	20.961735
667.691772	957.994263	7661.678711	2293.724854	19.925320
668.021790	898.830688	7538.800293	2350.613037	21.864292
668.351807	926.136963	7361.309570	2327.857666	21.782177
668.681763	942.065613	7461.432617	2414.327637	22.582897
669.011719	898.830688	7582.035156	2407.500977	22.574055
669.341614	873.799988	7641.198730	2282.347412	20.813719
669.671387	892.004150	7586.586426	2316.480225	21.278044
670.001221	939.790100	7684.433594	2289.173828	20.006748
670.330933	919.310425	7641.198730	2393.847900	21.936357
670.660583	901.106262	7529.698242	2423.429688	22.966017
670.990173	903.381775	7493.290039	2291.449463	21.063536
671.319763	914.759338	7402.269043	2443.909424	23.570681
671.649292	932.963501	7208.850098	2211.806152	20.377083
671.978821	921.585938	7283.941895	2266.418701	21.137339
672.308289	919.310425	7281.666504	2305.102539	21.781116
672.637695	969.371887	7274.839844	2343.786377	21.797186
672.966980	930.687988	7047.288086	2334.684326	22.953869
673.296326	873.799988	7138.308594	2346.062012	23.501635
673.625610	930.687988	7249.809082	2334.684326	22.218222
673.954773	919.310425	7170.166016	2375.643799	23.298145
674.283936	860.146851	6979.022461	2355.164063	24.432875
674.613037	976.198425	7133.757813	2268.694336	20.990391
674.942078	876.075500	7074.594238	2248.214600	22.136566
675.271118	894.279663	7063.216797	2291.449463	22.648470
675.600098	901.106262	6815.184570	2259.592041	22.970373
675.928955	948.892151	6899.378906	2270.969727	22.217974
676.257813	971.647400	6890.276855	2314.204590	22.683582
676.586670	903.381775	7042.736816	2382.470215	24.091919
676.915466	932.963501	6849.317383	2296.000488	23.038462
677.244141	930.687988	6837.939941	2264.143311	22.573193
677.572876	910.208313	6885.726074	2245.938965	22.353390
677.901489	819.187500	6876.624023	2259.592041	23.779110
678.230042	887.453125	6951.715820	2371.092773	24.465294
678.558594	937.514587	6992.675293	2387.021240	23.938368
678.887085	944.341125	7013.155273	2325.582275	22.759657
679.215515	917.034912	6899.378906	2318.755615	23.430962
679.543945	912.483826	7047.288086	2289.173828	22.440651
679.872253	903.381775	7220.227539	2348.337402	22.874638
680.200562	971.647400	7324.901367	2427.980713	22.922636
680.528809	930.687988	7452.330566	2423.429688	22.889046
680.856995	946.616638	7418.197754	2393.847900	22.362869
681.185120	907.932800	7497.840820	2493.970703	24.067677
681.513306	846.493713	7393.166992	2500.797363	25.269379
681.841309	942.065613	7688.984863	2496.246338	23.035412
682.169373	873.799988	7513.769531	2434.807373	23.509254
682.497314	960.269775	7427.299805	2466.664551	23.293455
682.825134	946.616638	7384.064941	2478.042236	23.789326
683.153076	946.616638	7434.126465	2548.583252	24.693089
683.480896	919.310425	7154.237305	2525.828125	25.766424
683.808655	967.096313	7122.379883	2398.398926	23.253235
684.136414	848.769287	7149.686523	2396.123291	24.557600
684.464050	894.279663	6903.930176	2393.847900	24.952671
684.791626	903.381775	6662.725098	2316.480225	24.535755
685.119263	921.585938	6778.776367	2391.572266	25.097124
685.446838	912.483826	6642.245117	2298.276123	24.185863
685.774292	976.198425	6517.091797	2255.041016	23.080078
686.101685	882.902100	6544.397949	2275.520752	24.598068
686.429077	987.576050	6503.438477	2266.418701	23.184818
686.756348	930.687988	6444.274902	2275.520752	24.391251
687.083679	942.065613	6291.814941	2325.582275	25.861334
687.410950	880.626526	6278.162109	2309.653564	26.475548
687.738159	889.728638	6462.479004	2268.694336	24.744795
688.065308	942.065613	6589.908203	2346.062012	24.858984
688.392395	969.371887	6726.439453	2325.582275	23.557314
688.719421	951.167725	6605.836914	2375.643799	25.191149
689.046448	980.749451	6599.010254	2334.684326	24.098825
689.373413	983.024963	6510.265137	2330.133301	24.372169
689.700317	953.443237	6539.846680	2336.959961	24.765787
690.027100	985.300537	6426.070801	2286.898438	23.923044
690.353943	973.922913	6296.366211	2384.745850	26.507055
690.680725	903.381775	6312.294922	2216.357178	24.274292
691.007446	894.279663	6264.508789	2264.143311	25.508478
691.334106	912.483826	6114.324219	2293.724854	26.552929
691.660645	926.136963	5984.619629	2239.112549	25.955919
691.987244	889.728638	6018.752441	2177.673340	25.110912
692.313721	962.545288	5775.271973	2318.755615	28.179667
692.640259	935.239075	5943.660156	2157.193604	24.398001
692.966675	944.341125	5768.445313	2134.438477	24.669813
693.293030	1026.259888	5759.343262	2232.285889	25.480768
693.619324	901.106262	5652.393555	2202.704102	27.394638
693.945618	898.830688	5634.189453	2095.754639	25.276310
694.271851	930.687988	5761.618652	2127.612061	24.776262
694.598083	928.412476	5615.985352	2184.500000	26.796118
694.924194	930.687988	5609.158691	2175.397949	26.605061
695.250244	1005.780212	5549.995117	2045.693237	22.884329
695.576294	964.820801	5561.373047	2070.723877	24.059404
695.902283	919.310425	5547.719727	2195.877686	27.581123
696.228210	837.391663	5552.270996	2170.846924	28.281855
696.554138	932.963501	5609.158691	2198.153076	27.055962
696.879944	846.493713	5772.996094	2138.989502	26.235567
697.205750	878.351013	5861.741699	2138.989502	25.296801
697.531433	882.902100	5832.159668	2143.540527	25.471262
697.857178	923.861450	5984.619629	2261.867676	26.438848
698.182739	930.687988	6039.232422	2298.276123	26.770603
698.508423	882.902100	6307.743652	2309.653564	26.300333
698.833984	894.279663	6462.479004	2402.949951	27.094402
699.159485	880.626526	6783.327637	2427.980713	26.214342
699.484924	935.239075	7108.727051	2484.868652	25.101364
699.810303	944.341125	7063.216797	2580.440674	26.738567
700.135681	932.963501	6994.951172	2537.205811	26.463964
700.460999	942.065613	7242.982910	2480.317627	24.413143
700.786255	848.769287	6776.500977	2534.930176	28.445299
701.111450	903.381775	6799.256348	2450.735840	26.244690
701.436646	917.034912	6583.081543	2300.551514	24.417669
701.761719	866.973450	6141.630859	2291.449463	27.006041
702.086792	882.902100	5975.517578	2243.663574	26.720289
702.411865	873.799988	5909.527344	2255.041016	27.428827
702.736816	857.871338	5804.853516	2234.561523	27.828888
703.061646	880.626526	5656.944824	2134.438477	26.250595
703.386536	814.636475	5529.515625	2116.234375	27.606178
703.711365	907.932800	5372.504395	2184.500000	28.593271
704.036194	905.657288	5306.514648	2036.591064	25.698034
704.360901	878.351013	5103.993164	2098.030273	28.863760
704.685547	844.218201	5088.064453	2045.693237	28.310995
705.010132	907.932800	5078.962402	2041.142212	27.168577
705.334717	914.759338	5108.544434	2018.386963	26.315790
705.659302	960.269775	4830.930664	2025.213501	27.513227
705.983765	901.106262	5108.544434	1943.294800	24.770145
706.308228	912.483826	4972.013184	1954.672363	25.672644
706.632568	919.310425	4949.257813	1966.049927	25.974026
706.956909	880.626526	4810.451172	2047.968750	29.704691
707.281189	978.473938	4883.267578	1943.294800	24.708626
707.605408	957.994263	4956.084473	1993.356201	25.896412
707.929626	889.728638	4869.614746	1956.947876	26.815321
708.253784	969.371887	4880.992188	2011.560425	26.643394
708.577820	983.024963	4851.410156	2009.284912	26.529415
708.901855	903.381775	4997.043457	1988.805176	26.514730
709.225830	914.759338	4969.737305	2000.182739	26.767675
709.549805	880.626526	4997.043457	2020.662476	27.694859
709.873718	926.136963	4985.666016	1927.366089	24.663677
710.197510	960.269775	4899.196289	2027.489014	27.094164
710.521362	955.718750	5049.380859	2041.142212	26.514730
710.845093	905.657288	5092.615723	1952.396851	24.999996
711.168701	892.004150	5154.054688	2098.030273	28.296850
711.492432	903.381775	5067.584961	2152.642578	29.999996
711.816040	887.453125	5308.790039	2166.295898	28.924345
712.139587	923.861450	5349.749512	2027.489014	24.935730
712.463074	930.687988	5295.136719	2100.305664	26.798750
712.786499	892.004150	5324.718750	2013.835938	25.308006
713.109924	871.524475	5281.483887	2068.448486	27.141384
713.433350	917.034912	5172.258789	2086.652588	27.486633
713.756592	882.902100	5110.819824	2052.519775	27.664152
714.079834	896.555176	5115.370605	2120.785400	29.018341
714.403015	880.626526	4940.155762	1979.703125	27.073992
714.726196	985.300537	4965.186523	2059.346436	26.986851
715.049255	926.136963	5049.380859	2007.009399	26.214127
715.372375	980.749451	4810.451172	1984.254150	26.203209
715.695435	998.953613	4865.063477	2004.733887	26.015305
716.018311	826.014038	4985.666016	2032.040039	28.993437
716.341248	935.239075	4951.533203	1913.713013	24.362606
716.664063	976.198425	4985.666016	1988.805176	25.255392
716.987000	948.892151	4962.910645	1897.784302	23.639456
717.309692	837.391663	5008.421387	1941.019287	26.459358
717.632385	955.718750	4794.522461	1913.713013	24.955542
717.955078	985.300537	4744.460938	2000.182739	26.997576
718.277649	987.576050	4865.063477	1943.294800	24.647888
718.600220	928.412476	4703.501465	1863.651489	24.773960
718.922791	887.453125	4530.562012	1856.824951	26.608368
719.245300	905.657288	4396.306152	1809.039063	25.880053
719.567688	880.626526	4551.041504	1831.794189	25.914444
719.890015	942.065613	4389.479492	1829.518677	25.742575
720.212341	932.963501	4423.612305	1713.467163	22.359844
720.534607	880.626526	4362.173340	1756.702026	25.163399
720.856873	887.453125	4141.447754	1754.426514	26.643356
721.179016	923.861450	4139.172363	1770.355225	26.326963
721.501160	889.728638	4025.396240	1752.151001	27.503630
721.823242	926.136963	4066.355713	1795.385864	27.681158
722.145264	846.493713	4057.253662	1754.426514	28.277815
722.467224	917.034912	4000.365479	1695.262939	25.239851
722.789185	969.371887	4016.294189	1695.262939	23.823746
723.111023	898.830688	3941.202148	1642.926025	24.457741
723.432861	889.728638	4002.641113	1613.344238	23.245613
723.754578	914.759338	4041.324951	1731.671387	26.128096
724.076294	937.514587	3975.334961	1715.742676	25.617977
724.397949	912.483826	3861.558838	1624.721802	24.151234
724.719666	892.004150	4018.569824	1658.854614	24.526926
725.041260	898.830688	3916.171387	1652.028076	24.962290
725.362732	862.422363	4036.773926	1692.987427	26.164873
725.684265	919.310425	4014.018799	1629.272949	22.941175
726.005676	942.065613	4014.018799	1711.191650	25.037037
726.327087	882.902100	4093.661865	1677.058838	24.734232
726.648438	932.963501	3963.957275	1692.987427	25.075075
726.969666	882.902100	3943.477539	1752.151001	28.401485
727.290894	882.902100	4221.091309	1658.854614	23.244713
727.612061	919.310425	4041.324951	1690.711914	24.708452
727.933228	894.279663	4084.559814	1681.609863	24.679029
728.254395	903.381775	4180.131836	1768.079712	26.388889
728.575378	869.248962	4232.468750	1656.579102	23.410011
728.896301	898.830688	4209.713379	1702.089600	24.261169
729.217285	917.034912	4227.917480	1740.773438	24.879726
729.538147	964.820801	4248.397461	1736.222412	23.492723
729.858948	894.279663	4248.397461	1765.804199	25.983719
730.179810	892.004150	4246.121582	1815.865601	27.544100
730.500549	885.177612	4207.437988	1772.630737	26.712330
730.821228	903.381775	4109.590332	1645.201538	23.136978
731.141846	930.687988	4166.478516	1708.916138	24.050634
731.462402	914.759338	4120.968262	1777.181763	26.898510
731.782898	937.514587	4223.366699	1758.977539	24.999998
732.103455	960.269775	4150.549805	1747.599976	24.679031
732.423889	901.106262	4412.234863	1640.650513	21.062864
732.744263	939.790100	4291.632324	1743.048950	23.964697
733.064636	937.514587	4325.765137	1777.181763	24.781733
733.384888	914.759338	4321.213867	1820.416626	26.586508
733.705200	862.422363	4161.927734	1784.008301	27.931032
734.025330	882.902100	4193.784668	1809.039063	27.972509
734.345520	971.647400	4307.561035	1743.048950	23.124147
734.665527	923.861450	4132.345703	1688.436401	23.829786
734.985596	917.034912	4082.284424	1761.253052	26.671455
735.305542	887.453125	4093.661865	1795.385864	28.317955
735.625549	841.942688	4082.284424	1715.742676	26.966291
735.945435	917.034912	4014.018799	1638.375000	23.291697
736.265259	903.381775	3932.099854	1699.814087	26.296021
736.585083	853.320313	3868.385254	1692.987427	27.849056
736.904785	914.759338	3875.211914	1674.783325	25.672560
737.224426	887.453125	3977.610352	1563.282837	21.870399
737.544128	912.483826	3888.864990	1672.507813	25.535170
737.863708	912.483826	3861.558838	1636.099487	24.537039
738.183289	978.473938	3907.069336	1715.742676	25.174824
738.502808	873.799988	3850.181152	1667.956787	26.681959
738.822205	894.279663	3900.242676	1665.681274	25.662380
739.141541	889.728638	3936.650879	1654.303589	25.093351
739.460938	862.422363	3934.375488	1633.823975	25.111113
739.780212	892.004150	4023.120850	1777.181763	28.270350
740.099426	830.565063	4020.845215	1806.763550	30.599146
740.418640	901.106262	3941.202148	1790.834839	29.266464
740.737793	846.493713	3950.304199	1747.599976	29.032257
741.056885	878.351013	3948.028564	1667.956787	25.722759
741.375977	898.830688	3770.538086	1654.303589	26.307446
741.694946	926.136963	3884.313965	1699.814087	26.153849
742.013855	923.861450	3697.721191	1665.681274	26.743233
742.332703	896.555176	3699.996826	1642.926025	26.623377
742.651550	928.412476	3643.108887	1629.272949	25.817270
742.970398	980.749451	3761.435791	1595.140137	22.094931
743.289124	914.759338	3561.189941	1561.007324	24.419607
743.607788	944.341125	3661.312988	1615.619751	24.706867
743.926453	905.657288	3631.731201	1672.507813	28.130217
744.245056	985.300537	3554.363525	1520.047852	20.814878
744.563599	989.851563	3611.251465	1542.803101	21.093750
744.882141	928.412476	3561.189941	1567.833862	24.286953
745.200500	851.044800	3465.618164	1467.710938	23.585728
745.518860	892.004150	3570.292236	1656.579102	28.547152
745.837219	846.493713	3495.199951	1606.517700	28.694159
746.155518	944.341125	3479.271240	1608.793213	26.211849
746.473755	926.136963	3492.924316	1729.395752	31.294325
746.791992	880.626526	3342.739990	1636.099487	30.683920
747.110107	898.830688	3381.423828	1551.905151	26.306141
747.428162	887.453125	3486.097900	1549.629639	25.481609
747.746216	910.208313	3390.525879	1574.660400	26.788992
748.064148	905.657288	3522.506104	1542.803101	24.347826
748.382080	955.718750	3420.107666	1617.895264	26.869806
748.700073	926.136963	3483.822266	1620.170776	27.135231
749.017822	896.555176	3329.086914	1586.037964	28.344246
749.335632	876.075500	3449.689453	1633.823975	29.442972
749.653320	946.616638	3552.087891	1699.814087	28.908300
749.971008	907.932800	3429.209961	1642.926025	29.151625
750.288696	889.728638	3376.872803	1604.242188	28.728273
750.606262	910.208313	3388.250488	1649.752563	29.843891
750.923828	846.493713	3458.791504	1583.762451	28.222998
751.241272	889.728638	3508.853027	1604.242188	27.280626
751.558716	869.248962	3561.189941	1620.170776	27.895182
751.876038	898.830688	3481.546875	1613.344238	27.665197
752.193481	978.473938	3483.822266	1572.384888	23.705723
752.510681	871.524475	3401.903564	1633.823975	30.125900
752.827942	987.576050	3367.770752	1595.140137	25.525814
753.145081	901.106262	3408.730225	1588.313477	27.404715
753.462219	917.034912	3319.984863	1588.313477	27.935604
753.779297	855.595825	3308.607178	1681.609863	33.673473
754.096375	914.759338	3253.994629	1545.078613	26.945526
754.413330	926.136963	3347.291016	1588.313477	27.349623
754.730286	901.106262	3420.107666	1554.180664	25.925924
755.047119	878.351013	3142.494141	1545.078613	29.447239
755.363892	989.851563	3333.637939	1551.905151	23.980581
755.680725	928.412476	3370.046387	1531.425537	24.697113
755.997498	921.585938	3238.066162	1522.323364	25.933199
756.314148	866.973450	3279.025391	1561.007324	28.773586
756.630737	901.106262	3156.147461	1529.150024	27.850655
756.947327	960.269775	3181.177979	1597.415649	28.688528
757.263855	935.239075	3281.301025	1554.180664	26.382149
757.580261	926.136963	3213.035400	1499.568237	25.074629
757.896729	910.208313	3308.607178	1558.731689	27.039846
758.213074	953.443237	3310.882813	1492.741699	22.876450
758.529419	887.453125	3436.036377	1554.180664	26.160713
758.845642	946.616638	3433.760986	1626.997314	27.355900
759.161865	942.065613	3456.516113	1652.028076	28.235294
759.478149	885.177612	3476.995850	1581.486938	26.865669
759.794189	837.391663	3372.321777	1595.140137	29.892282
760.110229	905.657288	3447.414063	1581.486938	26.589075
760.426270	926.136963	3411.005615	1601.966675	27.197803
760.742249	926.136963	3399.628174	1601.966675	27.322906
761.058105	921.585938	3438.312012	1713.467163	31.464737
761.374023	944.341125	3372.321777	1715.742676	31.771320
761.689819	923.861450	3413.281250	1658.854614	29.524675
762.005554	921.585938	3449.689453	1640.650513	28.442846
762.321289	885.177612	3431.485352	1636.099487	29.490620
762.636902	921.585938	3399.628174	1611.068726	27.823690
762.952515	948.892151	3517.955078	1652.028076	27.369352
763.268127	964.820801	3461.067139	1790.834839	33.090244
763.583618	926.136963	3629.455566	1727.120239	29.629629
763.899048	919.310425	4107.314941	1815.865601	28.122770
764.214478	942.065613	4485.051270	2027.489014	30.635838
764.529785	987.576050	4778.593750	2063.897461	28.391359
764.845093	905.657288	4981.115234	2125.336426	29.927414
765.160400	901.106262	4824.104004	2102.581299	30.626453
765.475586	987.576050	4635.235840	1979.703125	27.199003
765.790771	866.973450	4462.296387	1900.059814	28.734175
766.105835	914.759338	4268.876953	1872.753662	28.561739
766.420837	939.790100	3988.988037	1845.447388	29.701492
766.735840	885.177612	3982.161377	1733.946899	27.406319
767.050842	787.330200	3797.844238	1702.089600	30.385487
767.365662	887.453125	3715.925537	1652.028076	27.031374
767.680542	846.493713	3659.037354	1670.232300	29.288029
767.995300	953.443237	3602.149414	1699.814087	28.178698
768.309998	892.004150	3408.730225	1656.579102	30.379744
768.624817	866.973450	3467.893799	1604.242188	28.346455
768.939392	939.790100	3374.597412	1608.793213	27.476635
769.254028	935.239075	3240.341553	1599.691162	28.825272
769.568481	957.994263	3345.015625	1661.130127	29.456621
769.882935	944.341125	3222.137451	1563.282837	27.172829
770.197388	919.310425	3188.004639	1645.201538	31.995985
770.511841	923.861450	3147.045166	1629.272949	31.729790
770.826172	1003.504700	3065.126465	1499.568237	24.061811
771.140442	967.096313	3126.565674	1636.099487	30.979982
771.454651	930.687988	3071.953125	1535.976563	28.267801
771.768860	939.790100	3026.442627	1474.537476	25.627045
772.082886	837.391663	2955.901611	1540.527588	33.190117
772.397034	917.034912	3065.126465	1488.190552	26.588980
772.711060	889.728638	3069.677490	1504.119263	28.183720
773.025024	889.728638	2960.452637	1517.772339	30.329666
773.338928	1030.810913	2969.554688	1531.425537	25.821598
773.652771	864.697876	3044.646729	1492.741699	28.810028
773.966614	926.136963	2980.932129	1495.017212	27.685497
774.280457	910.208313	2933.146240	1447.231201	26.546680
774.594116	914.759338	2894.462402	1495.017212	29.310349
774.907776	853.320313	2953.625977	1463.159912	29.035755
775.221375	880.626526	2853.503174	1381.241089	25.374853
775.534912	910.208313	2817.094727	1385.792114	24.940331
775.848450	898.830688	2899.013428	1474.537476	28.782709
776.161926	882.902100	2855.778564	1510.945801	31.833910
776.475342	860.146851	2823.921387	1456.333252	30.359209
776.788696	905.657288	2807.992676	1451.782227	28.708130
777.101990	892.004150	2817.094727	1483.639526	30.732859
777.415283	901.106262	2848.952148	1408.547363	26.051397
777.728516	887.453125	2805.717041	1531.425537	33.570583
778.041626	835.116150	2705.594238	1381.241089	29.197079
778.354736	910.208313	2844.401123	1442.680176	27.529409
778.667725	864.697876	2714.696289	1351.659302	26.322262
778.980774	935.239075	2764.757813	1367.588013	23.631840
779.293640	823.738525	2785.237549	1429.027100	30.858469
779.606567	930.687988	2694.216553	1479.088501	31.096775
779.919434	951.167725	2755.655762	1426.751587	26.355612
780.232239	948.892151	2607.746826	1376.690063	25.788752
780.544983	907.932800	2698.767578	1465.435425	31.130880
780.857666	937.514587	2771.584229	1422.200562	26.426804
781.170227	866.973450	2712.420898	1454.057739	31.812571
781.482849	912.483826	2680.563477	1376.690063	26.254827
781.795410	976.198425	2687.390137	1458.608887	28.191492
782.107910	903.381775	2719.247314	1374.414551	25.939850
782.420288	921.585938	2666.910400	1376.690063	26.075617
782.732666	826.014038	2591.818115	1376.690063	31.185568
783.044983	876.075500	2639.604248	1433.578125	31.612902
783.357300	889.728638	2564.511963	1485.915039	35.597824
783.669495	905.657288	2528.103516	1422.200562	31.837311
783.981689	901.106262	2496.246338	1413.098389	32.097000
784.293762	841.942688	2443.909424	1315.250977	29.545450
784.605835	960.269775	2512.175049	1363.036987	25.953079
784.917908	957.994263	2562.236328	1283.393677	20.283686
785.229858	955.718750	2425.705078	1374.414551	28.482973
785.541748	930.687988	2503.072998	1374.414551	28.219969
785.853577	905.657288	2487.144287	1374.414551	29.640284
786.165405	860.146851	2478.042236	1413.098389	34.177212
786.477173	921.585938	2430.256104	1378.965576	30.316742
786.788879	967.096313	2448.460449	1406.271851	29.646696
787.100525	930.687988	2418.878662	1347.108276	27.981649
787.412109	928.412476	2398.398926	1363.036987	29.566566
787.723694	885.177612	2384.745850	1342.557251	30.500755
788.035156	923.861450	2387.021240	1328.904175	27.682741
788.346558	964.820801	2530.379150	1367.588013	25.726746
788.658081	1010.331238	2571.338623	1306.148926	18.950436
788.969360	939.790100	2566.787354	1417.649414	29.370626
789.280640	932.963501	2612.297852	1451.782227	30.894308
789.591919	866.973450	2660.083740	1442.680176	32.106598
789.903076	928.412476	2721.522949	1440.404663	28.553299
790.214172	803.258850	2726.073975	1324.353149	27.100592
790.525269	960.269775	2507.624023	1367.588013	26.323528
790.836365	928.412476	2562.236328	1415.373901	29.805014
791.147339	930.687988	2544.032227	1344.832764	25.669958
791.458191	864.697876	2464.388916	1301.597900	27.311525
791.769104	887.453125	2384.745850	1342.557251	30.395134
792.079895	917.034912	2448.460449	1260.638550	22.436850
792.390686	878.351013	2346.062012	1349.383789	32.093021
792.701416	919.310425	2366.541748	1351.659302	29.874207
793.012085	926.136963	2371.092773	1344.832764	28.976374
793.322693	853.320313	2259.592041	1253.812012	28.478970
793.633240	892.004150	2311.929199	1328.904175	30.769232
793.943787	907.932800	2270.969727	1301.597900	28.881472
794.254272	848.769287	2416.603027	1326.628662	30.478958
794.564636	828.289551	2325.582275	1272.016113	29.635258
794.875000	962.545288	2314.204590	1294.771362	24.579128
795.185303	873.799988	2321.031250	1338.006226	32.075474
795.495544	894.279663	2346.062012	1358.485962	31.974924
795.805786	903.381775	2266.418701	1297.046875	28.881472
796.115906	932.963501	2307.378174	1349.383789	30.298010
796.426025	839.667175	2414.327637	1251.536499	26.156073
796.736023	923.861450	2387.021240	1224.230225	20.528774
797.045959	973.922913	2361.990479	1246.985352	19.672129
797.355896	964.820801	2405.225586	1358.485962	27.330175
797.665833	939.790100	2398.398926	1374.414551	29.797190
797.975708	910.208313	2387.021240	1226.505737	21.417568
798.285461	910.208313	2439.358398	1233.332275	21.130951
798.595154	857.871338	2400.674561	1353.934937	32.153393
798.904846	869.248962	2250.489990	1340.281738	34.102142
799.214478	907.932800	2241.387939	1306.148926	29.863483
799.524109	878.351013	2361.990479	1310.699951	29.141106
799.833557	835.116150	2305.102539	1221.954712	26.315794
800.143005	880.626526	2179.948975	1285.669312	31.173384
800.452393	898.830688	2289.173828	1324.353149	30.605572
800.761780	957.994263	2198.153076	1367.588013	33.027523
801.071106	942.065613	2234.561523	1244.709839	23.415489
801.380371	928.412476	2113.958740	1328.904175	33.781197
801.689575	885.177612	2061.621826	1276.567139	33.268856
801.998718	896.555176	2189.051025	1331.179688	33.626762
802.307800	832.840637	2168.571289	1283.393677	33.730827
802.616882	944.341125	2145.816162	1251.536499	25.568184
802.925903	937.514587	2164.020264	1206.026001	21.892391
803.234863	946.616638	2207.255127	1235.607788	22.924191
803.543701	903.381775	2173.122314	1306.148926	31.720430
803.852539	894.279663	2145.816162	1267.465088	29.818182
804.161316	907.932800	2041.142212	1171.893188	23.293169
804.470032	1014.882263	2127.612061	1240.158813	20.245398
804.778809	898.830688	2079.825928	1237.883301	28.709059
805.087341	878.351013	2132.163086	1269.740601	31.215971
805.395935	935.239075	2113.958740	1338.006226	34.169884
805.704468	944.341125	2150.367188	1260.638550	26.226416
806.012939	912.483826	2109.407715	1237.883301	27.186314
806.321350	896.555176	2173.122314	1285.669312	30.481291
806.629761	919.310425	2200.428711	1267.465088	27.175840
806.938049	926.136963	2236.836914	1310.699951	29.340277
807.246277	955.718750	2186.775391	1351.659302	32.162659
807.554504	880.626526	2191.326416	1333.455200	34.548615
807.862671	917.034912	2150.367188	1333.455200	33.763836
808.170715	896.555176	2152.642578	1231.056763	26.630438
808.478821	848.769287	2118.509766	1201.474976	27.777779
808.786804	905.657288	2093.479248	1278.842651	31.417616
809.094727	841.942688	2102.581299	1331.179688	38.808662
809.402649	928.412476	2116.234375	1231.056763	25.478928
809.710510	905.657288	2152.642578	1367.588013	37.043797
810.018311	855.595825	2082.101563	1306.148926	36.734692
810.326050	907.932800	1952.396851	1276.567139	35.294113
810.633667	853.320313	2054.795166	1267.465088	34.469700
810.941345	901.106262	2054.795166	1231.056763	28.599606
811.248901	944.341125	2161.744873	1260.638550	25.981308
811.556396	901.106262	1963.774414	1256.087524	33.404713
811.863892	964.820801	2043.417725	1262.914063	27.637133
812.171326	892.004150	2027.489014	1374.414551	42.484970
812.478699	892.004150	2013.835938	1269.740601	33.671398
812.786011	955.718750	2032.040039	1265.189575	28.752644
813.093262	946.616638	2082.101563	1246.985352	26.452904
813.400391	848.769287	2032.040039	1283.393677	36.730762
813.707642	878.351013	2027.489014	1224.230225	30.099016
814.014709	892.004150	1959.223389	1312.975464	39.445625
814.321716	837.391663	1936.468262	1228.781250	35.610764
814.628723	851.044800	1902.335449	1215.128052	34.632027
814.935669	907.932800	1934.192627	1233.332275	31.707321
815.242554	901.106262	1995.631714	1153.689087	23.076927
815.549438	880.626526	1988.805176	1253.812012	33.675568
815.856201	887.453125	2004.733887	1226.505737	30.346231
816.162964	914.759338	1915.988525	1242.434326	32.727272
816.469604	898.830688	1961.498901	1267.465088	34.689510
816.776184	930.687988	1950.121338	1194.648438	25.892860
817.082825	919.310425	2011.560425	1194.648438	25.208332
817.389343	923.861450	1934.192627	1196.923950	27.027029
817.695801	917.034912	1966.049927	1260.638550	32.754883
818.002197	935.239075	2041.142212	1224.230225	26.131689
818.308533	903.381775	2043.417725	1246.985352	30.139715
818.614868	944.341125	1988.805176	1221.954712	26.579523
818.921143	887.453125	1993.356201	1276.567139	35.185181
819.227356	939.790100	2018.386963	1328.904175	36.075951
819.533447	930.687988	2043.417725	1306.148926	33.742329
819.839539	939.790100	2123.060791	1299.322388	30.384617
820.145569	892.004150	2132.163086	1267.465088	30.275227
820.451538	864.697876	2223.183838	1297.046875	31.825798
820.757568	898.830688	2289.173828	1317.526489	30.114567
821.063416	917.034912	2539.481201	1363.036987	27.489481
821.369263	905.657288	2639.604248	1429.027100	30.183725
821.675049	871.524475	2735.176025	1510.945801	34.310131
821.980713	907.932800	2919.493164	1535.976563	31.221722
822.286438	960.269775	3219.861816	1601.966675	28.398794
822.592102	860.146851	4105.039551	1963.774414	34.011219
822.897583	894.279663	6223.549316	2582.716064	31.682323
823.203125	894.279663	8628.774414	3253.994629	30.508972
823.508545	951.167725	10360.446289	3786.466553	30.133011
823.813965	921.585938	10524.284180	3934.375488	31.374407
824.119263	935.239075	9548.084961	3620.353516	31.175695
824.424622	864.697876	8175.946289	3183.453613	31.714909
824.729858	951.167725	6922.134277	2860.329590	31.974083
825.035095	998.953613	5955.038086	2553.134277	31.359043
825.340149	810.085388	5340.647461	2257.316650	31.943745
825.645264	907.932800	4760.389648	2107.132324	31.128174
825.950256	957.994263	4268.876953	1986.529663	31.065292
826.255310	869.248962	4009.467773	1929.641602	33.768112
826.560242	885.177612	3968.508301	1929.641602	33.874538
826.865112	885.177612	3765.986816	1806.763550	31.990524
827.169922	860.146851	3588.496338	1772.630737	33.444538
827.474670	880.626526	3718.200928	1881.855713	35.284683
827.779419	960.269775	4145.999023	2002.458252	32.714283
828.084045	928.412476	4805.899902	2116.234375	30.633804
828.388672	912.483826	5169.983398	2218.632813	30.678780
828.693176	926.136963	4949.257813	2227.734863	32.352940
828.997681	942.065613	4512.357910	2009.284912	29.891649
829.302124	841.942688	3952.579590	1829.518677	31.748352
829.606567	930.687988	3474.720215	1729.395752	31.395348
829.910828	951.167725	3206.208740	1636.099487	30.373362
830.215149	951.167725	2908.115479	1633.823975	34.883724
830.519348	892.004150	2769.308838	1524.598877	33.696968
830.823547	932.963501	2662.359375	1444.955688	29.605263
831.127686	937.514587	2537.205811	1431.302612	30.867710
831.431763	830.565063	2409.776611	1463.159912	40.057640
831.735779	919.310425	2332.408936	1297.046875	26.731077
832.039734	912.483826	2293.724854	1253.812012	24.711704
832.343628	855.595825	2207.255127	1353.934937	36.868694
832.647461	819.187500	2102.581299	1251.536499	33.687946
832.951233	880.626526	2107.132324	1276.567139	32.281998
833.255127	873.799988	2150.367188	1369.863525	38.859180
833.558777	921.585938	2134.438477	1385.792114	38.273918
833.862366	921.585938	2305.102539	1312.975464	28.289471
834.165955	951.167725	2596.369141	1381.241089	26.141077
834.469482	885.177612	3094.708252	1599.691162	32.337795
834.773010	912.483826	3376.872803	1768.079712	34.718380
835.076416	901.106262	3522.506104	1843.171875	35.937500
835.379822	914.759338	3536.159424	1733.946899	31.250000
835.683105	923.861450	3206.208740	1604.242188	29.810572
835.986389	917.034912	2996.860840	1529.150024	29.431074
836.289612	917.034912	2676.012451	1517.772339	34.152649
836.592773	896.555176	2496.246338	1485.915039	36.842102
836.895874	996.678101	2439.358398	1422.200562	29.495272
837.198914	937.514587	2407.500977	1394.894287	31.114555
837.501892	937.514587	2284.622803	1338.006226	29.729733
837.804871	901.106262	2120.785400	1246.985352	28.358202
838.107666	855.595825	1997.907227	1192.372925	29.482075
838.410583	835.116150	1870.478149	1283.393677	43.296692
838.713379	910.208313	1920.539551	1267.465088	35.360363
839.016052	960.269775	1895.508789	1174.168701	22.871044
839.318787	848.769287	1813.590088	1176.444214	33.962257
839.621338	964.820801	1772.630737	1176.444214	26.197178
839.923889	866.973450	1777.181763	1117.280762	27.500002
840.226440	912.483826	1729.395752	1221.954712	37.883018
840.528931	946.616638	1900.059814	1219.679199	28.639626
840.831299	946.616638	2043.417725	1165.066650	19.917013
841.133606	873.799988	1956.947876	1203.750488	30.462183
841.435913	942.065613	1984.254150	1226.505737	27.292580
841.738220	955.718750	1966.049927	1310.699951	35.135132
842.040405	901.106262	1852.273926	1194.648438	30.861244
842.342529	853.320313	1820.416626	1171.893188	32.941174
842.644592	898.830688	1729.395752	1210.577026	37.534248
842.946594	880.626526	1690.711914	1228.781250	42.977535
843.248596	942.065613	1636.099487	1217.403687	39.672138
843.550598	962.545288	1697.538574	1115.005249	20.743042
843.852478	826.014038	1638.375000	1128.658325	37.254902
844.154236	828.289551	1588.313477	1135.484863	40.419163
844.455994	887.453125	1572.384888	1087.698975	29.235884
844.757690	907.932800	1499.568237	1119.556274	35.769238
845.059326	921.585938	1508.670288	1049.015137	21.705433
845.360962	896.555176	1608.793213	1105.903076	29.392969
845.662476	846.493713	1517.772339	1124.107300	41.355942
845.963989	855.595825	1465.435425	1062.668213	33.955223
846.265381	853.320313	1469.986450	1115.005249	42.435432
846.566772	905.657288	1413.098389	1135.484863	45.291477
846.868042	935.239075	1463.159912	1071.770264	25.862057
847.169373	864.697876	1408.547363	1033.086426	30.962343
847.470581	871.524475	1456.333252	1067.219238	33.463036
847.771729	948.892151	1408.547363	1030.810913	17.821785
848.072815	985.300537	1433.578125	1085.423462	22.335028
848.373901	903.381775	1422.200562	1115.005249	40.789478
848.674866	928.412476	1365.312500	1042.188477	26.041656
848.975891	869.248962	1351.659302	1121.831787	52.358501
849.276794	944.341125	1333.455200	994.402588	12.865498
849.577637	871.524475	1317.526489	1055.841675	41.326538
849.878357	944.341125	1415.373901	1096.801025	32.367153
850.179077	889.728638	1367.588013	1001.229126	23.333326
850.479736	912.483826	1431.302612	1096.801025	35.526314
850.780396	889.728638	1376.690063	1089.974487	41.121502
851.080994	848.769287	1319.802124	1058.117188	44.444439
851.381470	837.391663	1333.455200	1042.188477	41.284393
851.681946	880.626526	1424.476074	1058.117188	32.635986
851.982361	948.892151	1369.863525	1014.882263	15.675677
852.282715	903.381775	1369.863525	976.198425	15.609754
852.583008	969.371887	1447.231201	1037.637451	14.285704
852.883240	992.127075	1328.904175	978.473938	-4.054058
853.183411	907.932800	1392.618774	1035.361938	26.291073
853.483521	985.300537	1401.720825	1014.882263	7.103815
853.783630	866.973450	1433.578125	1108.178589	42.570271
854.083679	903.381775	1349.383789	1051.290649	33.163277
854.383667	942.065613	1419.924927	1069.494751	26.666664
854.683533	821.463013	1283.393677	1058.117188	51.231537
854.983337	903.381775	1358.485962	1108.178589	44.999985
855.283203	937.514587	1347.108276	1101.352051	39.999996
855.582886	917.034912	1328.904175	1060.392700	34.806625
855.882629	914.759338	1269.740601	1103.627563	53.205124
856.182312	923.861450	1228.781250	1064.943726	46.268650
856.481873	935.239075	1365.312500	1055.841675	28.042328
856.781372	894.279663	1431.302612	1014.882263	22.457624
857.080872	901.106262	1497.292725	1055.841675	25.954197
857.380310	871.524475	1367.588013	1012.606750	28.440365
857.679688	967.096313	1344.832764	1019.433350	13.855437
857.979004	892.004150	1340.281738	1142.311401	55.837555
858.278259	942.065613	1335.730713	1099.076538	39.884392
858.577454	917.034912	1392.618774	1035.361938	24.880371
858.876648	846.493713	1374.414551	1074.045776	43.103443
859.175720	894.279663	1360.761475	1039.912964	31.219503
859.474792	942.065613	1328.904175	1010.331238	17.647058
859.773743	887.453125	1292.495850	1021.708862	33.146069
860.072693	844.218201	1281.118164	1033.086426	43.229168
860.371521	946.616638	1349.383789	1071.770264	31.073444
860.670349	864.697876	1328.904175	1046.739624	39.215698
860.969116	948.892151	1292.495850	1039.912964	26.490057
861.267883	942.065613	1310.699951	1051.290649	29.629642
861.566589	889.728638	1340.281738	1046.739624	34.848499
861.865112	844.218201	1322.077637	1096.801025	52.857140
862.163635	921.585938	1287.944824	1017.157776	26.086945
862.462158	887.453125	1335.730713	1078.596802	42.639580
862.760620	880.626526	1335.730713	1037.637451	34.499996
863.059021	946.616638	1274.291626	1055.841675	33.333347
863.357361	864.697876	1281.118164	969.371887	25.136625
863.655640	935.239075	1278.842651	980.749451	13.245024
863.953857	912.483826	1242.434326	987.576050	22.758633
864.251953	930.687988	1333.455200	1014.882263	20.903955
864.550110	928.412476	1331.179688	1005.780212	19.209045
864.848206	930.687988	1315.250977	1023.984375	24.260366
865.146179	1023.984375	1265.189575	971.647400	-21.698112
865.444092	948.892151	1372.139038	1039.912964	21.505371
865.741943	946.616638	1351.659302	1017.157776	17.415730
866.039795	962.545288	1306.148926	980.749451	5.298012
866.337646	885.177612	1324.353149	1049.015137	37.305702
866.635376	919.310425	1344.832764	1055.841675	32.085567
866.933044	948.892151	1285.669312	1042.188477	27.702688
867.230652	880.626526	1328.904175	1039.912964	35.532986
867.528198	878.351013	1249.260864	1023.984375	39.263817
867.825745	914.759338	1233.332275	1008.055725	29.285723
868.123230	830.565063	1333.455200	1055.841675	44.796387
868.420593	964.820801	1376.690063	1053.566162	21.546974
868.717896	969.371887	1324.353149	1051.290649	23.076925
869.015198	962.545288	1333.455200	1012.606750	13.496933
869.312439	869.248962	1340.281738	994.402588	26.570045
869.609619	866.973450	1303.873413	953.443237	19.791668
869.906738	939.790100	1281.118164	1064.943726	36.666668
870.203796	903.381775	1378.965576	1058.117188	32.535889
870.500854	853.320313	1260.638550	1046.739624	47.486042
870.797791	919.310425	1192.372925	1026.259888	39.166660
871.094666	957.994263	1226.505737	978.473938	7.627114
871.391602	921.585938	1319.802124	1087.698975	41.714287
871.688293	914.759338	1297.046875	1023.984375	28.571436
871.985107	973.922913	1315.250977	1001.229126	7.999990
872.281738	889.728638	1342.557251	1130.933838	53.266335
872.578369	912.483826	1331.179688	1019.433350	25.543488
872.874939	912.483826	1347.108276	996.678101	19.371731
873.171509	932.963501	1262.914063	1099.076538	50.344826
873.467957	967.096313	1262.914063	980.749451	4.615388
873.764343	942.065613	1335.730713	1010.331238	17.341042
874.060669	939.790100	1303.873413	1089.974487	41.250004
874.356995	939.790100	1274.291626	1005.780212	19.727896
874.653198	944.341125	1274.291626	1046.739624	31.034504
874.949463	1005.780212	1390.343262	951.167725	-14.201180
875.245544	905.657288	1374.414551	980.749451	16.019413
875.541626	1012.606750	1335.730713	1062.668213	15.492959
875.837646	951.167725	1344.832764	1017.157776	16.762995
876.133606	946.616638	1240.158813	983.024963	12.403098
876.429565	923.861450	1308.424438	1010.331238	22.485209
876.725403	923.861450	1344.832764	1021.708862	23.243250
877.021179	907.932800	1299.322388	1035.361938	32.558132
877.316956	880.626526	1347.108276	1021.708862	30.243914
877.612610	937.514587	1244.709839	1099.076538	52.592594
877.908203	866.973450	1308.424438	1019.433350	34.536087
878.203857	907.932800	1308.424438	1110.454102	50.568172
878.499390	844.218201	1258.363037	1017.157776	41.758236
878.794800	882.902100	1385.792114	1076.321289	38.461529
879.090271	841.942688	1403.996338	1121.831787	49.797577
879.385559	878.351013	1256.087524	1051.290649	45.783138
879.680847	835.116150	1326.628662	1126.382813	59.259258
879.976196	951.167725	1388.067749	1096.801025	33.333324
880.271301	946.616638	1522.323364	1140.035889	33.596836
880.566467	917.034912	1508.670288	1074.045776	26.538450
880.861572	855.595825	1656.579102	1235.607788	47.443184
881.156555	967.096313	1708.916138	1167.342163	26.993866
881.451477	910.208313	2088.927979	1374.414551	39.382240
881.746460	942.065613	2607.746826	1449.506714	30.464479
882.041321	923.861450	3365.495361	1711.191650	32.246040
882.336121	901.106262	4182.407227	1893.233276	30.235783
882.630798	960.269775	4598.827637	1981.978638	28.080050
882.925537	896.555176	4500.979980	2077.550537	32.765156
883.220215	939.790100	4353.071289	2032.040039	32.000000
883.514771	910.208313	4029.947266	1918.264038	32.312180
883.809326	978.473938	3784.191162	1838.620850	30.656935
884.103760	871.524475	3490.648926	1731.671387	32.841007
884.398132	903.381775	3147.045166	1640.650513	32.860043
884.692505	946.616638	3003.687500	1576.935913	30.641594
884.986816	898.830688	2767.033203	1426.751587	28.258226
885.281067	912.483826	2514.450439	1481.364014	35.511364
885.575256	887.453125	2405.225586	1429.027100	35.682159
885.869385	810.085388	2230.010498	1315.250977	35.576920
886.163452	946.616638	2038.866699	1310.699951	33.333332
886.457458	871.524475	1991.080688	1226.505737	31.707321
886.751465	901.106262	1804.488037	1178.719727	30.730471
887.045410	935.239075	1704.365112	1224.230225	37.573967
887.339233	932.963501	1674.783325	1110.454102	23.926376
887.632996	964.820801	1588.313477	1128.658325	26.277378
887.926758	960.269775	1533.701050	1053.566162	16.269846
888.220398	953.443237	1520.047852	1101.352051	26.104414
888.514099	887.453125	1488.190552	1028.535400	23.484848
888.807678	880.626526	1481.364014	1096.801025	35.984852
889.101196	914.759338	1363.036987	1092.250000	39.593914
889.394653	882.902100	1403.996338	1039.912964	30.130993
889.688049	855.595825	1333.455200	1108.178589	52.857132
889.981384	1019.433350	1306.148926	1037.637451	6.349185
890.274719	876.075500	1356.210449	1042.188477	34.597145
890.567932	826.014038	1260.638550	1014.882263	43.455494
>>>>>End Processed Spectral Data<<<<<
