Jaz Data File
++++++++++++++++++++++++++++++++++++
Date: Wed Feb 07 06:36:41 2024
User: jaz
Dark Spectrum Present: Yes
Reference Spectrum Present: Yes
Processed Spectrum Present: Yes
Spectrometers: JAZA3692
Integration Time (usec): 40000 (JAZA3692)
Spectra Averaged: 1 (JAZA3692)
Boxcar Smoothing: 0 (JAZA3692)
Correct for Electrical Dark: No (JAZA3692)
Strobe/Lamp Enabled: Yes (JAZA3692)
Correct for Detector Non-linearity: No (JAZA3692)
Correct for Stray Light: No (JAZA3692)
Number of Pixels in Processed Spectrum: 2048
>>>>>Begin Processed Spectral Data<<<<<
W	D	R	S	P
190.244385	0.000000	0.000000	0.000000	0.000000
190.627136	0.000000	0.000000	0.000000	0.000000
191.009842	1221.954712	1244.709839	1283.393677	270.000549
191.392532	1335.730713	1244.709839	1212.852539	135.000000
191.775177	1317.526489	1301.597900	1256.087524	385.715057
192.157791	1219.679199	1292.495850	1260.638550	56.249981
192.540390	1322.077637	1281.118164	1267.465088	133.333130
192.922943	1274.291626	1312.975464	1269.740601	-11.764668
193.305481	1333.455200	1312.975464	1294.771362	188.888351
193.687958	1281.118164	1272.016113	1276.567139	50.000000
194.070419	1290.220337	1285.669312	1347.108276	-1250.002686
194.452866	1244.709839	1265.189575	1276.567139	155.555222
194.835251	1290.220337	1306.148926	1356.210449	414.287262
195.217621	1299.322388	1349.383789	1301.597900	4.545444
195.599960	1312.975464	1301.597900	1324.353149	-100.001076
195.982254	1297.046875	1297.046875	1306.148926	0.000000
196.364517	1297.046875	1310.699951	1374.414551	566.668457
196.746750	1326.628662	1365.312500	1342.557251	41.176342
197.128952	1290.220337	1353.934937	1328.904175	60.714245
197.511139	1328.904175	1326.628662	1333.455200	-200.000000
197.893280	1331.179688	1335.730713	1322.077637	-200.000000
198.275391	1310.699951	1312.975464	1317.526489	300.000000
198.657471	1276.567139	1297.046875	1301.597900	122.222092
199.039520	1244.709839	1349.383789	1249.260864	4.347811
199.421539	1347.108276	1331.179688	1278.842651	428.572968
199.803513	1256.087524	1285.669312	1322.077637	223.076828
200.185471	1253.812012	1358.485962	1208.301514	-43.478340
200.567383	1335.730713	1272.016113	1276.567139	92.857170
200.949265	1283.393677	1287.944824	1242.434326	-899.978516
201.331131	1326.628662	1335.730713	1292.495850	-375.001343
201.712967	1299.322388	1315.250977	1249.260864	-314.287262
202.094742	1235.607788	1308.424438	1294.771362	81.250061
202.476517	1233.332275	1278.842651	1283.393677	109.999969
202.858231	1258.363037	1281.118164	1228.781250	-130.000534
203.239944	1301.597900	1292.495850	1244.709839	625.002686
203.621582	1256.087524	1328.904175	1258.363037	3.124990
204.003235	1363.036987	1285.669312	1333.455200	38.235332
204.384827	1276.567139	1292.495850	1290.220337	85.714394
204.766388	1281.118164	1274.291626	1233.332275	700.001770
205.147934	1301.597900	1292.495850	1299.322388	25.000000
205.529449	1403.996338	1312.975464	1319.802124	92.499893
205.910904	1283.393677	1258.363037	1297.046875	-54.545940
206.292343	1210.577026	1322.077637	1319.802124	97.959190
206.673767	1308.424438	1281.118164	1294.771362	49.999775
207.055115	1242.434326	1372.139038	1276.567139	26.315784
207.436462	1328.904175	1326.628662	1276.567139	2300.010742
207.817780	1303.873413	1399.445313	1294.771362	-9.523773
208.199051	1251.536499	1328.904175	1301.597900	64.705833
208.580307	1242.434326	1390.343262	1301.597900	40.000000
208.961517	1267.465088	1306.148926	1324.353149	147.058990
209.342712	1292.495850	1312.975464	1237.883301	-266.667847
209.723846	1242.434326	1221.954712	1267.465088	-122.222816
210.104965	1322.077637	1285.669312	1267.465088	150.000168
210.486069	1267.465088	1306.148926	1360.761475	241.176651
210.867111	1281.118164	1226.505737	1299.322388	-33.333481
211.248123	1301.597900	1299.322388	1340.281738	-1700.005371
211.629120	1322.077637	1319.802124	1344.832764	-1000.000000
212.010071	1274.291626	1338.006226	1390.343262	182.142929
212.390991	1262.914063	1283.393677	1272.016113	44.444443
212.771881	1294.771362	1351.659302	1262.914063	-56.000095
213.152756	1319.802124	1374.414551	1233.332275	-158.333649
213.533569	1306.148926	1333.455200	1276.567139	-108.333298
213.914368	1226.505737	1369.863525	1269.740601	30.158712
214.295135	1267.465088	1317.526489	1287.944824	40.909233
214.675858	1249.260864	1365.312500	1328.904175	68.627480
215.056549	1322.077637	1328.904175	1215.128052	-1566.673828
215.437225	1285.669312	1299.322388	1326.628662	300.000885
215.817841	1276.567139	1360.761475	1290.220337	16.216291
216.198441	1358.485962	1340.281738	1301.597900	312.499237
216.579025	1353.934937	1385.792114	1183.270874	-535.716187
216.959549	1299.322388	1292.495850	1297.046875	33.333332
217.340057	1278.842651	1344.832764	1201.474976	-117.241318
217.720535	1301.597900	1347.108276	1251.536499	-109.999969
218.100967	1294.771362	1301.597900	1281.118164	-200.001785
218.481369	1317.526489	1335.730713	1287.944824	-162.498917
218.861740	1344.832764	1292.495850	1317.526489	52.174026
219.242065	1256.087524	1228.781250	1356.210449	-366.666382
219.622391	1256.087524	1303.873413	1262.914063	14.285678
220.002670	1274.291626	1317.526489	1237.883301	-84.210571
220.382919	1344.832764	1228.781250	1312.975464	27.450998
220.763123	1308.424438	1322.077637	1276.567139	-233.332138
221.143295	1356.210449	1322.077637	1256.087524	293.333344
221.523453	1269.740601	1340.281738	1258.363037	-16.128977
221.903549	1251.536499	1356.210449	1240.158813	-10.869644
222.283630	1297.046875	1333.455200	1301.597900	12.499958
222.663696	1317.526489	1319.802124	1276.567139	-1799.908813
223.043701	1206.026001	1333.455200	1242.434326	28.571415
223.423676	1224.230225	1378.965576	1292.495850	44.117664
223.803635	1244.709839	1347.108276	1272.016113	26.666691
224.183548	1260.638550	1285.669312	1269.740601	36.363461
224.563431	1260.638550	1283.393677	1240.158813	-90.000534
224.943283	1322.077637	1335.730713	1249.260864	-533.335999
225.323105	1246.985352	1353.934937	1297.046875	46.808525
225.702881	1260.638550	1308.424438	1206.026001	-114.285934
226.082642	1242.434326	1265.189575	1287.944824	200.000000
226.462357	1365.312500	1383.516602	1315.250977	-275.001343
226.842041	1219.679199	1369.863525	1315.250977	63.636318
227.221695	1319.802124	1315.250977	1319.802124	-0.000000
227.601318	1306.148926	1406.271851	1281.118164	-25.000031
227.980911	1276.567139	1463.159912	1301.597900	13.414647
228.360474	1287.944824	1383.516602	1292.495850	4.761893
228.739990	1283.393677	1440.404663	1258.363037	-15.941967
229.119476	1285.669312	1408.547363	1344.832764	48.148106
229.498932	1283.393677	1424.476074	1331.179688	33.870995
229.878372	1299.322388	1504.119263	1212.852539	-42.222252
230.257736	1262.914063	1515.496826	1331.179688	27.027033
230.637115	1174.168701	1572.384888	1317.526489	35.999989
231.016449	1242.434326	1454.057739	1376.690063	63.440872
231.395737	1267.465088	1542.803101	1274.291626	2.479330
231.774994	1269.740601	1442.680176	1262.914063	-3.947355
232.154221	1276.567139	1476.812988	1338.006226	30.681828
232.533417	1231.056763	1451.782227	1301.597900	31.958767
232.912582	1265.189575	1419.924927	1290.220337	16.176498
233.291702	1299.322388	1392.618774	1256.087524	-46.341412
233.670792	1276.567139	1447.231201	1303.873413	16.000015
234.049866	1251.536499	1444.955688	1269.740601	9.411735
234.428894	1349.383789	1417.649414	1312.975464	-53.333321
234.807892	1292.495850	1410.822876	1272.016113	-17.307741
235.186874	1308.424438	1444.955688	1258.363037	-36.666626
235.565781	1203.750488	1504.119263	1292.495850	29.545469
235.944687	1274.291626	1490.466064	1335.730713	28.421070
236.323547	1333.455200	1501.843750	1294.771362	-22.972961
236.702377	1287.944824	1481.364014	1251.536499	-18.823534
237.081177	1283.393677	1501.843750	1212.852539	-32.291653
237.459946	1269.740601	1515.496826	1237.883301	-12.962968
237.838669	1265.189575	1535.976563	1267.465088	0.840333
238.217361	1206.026001	1565.558350	1276.567139	19.620247
238.596039	1244.709839	1515.496826	1272.016113	10.084043
238.974670	1299.322388	1561.007324	1299.322388	0.000000
239.353271	1297.046875	1488.190552	1262.914063	-17.857149
239.731842	1244.709839	1533.701050	1340.281738	33.070866
240.110367	1308.424438	1488.190552	1312.975464	2.531637
240.488876	1301.597900	1608.793213	1297.046875	-1.481476
240.867340	1356.210449	1590.588989	1306.148926	-21.359261
241.245789	1306.148926	1545.078613	1265.189575	-17.142847
241.624176	1303.873413	1508.670288	1324.353149	10.000024
242.002548	1297.046875	1706.640625	1308.424438	2.777768
242.380890	1351.659302	1758.977539	1369.863525	4.469288
242.759186	1272.016113	1736.222412	1365.312500	20.098043
243.137451	1303.873413	1904.610962	1276.567139	-4.545458
243.515686	1274.291626	1966.049927	1340.281738	9.539475
243.893890	1274.291626	2011.560425	1317.526489	5.864193
244.272049	1210.577026	1981.978638	1374.414551	21.238939
244.650192	1331.179688	1843.171875	1319.802124	-2.222214
245.028290	1308.424438	1827.243164	1356.210449	9.210541
245.406357	1190.097412	1699.814087	1328.904175	27.232141
245.784393	1272.016113	1692.987427	1367.588013	22.702711
246.162384	1308.424438	1756.702026	1322.077637	3.045702
246.540359	1278.842651	1793.110352	1322.077637	8.407097
246.918289	1208.301514	1822.692139	1344.832764	22.222221
247.296204	1338.006226	2052.519775	1363.036987	3.503189
247.674057	1294.771362	2245.938965	1340.281738	4.784685
248.051895	1338.006226	2393.847900	1276.567139	-5.818968
248.429703	1347.108276	2443.909424	1342.557251	-0.414936
248.807465	1278.842651	2473.491211	1449.506714	14.285713
249.185196	1281.118164	2316.480225	1378.965576	9.450550
249.562897	1317.526489	2125.336426	1322.077637	0.563393
249.940567	1358.485962	2098.030273	1331.179688	-3.692311
250.318192	1312.975464	1972.876587	1369.863525	8.620695
250.695801	1317.526489	1986.529663	1344.832764	4.081636
251.073349	1324.353149	1859.100464	1344.832764	3.829774
251.450882	1303.873413	1827.243164	1326.628662	4.347834
251.828400	1276.567139	1879.580200	1265.189575	-1.886786
252.205872	1221.954712	1790.834839	1290.220337	12.000002
252.583313	1269.740601	1900.059814	1283.393677	2.166057
252.960693	1226.505737	1938.743774	1381.241089	21.725229
253.338074	1303.873413	2045.693237	1338.006226	4.601227
253.715408	1287.944824	2077.550537	1328.904175	5.187317
254.092682	1319.802124	1945.570313	1392.618774	11.636362
254.469955	1258.363037	1806.763550	1328.904175	12.863070
254.847198	1231.056763	1779.457275	1353.934937	22.406649
255.224365	1283.393677	1854.549438	1306.148926	3.984071
255.601563	1215.128052	1768.079712	1381.241089	30.041149
255.978683	1338.006226	1834.069824	1356.210449	3.669736
256.355743	1260.638550	1818.141113	1401.720825	25.306122
256.732819	1240.158813	1906.886475	1369.863525	19.453926
257.109894	1301.597900	1829.518677	1333.455200	6.034485
257.486877	1267.465088	1920.539551	1363.036987	14.634151
257.863831	1276.567139	1934.192627	1308.424438	4.844292
258.240753	1326.628662	1943.294800	1233.332275	-15.129157
258.617645	1303.873413	2029.764526	1390.343262	11.912234
258.994507	1251.536499	2118.509766	1388.067749	15.748034
259.371307	1274.291626	2184.500000	1310.699951	3.999999
259.748108	1292.495850	2286.898438	1408.547363	11.670476
260.124878	1212.852539	2493.970703	1403.996338	14.920075
260.501617	1315.250977	2760.206787	1383.516602	4.724409
260.878296	1294.771362	2919.493164	1447.231201	9.383750
261.254944	1301.597900	3056.024414	1444.955688	8.171206
261.631561	1262.914063	2933.146240	1481.364014	13.079017
262.008179	1347.108276	2657.808350	1472.261963	9.548614
262.384735	1290.220337	2484.868652	1431.302612	11.809524
262.761261	1278.842651	2275.520752	1401.720825	12.328773
263.137695	1281.118164	2311.929199	1367.588013	8.388526
263.514191	1206.026001	2141.265137	1358.485962	16.301708
263.890594	1219.679199	2107.132324	1363.036987	16.153843
264.267029	1265.189575	2141.265137	1324.353149	6.753250
264.643341	1251.536499	2145.816162	1356.210449	11.704834
265.019653	1333.455200	2111.683350	1347.108276	1.754380
265.395935	1312.975464	2152.642578	1335.730713	2.710032
265.772217	1256.087524	2045.693237	1315.250977	7.492784
266.148407	1281.118164	2045.693237	1356.210449	9.821441
266.524597	1281.118164	2079.825928	1294.771362	1.709411
266.900726	1237.883301	2286.898438	1378.965576	13.449022
267.276855	1322.077637	2352.888428	1338.006226	1.545249
267.652924	1272.016113	2407.500977	1467.710938	17.234472
268.028992	1351.659302	2346.062012	1397.169800	4.576667
268.404999	1303.873413	2430.256104	1358.485962	4.848490
268.781006	1335.730713	2416.603027	1315.250977	-1.894742
269.156921	1290.220337	2334.684326	1385.792114	9.150318
269.532837	1322.077637	2325.582275	1476.812988	15.419496
269.908661	1233.332275	2409.776611	1338.006226	8.897485
270.284546	1301.597900	2277.796387	1335.730713	3.496503
270.660339	1365.312500	2409.776611	1347.108276	-1.742925
271.036133	1260.638550	2450.735840	1481.364014	18.546843
271.411835	1285.669312	2318.755615	1458.608887	16.740089
271.787537	1256.087524	2594.093750	1401.720825	10.884352
272.163239	1215.128052	2814.819336	1390.343262	10.953064
272.538849	1315.250977	2987.758789	1440.404663	7.482996
272.914459	1299.322388	2912.666504	1353.934937	3.385053
273.290070	1272.016113	2846.676514	1438.129150	10.549134
273.665588	1281.118164	2673.737061	1394.894287	8.169940
274.041046	1285.669312	2714.696289	1342.557251	3.980886
274.416565	1246.985352	2550.858887	1415.373901	12.914485
274.791962	1206.026001	2621.399902	1349.383789	10.128616
275.167389	1319.802124	2544.032227	1419.924927	8.178430
275.542755	1283.393677	2498.521729	1351.659302	5.617978
275.918060	1244.709839	2523.552490	1390.343262	11.387908
276.293365	1281.118164	2459.837891	1351.659302	5.984556
276.668640	1317.526489	2584.991699	1394.894287	6.104136
277.043854	1272.016113	2546.307861	1426.751587	12.142860
277.419037	1260.638550	2687.390137	1378.965576	8.293457
277.794189	1287.944824	2716.971924	1363.036987	5.254776
278.169312	1217.403687	2714.696289	1456.333252	15.957439
278.544373	1294.771362	2682.839111	1456.333252	11.639338
278.919464	1322.077637	2537.205811	1356.210449	2.808989
279.294464	1287.944824	2569.062988	1381.241089	7.282409
279.669464	1237.883301	2619.124512	1342.557251	7.578253
280.044403	1256.087524	2669.185791	1349.383789	6.602249
280.419312	1262.914063	2689.665527	1433.578125	11.961723
280.794189	1276.567139	2710.145264	1365.312500	6.190480
281.169037	1331.179688	2680.563477	1422.200562	6.745366
281.543854	1353.934937	2810.268311	1417.649414	4.374993
281.918671	1228.781250	2851.227539	1419.924927	11.781202
282.293365	1312.975464	2924.044189	1342.557251	1.836159
282.668091	1358.485962	3056.024414	1360.761475	0.134048
283.042786	1353.934937	3147.045166	1454.057739	5.583751
283.417419	1299.322388	3030.993652	1435.853638	7.884363
283.792053	1237.883301	3046.922363	1483.639526	13.584905
284.166595	1283.393677	2905.840088	1401.720825	7.293131
284.541138	1199.199463	2873.982666	1481.364014	16.847826
284.915619	1237.883301	2951.350586	1383.516602	8.499333
285.290100	1308.424438	3012.789551	1417.649414	6.408543
285.664520	1297.046875	3067.402100	1440.404663	8.097685
286.038940	1326.628662	3117.463379	1476.812988	8.386275
286.413300	1269.740601	3112.912354	1442.680176	9.382716
286.787628	1310.699951	3244.892578	1447.231201	7.058824
287.161896	1285.669312	3470.169189	1506.394775	10.104164
287.536194	1240.158813	3360.944336	1481.364014	11.373389
287.910400	1290.220337	3281.301025	1497.292725	10.400000
288.284607	1331.179688	3219.861816	1531.425537	10.602411
288.658752	1303.873413	3096.983887	1449.506714	8.121825
289.032867	1303.873413	2974.105713	1629.272949	19.482292
289.406921	1278.842651	2924.044189	1533.701050	15.491014
289.781006	1269.740601	3046.922363	1629.272949	20.230476
290.154999	1294.771362	3128.841064	1497.292725	11.042185
290.529022	1258.363037	3213.035400	1547.354126	14.784631
290.902954	1308.424438	3272.198975	1597.415649	14.716109
291.276825	1292.495850	3429.209961	1686.160889	18.423851
291.650757	1324.353149	3374.597412	1670.232300	16.870144
292.024597	1369.863525	3447.414063	1677.058838	14.786418
292.398407	1281.118164	3356.393066	1599.691162	15.350882
292.772156	1290.220337	3310.882813	1670.232300	18.806305
293.145905	1240.158813	3206.208740	1649.752563	20.833334
293.519592	1283.393677	3192.555664	1606.517700	16.924913
293.893280	1306.148926	3156.147461	1601.966675	15.990161
294.266907	1310.699951	3297.229736	1554.180664	12.256585
294.640533	1278.842651	3360.944336	1706.640625	20.546452
295.014069	1272.016113	3481.546875	1677.058838	18.331617
295.387604	1317.526489	3615.802490	1699.814087	16.633669
295.761078	1267.465088	3572.567627	1683.885376	18.065153
296.134552	1235.607788	3590.771729	1733.946899	21.159422
296.507996	1251.536499	3593.047363	1720.293701	20.019434
296.881378	1178.719727	3572.567627	1749.875488	23.859318
297.254730	1285.669312	3875.211914	1784.008301	19.244287
297.628021	1262.914063	4068.631104	1834.069824	20.356855
298.001282	1274.291626	4027.671875	1870.478149	21.652893
298.374573	1310.699951	4068.631104	1829.518677	18.811880
298.747803	1253.812012	3993.539063	1824.967651	20.847174
299.121002	1269.740601	3795.568604	1818.141113	21.711712
299.494141	1228.781250	3702.272461	1740.773438	20.699171
299.867188	1221.954712	3645.384277	1718.018188	20.469481
300.240265	1253.812012	3538.434814	1797.661377	23.804777
300.613312	1278.842651	3424.658691	1665.681274	18.027576
300.986328	1283.393677	3401.903564	1697.538574	19.548878
301.359314	1251.536499	3310.882813	1733.946899	23.425415
301.732239	1256.087524	3333.637939	1674.783325	20.153341
302.105103	1253.812012	3413.281250	1652.028076	18.440460
302.477997	1258.363037	3401.903564	1645.201538	18.046707
302.850830	1285.669312	3408.730225	1720.293701	20.471592
303.223602	1285.669312	3272.198975	1649.752563	18.327602
303.596375	1256.087524	3315.433838	1622.446289	17.790052
303.969116	1287.944824	3224.413086	1667.956787	19.623970
304.341766	1294.771362	3283.576416	1722.569214	21.510296
304.714478	1349.383789	3294.954102	1715.742676	18.830412
305.087067	1347.108276	3035.544678	1624.721802	16.442049
305.459656	1246.985352	3192.555664	1667.956787	21.637430
305.832214	1294.771362	3224.413086	1683.885376	20.165091
306.204681	1340.281738	3235.790527	1681.609863	18.007204
306.577148	1303.873413	3233.515137	1672.507813	19.103775
306.949646	1347.108276	3326.811523	1663.405762	15.977015
307.322021	1281.118164	3231.239502	1706.640625	21.820307
307.694397	1287.944824	3162.973877	1667.956787	20.266991
308.066742	1262.914063	3251.719238	1686.160889	21.281462
308.439026	1351.659302	3285.852051	1672.507813	16.588240
308.811279	1310.699951	3404.179199	1677.058838	17.500000
309.183502	1253.812012	3606.700439	1667.956787	17.601547
309.555695	1235.607788	3622.629150	1770.355225	22.402288
309.927887	1215.128052	3608.976074	1756.702026	22.623573
310.299988	1237.883301	3547.536865	1686.160889	19.408867
310.672058	1333.455200	3574.843262	1704.365112	16.548223
311.044128	1219.679199	3684.068115	1747.599976	21.421974
311.416168	1272.016113	3693.170166	1752.151001	19.830828
311.788147	1253.812012	3618.078125	1679.334351	17.998074
312.160065	1187.821899	3715.925537	1727.120239	21.332130
312.531982	1328.904175	3595.322754	1761.253052	19.076303
312.903870	1315.250977	3613.527100	1745.324463	18.712873
313.275696	1301.597900	3449.689453	1731.671387	20.021191
313.647491	1276.567139	3413.281250	1692.987427	19.488817
314.019318	1342.557251	3360.944336	1674.783325	16.459978
314.391022	1328.904175	3397.352539	1677.058838	16.831684
314.762726	1328.904175	3574.843262	1656.579102	14.589663
315.134369	1260.638550	3502.026611	1736.222412	21.218273
315.505981	1267.465088	3606.700439	1720.293701	19.357975
315.877594	1249.260864	3718.200928	1661.130127	16.682028
316.249146	1315.250977	3611.251465	1724.844727	17.839445
316.620636	1267.465088	3583.945313	1629.272949	15.618862
316.992157	1276.567139	3338.188965	1656.579102	18.432671
317.363586	1240.158813	3388.250488	1722.569214	22.457624
317.735016	1283.393677	3301.780762	1645.201538	17.925592
318.106354	1274.291626	3269.923340	1649.752563	18.814140
318.477722	1258.363037	3306.331787	1658.854614	19.555552
318.849060	1251.536499	3433.760986	1626.997314	17.205416
319.220306	1251.536499	3372.321777	1663.405762	19.420603
319.591522	1276.567139	3456.516113	1638.375000	16.597080
319.962738	1283.393677	3424.658691	1663.405762	17.747082
320.333923	1258.363037	3533.883789	1667.956787	18.000000
320.705017	1274.291626	3413.281250	1638.375000	17.021276
321.076111	1297.046875	3406.454590	1645.201538	16.504854
321.447144	1328.904175	3422.383301	1681.609863	16.847826
321.818176	1219.679199	3299.505127	1638.375000	20.131290
322.189178	1297.046875	3299.505127	1608.793213	15.568182
322.560120	1317.526489	3258.545898	1533.701050	11.137166
322.931030	1262.914063	3363.219727	1661.130127	18.959909
323.301910	1262.914063	3574.843262	1626.997314	15.748028
323.672729	1317.526489	3704.547852	1672.507813	14.871308
324.043549	1317.526489	3772.813477	1699.814087	15.569975
324.414337	1269.740601	4011.743164	1781.732788	18.672201
324.785095	1358.485962	4080.008789	1752.151001	14.464880
325.155792	1287.944824	4116.416992	1777.181763	17.296862
325.526428	1285.669312	4168.753906	1811.314575	18.232046
325.897034	1208.301514	4041.324951	1715.742676	17.911648
326.267670	1262.914063	4018.569824	1661.130127	14.450864
326.638184	1283.393677	3891.140625	1761.253052	18.324606
327.008728	1287.944824	4011.743164	1729.395752	16.207182
327.379211	1299.322388	4027.671875	1713.467163	15.179315
327.749634	1319.802124	3893.416016	1774.906250	17.683466
328.120026	1228.781250	3791.017578	1683.885376	17.761990
328.490417	1219.679199	3806.946289	1649.752563	16.622688
328.860748	1228.781250	3725.027588	1718.018188	19.598904
329.231079	1260.638550	3797.844238	1799.937012	21.255608
329.601318	1274.291626	3649.935303	1683.885376	17.241381
329.971558	1256.087524	3777.364502	1690.711914	17.238266
330.341736	1244.709839	3781.915527	1661.130127	16.412556
330.711914	1303.873413	3841.079102	1768.079712	18.295967
331.082062	1285.669312	3784.191162	1679.334351	15.755917
331.452148	1246.985352	3802.395264	1702.089600	17.809443
331.822174	1285.669312	3747.782715	1731.671387	18.114605
332.192200	1262.914063	3845.630127	1642.926025	14.713656
332.562134	1292.495850	3918.446777	1647.477051	13.518196
332.932129	1237.883301	3993.539063	1754.426514	18.744839
333.302063	1319.802124	4080.008789	1724.844727	14.674358
333.671906	1312.975464	4284.805664	1649.752563	11.332314
334.041718	1194.648438	4214.264648	1738.497925	18.010550
334.411499	1249.260864	4264.326172	1788.559326	17.886791
334.781281	1324.353149	4218.815430	1745.324463	14.544024
335.151001	1274.291626	4293.907715	1722.569214	14.845515
335.520721	1290.220337	4091.386475	1718.018188	15.272135
335.890350	1312.975464	4039.049316	1754.426514	16.193657
336.259979	1233.332275	4018.569824	1706.640625	16.993464
336.629547	1319.802124	4045.875977	1736.222412	15.275459
336.999084	1272.016113	4070.906738	1758.977539	17.398373
337.368622	1340.281738	4098.212891	1718.018188	13.696370
337.738098	1281.118164	4164.203125	1713.467163	14.996055
338.107513	1260.638550	4150.549805	1679.334351	14.488190
338.476898	1260.638550	4248.397461	1715.742676	15.232291
338.846252	1328.904175	4282.530273	1799.937012	15.947613
339.215576	1285.669312	4243.846191	1745.324463	15.538462
339.584869	1269.740601	4230.193359	1756.702026	16.448885
339.954132	1240.158813	4298.458984	1738.497925	16.294643
340.323334	1283.393677	4157.376465	1738.497925	15.835315
340.692505	1287.944824	4098.212891	1749.875488	16.437246
341.061646	1281.118164	3970.783691	1749.875488	17.428089
341.430786	1299.322388	4100.488281	1747.599976	16.003250
341.799896	1310.699951	4221.091309	1681.609863	12.744331
342.168915	1292.495850	4248.397461	1747.599976	15.396457
342.537903	1278.842651	4382.652832	1727.120239	14.442817
342.906830	1272.016113	4243.846191	1695.262939	14.241960
343.275757	1276.567139	4373.550781	1745.324463	15.135932
343.644684	1274.291626	4371.275391	1804.488037	17.119766
344.013550	1333.455200	4487.327148	1786.283813	14.357862
344.382355	1231.056763	4564.694824	1777.181763	16.382252
344.751129	1274.291626	4824.104004	1859.100464	16.474358
345.119873	1333.455200	4976.563965	1836.345337	13.803873
345.488586	1324.353149	5072.135742	1802.212524	12.750456
345.857269	1206.026001	5229.146973	1856.824951	16.176470
346.225891	1237.883301	5342.922852	1863.651489	15.243901
346.594482	1265.189575	5445.321289	1897.784302	15.133368
346.963043	1340.281738	5197.289551	1852.273926	13.274336
347.331543	1228.781250	5001.594727	1884.131226	17.370325
347.700043	1342.557251	4997.043457	1868.202637	14.383564
348.068512	1281.118164	4956.084473	1790.834839	13.869968
348.436951	1283.393677	4621.582520	1806.763550	15.678258
348.805328	1285.669312	4580.623535	1758.977539	14.364638
349.173645	1342.557251	4664.817871	1761.253052	12.602737
349.541931	1308.424438	4623.858398	1777.181763	14.138641
349.910217	1310.699951	4710.328125	1784.008301	13.922357
350.278473	1290.220337	4855.961426	1806.763550	14.486279
350.646667	1353.934937	4819.553223	1733.946899	10.965200
351.014801	1253.812012	4912.849609	1790.834839	14.676614
351.382935	1267.465088	4933.329102	1838.620850	15.580386
351.751007	1306.148926	5006.145996	1868.202637	15.190653
352.119049	1249.260864	5049.380859	1859.100464	16.047903
352.487091	1265.189575	5012.972168	1900.059814	16.939890
352.855072	1328.904175	5247.351074	1950.121338	15.853659
353.222992	1258.363037	5035.727539	1845.447388	15.542169
353.590881	1369.863525	5222.320313	1920.539551	14.294152
353.958740	1228.781250	5313.341309	1922.815063	16.991642
354.326599	1242.434326	5397.535156	1856.824951	14.786420
354.694397	1219.679199	5659.220215	1909.161987	15.530498
355.062134	1367.588013	5654.669434	1981.978638	14.331209
355.429840	1317.526489	5602.332031	1952.396851	14.816783
355.797516	1244.709839	5811.680176	1906.886475	14.499254
356.165192	1283.393677	6075.640625	2032.040039	15.622032
356.532776	1267.465088	6018.752441	2016.111450	15.756706
356.900360	1256.087524	6332.774414	2020.662476	15.060510
357.267883	1267.465088	6330.499023	2123.060791	16.898872
357.635376	1347.108276	6717.337402	2077.550537	13.601697
358.002808	1203.750488	6853.868652	2132.163086	16.431738
358.370270	1240.158813	7115.553711	2157.193604	15.608053
358.737640	1274.291626	7265.737793	2173.122314	15.001899
359.105011	1342.557251	7115.553711	2214.081787	15.096571
359.472321	1349.383789	6710.510742	2116.234375	14.303906
359.839569	1356.210449	6851.593262	2077.550537	13.126294
360.206787	1360.761475	6699.133301	2022.937988	12.404091
360.574005	1308.424438	7049.563477	2150.367188	14.665082
360.941193	1310.699951	7283.941895	2145.816162	13.980953
361.308319	1240.158813	7645.750000	2268.694336	16.056839
361.675415	1256.087524	8219.180664	2218.632813	13.823530
362.042450	1292.495850	8628.774414	2430.256104	15.508684
362.409424	1233.332275	9168.073242	2341.510986	13.966161
362.776428	1228.781250	9295.502930	2439.358398	15.007052
363.143402	1260.638550	8913.214844	2382.470215	14.659530
363.510284	1344.832764	8376.192383	2236.836914	12.686084
363.877136	1208.301514	7704.913574	2259.592041	16.182135
364.243988	1328.904175	7131.482422	2184.500000	14.745098
364.610779	1310.699951	6892.552734	2111.683350	14.349777
364.977539	1328.904175	6665.000488	2134.438477	15.095948
365.344269	1269.740601	6528.469238	2072.999512	15.274775
365.710938	1326.628662	6578.530762	1979.703125	12.435008
366.077576	1287.944824	6403.315430	2034.315552	14.590746
366.444183	1319.802124	6153.008301	1975.152100	13.559322
366.810760	1287.944824	6303.192383	1984.254150	13.883847
367.177277	1281.118164	6419.244141	2129.887451	16.519045
367.543823	1276.567139	6364.631836	2007.009399	14.355994
367.910248	1258.363037	6271.335449	2022.937988	15.251927
368.276642	1322.077637	6284.988281	2041.142212	14.488768
368.643036	1242.434326	6178.039063	2088.927979	17.150759
369.009399	1242.434326	6127.977539	2093.479248	17.419659
369.375671	1221.954712	6089.293457	2043.417725	16.877047
369.741974	1287.944824	5966.415527	1975.152100	14.688716
370.108215	1319.802124	5959.588867	2118.509766	17.214319
370.474396	1312.975464	6032.405762	1993.356201	14.416587
370.840546	1312.975464	6091.569336	1945.570313	13.238096
371.206665	1299.322388	6073.365234	2041.142212	15.538608
371.572784	1265.189575	6339.601074	2034.315552	15.156949
371.938843	1226.505737	6264.508789	1988.805176	15.130984
372.304840	1272.016113	6523.917969	2098.030273	15.727905
372.670807	1299.322388	6441.999512	2041.142212	14.424779
373.036713	1285.669312	6323.672363	2004.733887	14.272810
373.402649	1256.087524	6344.151855	2029.764526	15.205724
373.768524	1260.638550	6467.030273	1977.427612	13.767483
374.134308	1308.424438	6264.508789	1966.049927	13.269053
374.500122	1276.567139	6391.937988	1945.570313	13.078292
374.865875	1231.056763	6519.367188	2029.764526	15.103269
375.231567	1274.291626	6398.764648	2025.213501	14.653641
375.597260	1226.505737	6503.438477	2093.479248	16.429497
375.962891	1233.332275	6881.174805	2072.999512	14.867043
376.328461	1267.465088	6835.664551	2157.193604	15.978748
376.694031	1267.465088	7024.532715	2068.448486	13.913045
377.059540	1331.179688	7365.860840	2016.111450	11.349925
377.425049	1258.363037	7643.474609	2093.479248	13.079118
377.790497	1249.260864	7782.281250	2261.867676	15.499826
378.155945	1333.455200	8084.925293	2307.378174	14.425346
378.521301	1256.087524	7834.618164	2164.020264	13.801452
378.886597	1369.863525	7973.424805	2200.428711	12.577534
379.251892	1312.975464	7497.840820	2182.224365	14.054452
379.617157	1272.016113	7274.839844	2116.234375	14.063685
379.982422	1196.923950	7056.390137	2182.224365	16.815531
380.347595	1310.699951	7033.634766	2116.234375	14.075548
380.712738	1251.536499	6947.165039	2043.417725	13.903316
381.077820	1260.638550	7042.736816	2152.642578	15.426995
381.442902	1278.842651	7097.349609	2191.326416	15.682439
381.807953	1294.771362	7015.430664	2164.020264	15.194908
382.172974	1267.465088	6938.062988	2111.683350	14.887642
382.537933	1285.669312	6992.675293	2189.051025	15.829346
382.902832	1256.087524	7010.879395	2150.367188	15.539739
383.267700	1242.434326	7088.247070	2150.367188	15.531338
383.632538	1292.495850	7179.268066	2113.958740	13.954385
383.997345	1246.985352	7404.544922	2198.153076	15.447154
384.362152	1292.495850	7582.035156	2211.806152	14.616497
384.726898	1246.985352	7554.729004	2200.428711	15.115442
385.091553	1233.332275	7577.484375	2175.397949	14.849355
385.456238	1315.250977	7559.280273	2241.387939	14.832361
385.820862	1269.740601	7618.443848	2173.122314	14.229390
386.185425	1219.679199	7611.617188	2189.051025	15.165539
386.549988	1258.363037	7609.341797	2282.347412	16.123253
386.914490	1244.709839	7729.944336	2241.387939	15.368421
387.278961	1262.914063	7950.669922	2179.948975	13.712147
387.643372	1258.363037	8057.619141	2291.449463	15.194110
388.007782	1258.363037	8046.241699	2234.561523	14.381495
388.372101	1281.118164	8032.588379	2261.867676	14.526459
388.736450	1240.158813	8005.282227	2245.938965	14.867137
389.100739	1278.842651	8003.006836	2211.806152	13.874788
389.464966	1274.291626	7727.668457	2095.754639	12.729197
389.829163	1317.526489	7907.434570	2166.295898	12.879837
390.193329	1244.709839	7805.036133	2207.255127	14.672217
390.557495	1315.250977	8098.578613	2245.938965	13.720227
390.921570	1210.577026	8264.691406	2168.571289	13.580646
391.285614	1303.873413	8280.620117	2182.224365	12.589693
391.649597	1235.607788	8396.671875	2311.929199	15.030189
392.013550	1285.669312	8967.827148	2289.173828	13.062795
392.377502	1276.567139	9249.992188	2325.582275	13.156393
392.741455	1242.434326	9149.869141	2270.969727	13.007195
393.105316	1253.812012	9036.092773	2225.459229	12.485378
393.469086	1365.312500	8885.909180	2282.347412	12.193645
393.832886	1338.006226	8874.531250	2207.255127	11.533815
394.196655	1353.934937	8958.725586	2236.836914	11.609814
394.560333	1322.077637	9031.541992	2173.122314	11.038960
394.924042	1328.904175	9197.655273	2270.969727	11.972238
395.287659	1287.944824	9407.002930	2250.489990	11.855380
395.651245	1262.914063	9036.092773	2277.796387	13.056208
396.014771	1260.638550	9033.817383	2264.143311	12.909838
396.378296	1353.934937	8526.375977	2150.367188	11.104061
396.741791	1326.628662	8355.711914	2132.163086	11.460022
397.105255	1219.679199	8346.610352	2129.887451	12.771391
397.468628	1206.026001	8305.651367	2038.866699	11.730769
397.832001	1231.056763	8194.150391	2127.612061	12.875818
398.195313	1258.363037	8294.273438	2145.816162	12.613195
398.558624	1281.118164	8251.038086	2038.866699	10.871696
398.921844	1292.495850	8223.732422	2141.265137	12.245568
399.285095	1274.291626	8194.150391	2127.612061	12.331471
399.648254	1297.046875	8173.670898	2104.856689	11.747186
400.011383	1319.802124	8328.406250	2063.897461	10.616883
400.374451	1308.424438	8246.487305	1963.774414	9.445720
400.737549	1335.730713	8380.743164	2175.397949	11.918605
401.100586	1287.944824	8251.038086	1968.325439	9.771241
401.463562	1297.046875	8244.211914	2138.989502	12.119226
401.826508	1351.659302	8576.437500	2098.030273	10.330711
402.189392	1301.597900	8114.507324	2066.172852	11.222445
402.552246	1306.148926	8376.192383	2004.733887	9.880915
402.915070	1292.495850	8483.141602	2107.132324	11.329115
403.277893	1256.087524	8708.417969	2134.438477	11.786259
403.640656	1260.638550	8822.194336	2022.937988	10.081251
404.003326	1276.567139	9006.511719	2075.274902	10.332645
404.366028	1210.577026	8897.286133	2091.203613	11.456484
404.728699	1240.158813	9309.155273	2214.081787	12.069939
405.091248	1269.740601	9766.535156	2120.785400	10.016068
405.453857	1285.669312	9766.535156	2159.469238	10.303192
405.816345	1206.026001	9443.411133	2136.714111	11.298345
406.178833	1301.597900	9541.258789	2038.866699	8.947804
406.541260	1265.189575	9768.810547	2079.825928	9.579876
406.903687	1228.781250	9393.349609	2123.060791	10.953176
407.266052	1356.210449	9275.022461	2104.856689	9.454022
407.628387	1246.985352	9156.695313	2047.968750	10.126584
407.990662	1287.944824	9077.052734	2102.581299	10.458662
408.352905	1224.230225	9083.878906	2066.172852	10.712217
408.715118	1224.230225	9193.104492	2050.244141	10.365503
409.077332	1283.393677	9127.114258	2022.937988	9.428489
409.439484	1258.363037	9074.777344	2091.203613	10.655022
409.801575	1301.597900	9106.633789	2011.560425	9.096210
410.163605	1385.792114	9366.043945	2072.999512	8.611350
410.525635	1333.455200	9545.809570	1981.978638	7.896924
410.887604	1338.006226	9511.676758	2018.386963	8.324054
411.249573	1276.567139	9659.585938	1986.529663	8.469056
411.611481	1260.638550	9418.380859	2045.693237	9.623431
411.973328	1353.934937	9493.472656	1993.356201	7.855744
412.335144	1344.832764	9618.625977	2063.897461	8.690871
412.696930	1342.557251	9498.023438	2038.866699	8.537948
413.058685	1246.985352	9384.248047	1884.131226	7.829978
413.420410	1285.669312	9286.400391	1865.927002	7.252558
413.782104	1319.802124	9513.952148	1915.988525	7.275756
414.143707	1287.944824	9407.002930	1881.855713	7.315022
414.505310	1322.077637	9573.116211	1922.815063	7.280749
414.866852	1292.495850	9689.167969	1966.049927	8.021679
415.228394	1251.536499	9773.362305	1931.917114	7.983977
415.589874	1249.260864	9777.913086	1893.233276	7.550694
415.951324	1285.669312	9889.413086	1895.508789	7.088071
416.312683	1333.455200	10260.323242	1863.651489	5.939332
416.674072	1324.353149	10328.588867	1893.233276	6.317917
417.035370	1253.812012	11052.204102	1970.601074	7.315374
417.396667	1297.046875	10813.274414	1991.080688	7.293161
417.757935	1294.771362	11095.439453	1925.090576	6.431390
418.119141	1272.016113	11559.645508	1915.988525	6.259678
418.480286	1253.812012	11718.931641	1938.743774	6.544902
418.841400	1258.363037	12208.168945	2050.244141	7.231919
419.202484	1260.638550	12606.384766	1947.845825	6.056960
419.563568	1228.781250	12988.672852	2018.386963	6.714396
419.924591	1276.567139	13789.656250	1984.254150	5.655574
420.285553	1324.353149	13853.371094	2102.581299	6.211406
420.646484	1312.975464	14815.916016	2066.172852	5.578025
421.007355	1253.812012	15261.917969	2100.305664	6.042885
421.368225	1301.597900	15935.472656	2227.734863	6.328720
421.729065	1292.495850	16342.790039	2191.326416	5.972179
422.089874	1338.006226	16998.140625	2193.602051	5.463528
422.450592	1351.659302	16809.271484	2198.153076	5.476226
422.811279	1308.424438	16652.261719	2184.500000	5.709625
423.171936	1251.536499	16627.230469	2166.295898	5.949386
423.532593	1226.505737	16358.718750	2218.632813	6.556391
423.893127	1292.495850	16511.179688	2241.387939	6.235047
424.253723	1285.669312	16727.353516	2232.285889	6.130268
424.614197	1244.709839	16938.976563	2236.836914	6.321589
424.974670	1249.260864	17539.714844	2236.836914	6.062299
425.335052	1249.260864	17573.847656	2236.836914	6.049623
425.695496	1253.812012	16836.578125	2273.245361	6.542057
426.055817	1272.016113	16977.660156	2266.418701	6.331498
426.416168	1260.638550	16941.251953	2225.459229	6.152953
426.776398	1292.495850	15944.574219	2186.775391	6.103431
427.136627	1242.434326	15578.215820	2159.469238	6.396825
427.496826	1231.056763	15316.530273	2075.274902	5.993537
427.856995	1240.158813	14397.219727	2164.020264	7.021792
428.217102	1278.842651	14128.708984	2029.764526	5.843811
428.577179	1342.557251	13748.696289	2045.693237	5.667646
428.937195	1249.260864	13798.757813	2145.816162	7.144153
429.297180	1306.148926	13015.978516	2113.958740	6.898561
429.657135	1276.567139	13202.571289	2086.652588	6.792598
430.017059	1244.709839	13459.705078	2036.591064	6.482862
430.376984	1290.220337	13125.204102	2072.999512	6.614113
430.736786	1301.597900	12738.365234	2061.621826	6.645443
431.096588	1303.873413	12840.763672	2082.101563	6.745563
431.456360	1269.740601	12868.070313	1997.907227	6.278203
431.816071	1317.526489	12310.567383	2016.111450	6.354793
432.175781	1292.495850	12574.528320	2036.591064	6.595400
432.535400	1237.883301	12526.742188	2036.591064	7.075186
432.895020	1244.709839	12467.578125	2047.968750	7.157341
433.254578	1274.291626	12886.274414	2059.346436	6.760730
433.614105	1274.291626	12972.744141	2036.591064	6.516242
433.973602	1299.322388	13484.736328	2113.958740	6.685340
434.333038	1290.220337	13334.551758	2091.203613	6.650293
434.692444	1265.189575	13402.817383	2061.621826	6.561679
435.051819	1258.363037	13680.430664	1972.876587	5.751970
435.411133	1367.588013	13744.145508	2020.662476	5.276705
435.770416	1185.546387	13036.458984	2066.172852	7.430875
436.129669	1294.771362	13498.389648	1975.152100	5.575238
436.488861	1306.148926	13343.654297	1972.876587	5.538753
436.848083	1374.414551	13430.124023	1972.876587	4.964138
437.207184	1292.495850	13327.725586	1952.396851	5.483078
437.566254	1310.699951	13689.533203	2054.795166	6.011029
437.925293	1210.577026	13669.053711	1920.539551	5.698630
438.284363	1240.158813	13805.584961	2022.937988	6.229627
438.643311	1274.291626	13839.717773	1991.080688	5.704455
439.002258	1294.771362	13780.553711	1975.152100	5.449244
439.361145	1256.087524	14121.881836	1915.988525	5.129112
439.719971	1237.883301	14793.161133	1995.631714	5.590062
440.078827	1335.730713	14836.395508	1952.396851	4.567672
440.437592	1342.557251	15271.020508	1961.498901	4.443718
440.796295	1297.046875	15534.980469	2009.284912	5.002398
441.155029	1269.740601	16704.597656	1986.529663	4.643963
441.513672	1278.842651	16843.404297	2025.213501	4.795322
441.872253	1294.771362	17109.640625	1997.907227	4.446043
442.230865	1285.669312	16367.821289	2013.835938	4.828002
442.589386	1278.842651	16693.220703	1981.978638	4.561559
442.947876	1272.016113	16247.218750	2011.560425	4.938459
443.306335	1287.944824	15862.655273	1954.672363	4.574551
443.664764	1326.628662	15341.561523	1945.570313	4.416301
444.023102	1269.740601	15691.991211	1909.161987	4.433576
444.381500	1349.383789	15478.092773	1893.233276	3.849251
444.739777	1315.250977	15546.358398	1945.570313	4.429166
445.098022	1335.730713	15846.726563	1952.396851	4.249647
445.456238	1349.383789	15785.288086	2007.009399	4.555486
445.814423	1315.250977	16274.524414	1925.090576	4.076666
446.172577	1265.189575	17212.039063	1991.080688	4.551940
446.530701	1224.230225	17107.365234	2086.652588	5.429800
446.888733	1342.557251	17496.478516	2100.305664	4.690802
447.246765	1308.424438	18634.240234	2077.550537	4.439191
447.604736	1290.220337	17553.367188	2070.723877	4.799216
447.962677	1278.842651	18151.830078	2166.295898	5.259609
448.320587	1340.281738	18422.617188	2125.336426	4.595710
448.678436	1287.944824	17908.349609	2009.284912	4.340087
449.036255	1212.852539	17922.001953	2068.448486	5.120524
449.394043	1292.495850	16818.375000	2118.509766	5.320240
449.751770	1217.403687	17027.722656	2225.459229	6.375934
450.109467	1262.914063	16401.953125	2068.448486	5.320909
450.467163	1237.883301	16558.964844	2066.172852	5.406208
450.824768	1306.148926	16185.779297	2148.091553	5.658357
451.182343	1285.669312	15805.767578	2154.918213	5.986522
451.539886	1224.230225	15603.246094	2132.163086	6.314291
451.897369	1303.873413	15546.358398	2161.744873	6.023327
452.254822	1233.332275	15243.713867	2107.132324	6.236804
452.612274	1253.812012	15794.389648	2257.316650	6.901408
452.969635	1308.424438	15528.154297	2291.449463	6.913106
453.326965	1206.026001	15880.859375	2232.285889	6.993333
453.684326	1201.474976	15423.480469	2327.857666	7.919999
454.041534	1251.536499	15182.274414	2355.164063	7.922247
454.398773	1265.189575	14847.773438	2368.817139	8.125314
454.755951	1294.771362	14483.689453	2359.715088	8.074534
455.113098	1240.158813	13912.534180	2366.541748	8.888492
455.470215	1292.495850	14194.699219	2521.277100	9.523809
455.827240	1208.301514	14096.851563	2464.388916	9.745762
456.184265	1287.944824	14153.739258	2443.909424	8.984790
456.541260	1276.567139	13696.359375	2612.297852	10.754856
456.898193	1349.383789	13985.350586	2653.257324	10.318748
457.255096	1303.873413	14110.504883	2646.430664	10.483297
457.611969	1215.128052	13864.748047	2716.971924	11.872640
457.968781	1215.128052	13905.708008	2807.992676	12.551551
458.325531	1199.199463	14112.780273	2826.196777	12.599118
458.682312	1246.985352	15052.570313	3012.789551	12.790506
459.039001	1276.567139	15748.879883	3071.953125	12.405661
459.395630	1237.883301	16463.392578	3301.780762	13.555523
459.752289	1260.638550	17605.705078	3488.373291	13.629402
460.108856	1285.669312	18859.515625	3727.302979	13.893565
460.465363	1249.260864	19401.089844	4059.529053	15.482011
460.821899	1262.914063	19448.876953	4132.345703	15.778277
461.178345	1231.056763	19037.007813	4095.937500	16.089457
461.534760	1246.985352	18900.476563	4080.008789	16.047949
461.891144	1287.944824	17892.419922	4120.968262	17.061808
462.247467	1285.669312	17127.845703	3995.814453	17.107151
462.603760	1283.393677	16927.599609	4064.080078	17.774546
462.960052	1353.934937	16128.891602	4018.569824	18.034805
463.316254	1267.465088	15466.714844	4086.835449	19.855770
463.672424	1315.250977	15339.286133	4050.427002	19.503489
464.028564	1272.016113	15002.508789	4043.600586	20.185616
464.384644	1226.505737	14688.486328	4118.692871	21.484112
464.740723	1322.077637	15127.662109	4107.314941	20.174715
465.096741	1274.291626	14777.232422	4198.335938	21.654871
465.452698	1283.393677	14438.179688	4159.651855	21.864729
465.808655	1180.995239	14754.476563	4337.142578	23.252306
466.164520	1301.597900	14836.395508	4366.724609	22.646269
466.520355	1356.210449	15475.817383	4562.419434	22.707495
466.876190	1287.944824	15691.991211	4612.480469	23.080566
467.231964	1233.332275	15487.194336	4769.491699	24.808430
467.587677	1231.056763	16151.646484	4821.828613	24.065886
467.943390	1290.220337	16240.391602	5063.033691	25.235922
468.299011	1306.148926	15696.542969	4760.389648	24.003794
468.654633	1249.260864	15305.153320	4956.084473	26.372026
469.010223	1278.842651	15448.510742	5069.860352	26.754456
469.365723	1244.709839	14993.406250	5019.798828	27.457796
469.721191	1235.607788	15309.704102	4976.563965	26.580435
470.076660	1299.322388	14831.844727	5131.299316	28.316797
470.432068	1301.597900	14886.457031	5049.380859	27.587940
470.787445	1322.077637	14642.976563	5192.738281	29.057055
471.142792	1278.842651	14656.629883	5033.452148	28.065998
471.498016	1256.087524	15052.570313	5281.483887	29.176977
471.853271	1237.883301	15027.539063	5270.105957	29.240923
472.208496	1283.393677	14790.884766	5333.820801	29.986525
472.563660	1281.118164	15268.744141	5324.718750	28.908413
472.918762	1328.904175	15300.601563	5317.892090	28.550488
473.273865	1301.597900	15560.011719	5631.914063	30.370253
473.628876	1319.802124	16040.146484	5752.516602	30.112843
473.983917	1340.281738	15919.543945	5866.292480	31.044170
474.338837	1262.914063	16169.850586	5918.629395	31.231873
474.693787	1324.353149	15935.472656	5945.936035	31.630589
475.048645	1322.077637	16106.136719	5920.905273	31.106665
475.403503	1299.322388	16192.606445	5984.619629	31.459127
475.758270	1228.781250	16310.933594	6193.967773	32.920940
476.113037	1315.250977	16115.238281	6121.150879	32.472324
476.467773	1260.638550	16545.312500	6278.162109	32.827152
476.822418	1283.393677	17400.908203	6403.315430	31.766199
477.177063	1376.690063	16936.701172	6494.336426	32.889736
477.531647	1310.699951	17639.837891	6742.368164	33.263653
477.886200	1258.363037	18115.421875	6985.848633	33.976776
478.240723	1292.495850	18581.902344	6981.297852	32.903397
478.595184	1292.495850	18836.761719	7263.462402	34.033722
478.949585	1265.189575	18834.486328	7256.635742	34.101799
479.303986	1285.669312	19052.935547	7502.392090	34.989754
479.658325	1226.505737	19075.691406	7479.636719	35.033142
480.012634	1274.291626	19164.435547	7491.014648	34.749428
480.366913	1267.465088	19801.582031	7866.475586	35.604668
480.721130	1292.495850	20309.023438	7925.639160	34.880939
481.075317	1281.118164	20577.535156	8253.313477	36.132069
481.429474	1201.474976	21674.335938	8635.601563	36.312103
481.783569	1274.291626	22630.054688	8981.480469	36.089504
482.137604	1265.189575	23783.744141	9650.483398	37.237267
482.491669	1240.158813	26095.671875	10192.057617	36.015743
482.845612	1294.771362	28352.988281	11245.624023	36.775715
483.199554	1342.557251	31784.474609	12576.803711	36.903870
483.553436	1312.975464	37136.500000	14388.118164	36.498760
483.907318	1310.699951	43430.589844	17143.773438	37.590488
484.261139	1297.046875	49599.527344	20081.470703	38.889149
484.614899	1262.914063	53445.156250	21656.130859	39.080761
484.968628	1297.046875	53638.578125	21867.755859	39.300930
485.322357	1228.781250	51253.832031	20707.240234	38.937408
485.675964	1338.006226	47840.550781	19271.384766	38.564297
486.029572	1265.189575	43598.980469	17598.876953	38.583099
486.383148	1274.291626	40517.921875	16347.341797	38.408909
486.736694	1292.495850	38324.320313	15626.000977	38.705910
487.090149	1317.526489	38149.105469	15707.919922	39.070805
487.443604	1235.607788	39025.183594	16099.309570	39.332813
487.796997	1283.393677	40593.015625	16713.701172	39.253258
488.150360	1228.781250	41824.074219	17348.570313	39.708519
488.503693	1281.118164	42527.207031	17719.480469	39.854355
488.856964	1253.812012	42363.371094	17519.234375	39.566032
489.210175	1262.914063	40078.746094	17148.324219	40.925079
489.563416	1285.669312	37564.296875	15571.388672	39.377785
489.916565	1233.332275	35600.523438	15223.234375	40.707146
490.269653	1303.873413	33422.847656	14347.158203	40.609283
490.622772	1283.393677	32555.876953	13612.165039	39.423706
490.975769	1312.975464	31993.822266	13907.983398	41.051693
491.328735	1308.424438	33224.878906	13928.462891	39.540852
491.681732	1285.669312	35063.500000	15125.386719	40.972782
492.034607	1385.792114	37218.417969	15698.818359	39.944118
492.387482	1276.567139	38679.300781	16351.892578	40.305408
492.740326	1265.189575	37445.968750	16229.014648	41.358494
493.093079	1221.954712	36148.921875	15598.695313	41.162289
493.445862	1206.026001	33188.472656	14196.974609	40.618992
493.798523	1244.709839	30598.927734	13257.184570	40.922482
494.151215	1231.056763	28186.876953	12365.179688	41.305080
494.503815	1308.424438	26232.203125	11489.104492	40.847256
494.856384	1224.230225	24721.257813	10954.357422	41.410034
495.208923	1158.240112	23590.324219	10394.579102	41.174679
495.561432	1274.291626	22887.187500	10160.200195	41.113918
495.913879	1244.709839	22680.115234	10071.455078	41.178345
496.266296	1342.557251	22429.808594	10230.741211	42.149559
496.618683	1278.842651	22650.533203	10178.404297	41.641823
496.970978	1265.189575	23260.373047	10399.129883	41.527004
497.323273	1265.189575	23301.332031	10492.426758	41.873196
497.675507	1251.536499	23330.914063	10512.906250	41.945793
498.027710	1256.087524	23674.517578	10619.855469	41.768169
498.379852	1292.495850	23333.189453	10656.263672	42.483997
498.731995	1240.158813	23016.892578	10562.967773	42.810867
499.084076	1233.332275	22625.503906	10358.170898	42.655037
499.436096	1328.904175	22416.156250	10303.558594	42.559620
499.788086	1265.189575	21931.468750	10235.292969	43.404541
500.140106	1281.118164	21419.476563	9855.280273	42.576271
500.491943	1265.189575	21059.945313	9759.708984	42.912979
500.843842	1246.985352	20868.800781	9577.666992	42.456219
501.195679	1287.944824	20522.921875	9507.125977	42.730396
501.547455	1237.883301	20181.593750	9407.002930	43.123123
501.899231	1158.240112	20088.296875	9409.278320	43.586971
502.250885	1297.046875	19680.978516	9070.225586	42.282459
502.602600	1278.842651	19781.101563	8986.031250	41.655392
502.954193	1351.659302	19635.468750	9006.511719	41.866837
503.305786	1356.210449	19824.337891	9229.512695	42.631840
503.657379	1262.914063	19576.304688	9220.410156	43.451790
504.008820	1292.495850	19819.787109	9061.124023	41.930729
504.360291	1322.077637	19933.562500	9300.053711	42.865879
504.711700	1326.628662	20202.074219	9290.951172	42.194088
505.063080	1267.465088	20202.074219	9511.676758	43.540440
505.414368	1235.607788	19915.357422	9249.992188	42.904129
505.765656	1319.802124	19906.255859	9363.768555	43.278652
506.116943	1340.281738	19910.806641	9284.125000	42.776623
506.468109	1267.465088	19626.367188	9404.727539	44.323254
506.819305	1281.118164	19701.458984	9202.206055	43.001854
507.170410	1319.802124	19708.285156	9272.747070	43.249599
507.521484	1301.597900	19740.142578	9161.247070	42.626190
507.872559	1235.607788	19828.888672	9193.104492	42.797699
508.223480	1312.975464	19890.328125	9327.359375	43.140610
508.574493	1246.985352	20117.878906	9493.472656	43.699505
508.925385	1290.220337	20229.380859	9600.421875	43.878403
509.276245	1278.842651	20370.462891	9682.340820	44.016682
509.627045	1326.628662	20755.025391	9752.881836	43.370811
509.977814	1356.210449	21071.322266	9743.780273	42.543865
510.328613	1244.709839	21276.119141	9814.321289	42.780869
510.679260	1274.291626	21203.302734	9846.178711	43.012100
511.029999	1276.567139	21619.722656	10128.342773	43.512302
511.380585	1319.802124	21551.457031	10194.333008	43.864586
511.731140	1290.220337	21674.335938	10412.783203	44.753292
512.081726	1246.985352	21806.316406	10344.517578	44.250134
512.432129	1265.189575	22329.685547	10428.711914	43.502216
512.782654	1276.567139	22354.716797	10515.181641	43.830288
513.133057	1196.923950	22693.769531	10453.742188	43.061287
513.483398	1292.495850	22554.962891	10622.130859	43.878422
513.833801	1290.220337	22766.585938	10565.243164	43.187115
514.183960	1221.954712	21949.673828	10230.741211	43.462505
514.534302	1221.954712	22077.103516	10303.558594	43.546097
514.884460	1260.638550	21917.816406	10494.702148	44.701477
515.234619	1276.567139	22036.142578	10572.069336	44.776936
515.584717	1244.709839	21546.906250	10173.853516	43.981167
515.934753	1272.016113	21924.642578	10308.109375	43.752758
516.284851	1283.393677	21936.021484	10421.885742	44.248569
516.634766	1351.659302	22265.970703	10681.294922	44.608860
516.984741	1260.638550	22325.134766	10676.743164	44.701305
517.334595	1242.434326	23080.607422	10940.704102	44.409710
517.684448	1317.526489	24104.591797	11109.092773	42.969845
518.034363	1269.740601	24448.195313	11703.003906	45.012764
518.384094	1244.709839	25312.892578	11941.933594	44.445496
518.733826	1217.403687	26919.410156	12299.189453	43.116425
519.083496	1246.985352	27442.781250	12936.335938	44.623001
519.433167	1281.118164	27818.242188	12802.080078	43.414505
519.782776	1306.148926	27638.476563	12972.744141	44.305218
520.132324	1331.179688	27369.964844	12788.426758	44.000698
520.481873	1251.536499	26696.410156	12626.865234	44.705780
520.831299	1285.669312	25836.263672	12217.271484	44.526836
521.180786	1292.495850	25551.822266	11900.973633	43.729481
521.530151	1249.260864	24982.943359	11571.023438	43.489933
521.879517	1260.638550	24830.482422	11329.818359	42.720604
522.228882	1333.455200	24853.238281	11516.411133	43.295280
522.578064	1276.567139	24018.121094	11318.440430	44.156494
522.927307	1297.046875	24514.185547	11575.574219	44.271294
523.276489	1256.087524	24109.142578	11532.339844	44.966644
523.625610	1303.873413	24650.716797	11564.196289	43.947369
523.974792	1240.158813	25053.484375	11555.094727	43.315811
524.323792	1215.128052	25426.669922	11837.258789	43.872181
524.672852	1237.883301	25956.865234	12174.036133	44.241920
525.021790	1285.669312	26791.982422	12435.720703	43.714870
525.370728	1258.363037	27806.863281	13002.326172	44.235882
525.719604	1260.638550	29531.708984	13848.819336	44.526722
526.068420	1256.087524	30712.705078	14463.209961	44.835842
526.417297	1312.975464	32453.478516	14934.243164	43.741322
526.765991	1272.016113	32951.816406	15355.214844	44.454823
527.114746	1285.669312	34346.710938	15701.093750	43.602451
527.463379	1253.812012	35170.449219	16151.646484	43.924858
527.812012	1244.709839	37238.898438	17168.804688	44.240738
528.160706	1340.281738	40194.800781	18304.289063	43.660320
528.509155	1240.158813	44561.523438	20538.851563	44.547752
528.857727	1231.056763	49645.039063	22775.687500	44.500847
529.206177	1233.332275	53058.320313	24762.216797	45.400658
529.554565	1265.189575	53385.992188	25253.730469	46.024891
529.902893	1285.669312	52464.406250	24143.275391	44.662308
530.251221	1269.740601	50284.457031	22843.953125	44.015789
530.599548	1267.465088	45756.171875	21251.087891	44.918419
530.947876	1267.465088	42800.269531	19742.417969	44.482796
531.296021	1328.904175	39412.019531	18074.460938	43.971077
531.644165	1274.291626	36806.550781	17166.529297	44.726223
531.992249	1358.485962	35138.593750	16106.136719	43.657795
532.340454	1290.220337	33980.351563	15428.031250	43.247948
532.688354	1231.056763	34019.035156	15678.337891	44.062740
533.036438	1290.220337	34681.210938	15903.615234	43.764481
533.384338	1372.139038	36720.078125	16888.916016	43.897263
533.732239	1303.873413	38954.640625	17523.785156	43.079899
534.080139	1308.424438	39666.878906	18131.349609	43.857155
534.427917	1246.985352	39277.765625	17701.275391	43.265713
534.775757	1292.495850	37582.500000	17234.794922	43.930275
535.123474	1294.771362	35686.992188	16299.555664	43.628422
535.471191	1253.812012	33914.363281	15430.306641	43.405556
535.818848	1233.332275	32448.925781	14720.343750	43.206009
536.166382	1267.465088	31852.740234	14467.761719	43.158993
536.513977	1294.771362	31500.035156	14351.709961	43.227360
536.861511	1258.363037	31695.728516	14683.935547	44.108852
537.208984	1347.108276	31741.240234	14556.506836	43.460358
537.556396	1317.526489	31659.320313	14349.434570	42.950356
537.903809	1251.536499	31079.062500	14237.933594	43.538300
538.251160	1276.567139	30391.855469	13851.094727	43.188744
538.598389	1203.750488	29081.156250	13293.592773	43.367886
538.945740	1276.567139	28202.804688	12854.416992	42.998394
539.292969	1246.985352	28007.109375	12758.844727	43.018707
539.640137	1228.781250	27071.871094	12754.293945	44.598045
539.987244	1317.526489	27693.087891	12581.354492	42.705551
540.334351	1276.567139	28002.558594	13000.050781	43.865475
540.681458	1221.954712	29579.494141	13564.379883	43.524315
541.028442	1246.985352	32319.222656	14738.547852	43.419991
541.375366	1242.434326	35366.144531	16370.096680	44.331821
541.722290	1292.495850	38442.648438	17473.724609	43.556290
542.069153	1256.087524	40012.757813	18090.390625	43.435883
542.416016	1269.740601	40902.488281	18459.025391	43.371422
542.762756	1246.985352	39366.511719	18079.013672	44.155918
543.109558	1317.526489	38388.035156	17339.468750	43.220184
543.456299	1260.638550	36763.312500	16697.771484	43.481606
543.802917	1324.353149	35411.656250	15864.930664	42.656868
544.149536	1240.158813	33677.707031	15077.600586	42.658714
544.496094	1342.557251	31429.494141	14492.791992	43.707455
544.842651	1253.812012	30141.548828	13659.951172	42.946041
545.189148	1276.567139	28560.062500	13009.152344	43.002499
545.535583	1276.567139	27556.556641	12858.967773	44.073078
545.882019	1269.740601	26487.062500	12394.761719	44.116585
546.228333	1294.771362	26425.623047	12221.822266	43.480621
546.574707	1294.771362	26177.591797	12094.392578	43.401917
546.920898	1338.006226	26382.388672	12158.107422	43.203705
547.267212	1303.873413	26047.886719	12196.791016	44.022438
547.613342	1253.812012	26214.000000	12244.577148	44.033184
547.959473	1301.597900	26022.855469	12005.647461	43.298969
548.305664	1219.679199	25428.945313	11730.309570	43.415737
548.651611	1283.393677	24718.982422	11106.817383	41.916695
548.997742	1260.638550	23355.945313	10658.539063	42.533470
549.343689	1196.923950	22602.748047	10303.558594	42.542789
549.689575	1224.230225	21342.109375	9903.066406	43.139915
550.035522	1276.567139	20993.955078	9488.921875	41.650314
550.381287	1317.526489	20145.185547	9206.756836	41.902348
550.727173	1328.904175	19917.632813	9133.940430	41.988003
551.072876	1262.914063	19157.609375	8986.031250	43.158695
551.418640	1283.393677	19419.294922	8749.377930	41.166882
551.764282	1283.393677	19257.732422	8778.958984	41.701485
552.109863	1281.118164	18818.556641	8631.050781	41.909958
552.455505	1283.393677	19194.017578	8920.041992	42.637535
552.801025	1256.087524	19549.000000	8901.836914	41.796242
553.146545	1324.353149	19667.326172	8869.980469	41.136337
553.491943	1342.557251	20133.808594	9072.500977	41.135864
553.837341	1272.016113	19744.693359	8972.378906	41.685146
554.182800	1322.077637	19913.082031	9006.511719	41.334152
554.528015	1206.026001	19574.029297	8712.968750	40.869671
554.873352	1326.628662	19121.201172	8478.590820	40.191818
555.218628	1278.842651	18859.515625	8612.846680	41.716286
555.563721	1267.465088	18597.832031	8282.895508	40.480564
555.908875	1269.740601	18315.666016	8109.956055	40.128155
556.254028	1235.607788	18233.748047	8187.323730	40.896919
556.599121	1333.455200	17776.369141	8194.150391	41.724327
556.944031	1256.087524	17728.582031	7943.843262	40.599533
557.289063	1265.189575	17569.296875	8014.384277	41.395672
557.633972	1260.638550	17664.867188	7882.404297	40.366211
557.978882	1258.363037	17546.541016	7934.741211	40.989101
558.323792	1260.638550	17316.712891	7898.332520	41.340702
558.668518	1281.118164	16982.210938	7582.035156	40.130436
559.013306	1301.597900	17100.539063	7636.647949	40.097939
559.358032	1287.944824	17052.751953	7450.055176	39.087765
559.702637	1233.332275	17125.570313	7679.882813	40.564148
560.047363	1258.363037	17114.191406	7529.698242	39.552238
560.391846	1338.006226	17177.906250	7554.729004	39.247234
560.736450	1299.322388	17155.150391	7552.453613	39.437431
561.080933	1278.842651	17202.937500	7504.667480	39.096882
561.425354	1210.577026	17107.365234	7607.065918	40.237617
561.769775	1212.852539	17161.978516	7661.678711	40.433727
562.114136	1253.812012	17239.345703	7429.575195	38.633450
562.458496	1363.036987	17535.164063	7509.218750	38.004784
562.802673	1274.291626	17339.468750	7434.126465	38.342777
563.146912	1269.740601	17141.498047	7468.259277	39.053761
563.491150	1292.495850	17173.355469	7390.891602	38.400917
563.835266	1326.628662	16741.005859	7281.666504	38.633011
564.179443	1367.588013	16809.271484	7436.401855	39.301506
564.523438	1306.148926	17000.416016	7217.952148	37.668552
564.867493	1303.873413	17266.652344	7486.463379	38.731285
565.211426	1269.740601	17309.886719	7520.596191	38.970066
565.555359	1312.975464	17623.908203	7327.176758	36.872208
565.899231	1240.158813	17730.857422	7618.443848	38.678078
566.243042	1242.434326	18254.228516	7718.566406	38.068481
566.586914	1303.873413	18852.689453	7709.464355	36.501556
566.930603	1315.250977	18832.210938	8150.915527	39.023121
567.274292	1276.567139	18980.119141	8187.323730	39.035988
567.617981	1351.659302	19080.242188	8175.946289	38.493137
567.961609	1338.006226	18734.363281	8041.690430	38.534988
568.305237	1267.465088	18622.861328	7700.362305	37.065689
568.648682	1274.291626	18172.308594	7752.699219	38.338272
568.992188	1267.465088	18083.564453	7677.607422	38.119080
569.335632	1233.332275	18053.982422	7374.962891	36.512447
569.679016	1246.985352	17801.398438	7434.126465	37.374569
570.022461	1224.230225	17626.183594	7425.024414	37.805218
570.365662	1233.332275	17878.767578	7575.208984	38.099796
570.708984	1272.016113	17733.132813	7479.636719	37.710812
571.052185	1272.016113	17903.796875	7491.014648	37.392258
571.395386	1246.985352	18067.634766	7436.401855	36.796539
571.738525	1290.220337	18654.718750	7673.056152	36.757965
572.081604	1287.944824	18679.750000	7595.688477	36.268482
572.424683	1328.904175	18966.466797	7900.608398	37.259708
572.767578	1312.975464	19444.326172	7948.394043	36.596382
573.110596	1292.495850	19298.691406	7818.689453	36.244156
573.453552	1319.802124	19221.324219	7768.627930	36.023895
573.796387	1347.108276	19357.855469	7709.464355	35.325329
574.139282	1228.781250	18779.873047	7805.036133	37.469208
574.481995	1244.709839	18443.095703	7509.218750	36.424980
574.824768	1292.495850	18602.382813	7368.136230	35.099251
575.167480	1281.118164	18748.015625	7390.891602	34.979156
575.510132	1287.944824	18085.839844	7461.432617	36.751556
575.852722	1301.597900	18481.779297	7429.575195	35.668877
576.195251	1224.230225	18236.023438	7504.667480	36.918140
576.537842	1224.230225	18060.808594	7242.982910	35.748077
576.880188	1258.363037	17712.654297	7199.748047	36.108421
577.222717	1249.260864	17425.937500	6847.041992	34.604023
577.565063	1231.056763	17052.751953	6806.082520	35.236591
577.907410	1269.740601	17007.242188	6756.021484	34.861191
578.249756	1240.158813	16558.964844	6494.336426	34.298874
578.591919	1221.954712	16053.798828	6448.826172	35.240875
578.934204	1292.495850	15687.440430	6405.590820	35.520073
579.276306	1281.118164	15473.541016	6316.845703	35.481804
579.618469	1217.403687	15177.723633	6107.498047	35.028526
579.960571	1262.914063	15159.519531	6112.048828	34.894382
580.302551	1251.536499	14674.833984	5952.762207	35.022881
580.644531	1283.393677	14836.395508	5920.905273	34.217598
580.986511	1326.628662	14672.558594	5864.017090	33.998295
581.328369	1367.588013	14799.987305	5768.445313	32.763004
581.670227	1246.985352	14313.025391	5729.761230	34.308605
582.012024	1258.363037	14324.403320	5702.455078	34.012539
582.353821	1297.046875	14099.126953	5597.781250	33.594028
582.695496	1203.750488	14194.699219	5529.515625	33.298298
583.037231	1303.873413	14014.932617	5561.373047	33.494450
583.378845	1240.158813	13926.187500	5504.484863	33.614353
583.720398	1287.944824	13919.360352	5488.556152	33.255268
584.062012	1306.148926	13719.115234	5413.463867	33.088905
584.403442	1322.077637	13946.666992	5461.250000	32.786591
584.744934	1269.740601	13580.308594	5374.780273	33.345654
585.086365	1290.220337	13741.870117	5452.147949	33.424709
585.427734	1235.607788	13901.156250	5349.749512	32.482933
585.768982	1274.291626	13628.093750	5331.545410	32.842148
586.110291	1319.802124	13675.879883	5324.718750	32.412521
586.451599	1274.291626	13512.042969	5313.341309	33.004837
586.792725	1312.975464	13557.552734	5313.341309	32.670509
587.133850	1331.179688	13591.685547	5126.748535	30.957685
587.474915	1312.975464	13589.410156	5213.218262	31.770159
587.815979	1267.465088	13593.960938	5099.441895	31.087317
588.157043	1242.434326	13532.522461	5231.422363	32.456951
588.497925	1249.260864	13691.808594	5133.574707	31.217995
588.838867	1265.189575	13744.145508	5197.289551	31.509848
589.179749	1287.944824	14083.198242	5160.881348	30.268539
589.520569	1183.270874	14049.065430	5226.871094	31.429073
589.861450	1258.363037	14272.066406	5258.728516	30.739639
590.202087	1297.046875	13933.013672	5336.096191	31.964703
590.542847	1269.740601	14087.749023	5388.433105	32.132076
590.883484	1349.383789	14287.995117	5354.300293	30.953217
591.224121	1292.495850	13878.401367	5210.942871	31.133614
591.564636	1224.230225	14171.943359	5160.881348	30.404221
591.905151	1269.740601	13914.809570	5156.330078	30.736006
592.245667	1196.923950	13973.973633	5049.380859	30.151382
592.585999	1249.260864	13746.420898	5142.677246	31.154409
592.926453	1278.842651	13364.133789	5015.248047	30.916965
593.266724	1306.148926	13553.001953	5085.789063	30.862133
593.607056	1342.557251	13678.155273	4908.298340	28.906109
593.947388	1269.740601	13568.930664	4771.767090	28.473633
594.287476	1317.526489	13912.534180	4981.115234	29.087627
594.627686	1333.455200	14103.677734	4789.971191	27.066999
594.967773	1256.087524	13944.391602	5056.207031	29.949785
595.307861	1274.291626	14044.514648	5049.380859	29.561657
595.647888	1276.567139	14394.944336	4974.288574	28.187340
595.987854	1272.016113	14572.435547	5047.104980	28.383230
596.327820	1176.444214	14799.987305	5108.544434	28.862537
596.667725	1278.842651	14997.958008	5133.574707	28.097527
597.007568	1231.056763	15792.114258	5256.453125	27.644945
597.347351	1294.771362	16092.483398	5392.984375	27.694910
597.687073	1269.740601	16342.790039	5347.474121	27.053141
598.026794	1294.771362	16269.973633	5386.157715	27.321075
598.366455	1315.250977	16087.931641	5174.534180	26.124460
598.706116	1283.393677	15626.000977	5201.840332	27.320324
599.045654	1256.087524	15179.999023	5129.023926	27.815004
599.385193	1256.087524	14576.986328	4878.716797	27.195084
599.724731	1333.455200	14046.790039	4735.358887	26.758547
600.064087	1287.944824	13860.197266	4576.072266	26.153847
600.403564	1322.077637	13461.981445	4500.979980	26.185564
600.742920	1303.873413	13245.806641	4419.061523	26.086126
601.082153	1276.567139	13172.990234	4469.123047	26.836267
601.421387	1260.638550	13286.765625	4382.652832	25.960262
601.760620	1322.077637	13061.489258	4389.479492	26.129093
602.099854	1283.393677	13043.285156	4159.651855	24.458204
602.438843	1290.220337	13036.458984	4205.162598	24.815966
602.778015	1269.740601	13275.388672	4423.612305	26.269897
603.117065	1328.904175	13568.930664	4425.888184	25.302101
603.456055	1272.016113	14064.994141	4480.500488	25.080042
603.794983	1260.638550	14319.852539	4667.093262	26.084682
604.133850	1278.842651	14745.375000	4566.970215	24.417032
604.472778	1249.260864	15371.142578	4689.848145	24.363520
604.811584	1278.842651	15694.266602	4853.686035	24.798738
605.150330	1249.260864	16167.575195	4892.369629	24.420380
605.489075	1285.669312	16445.189453	5058.482910	24.887419
605.827698	1306.148926	16374.647461	4851.410156	23.527636
606.166382	1269.740601	16128.891602	4903.747559	24.456356
606.504883	1178.719727	15705.644531	4778.593750	24.780703
606.843445	1272.016113	15182.274414	4678.470703	24.488796
607.181946	1310.699951	14708.966797	4592.000977	24.490490
607.520386	1249.260864	14324.403320	4400.857422	24.103727
607.858826	1299.322388	13967.146484	4378.102051	24.303936
608.197083	1240.158813	13505.215820	4271.152344	24.712431
608.535461	1246.985352	13282.214844	4205.162598	24.579317
608.873718	1285.669312	13500.665039	4155.101074	23.491056
609.211914	1281.118164	13744.145508	4262.050293	23.918203
609.550171	1356.210449	14231.107422	4259.774902	22.552137
609.888245	1301.597900	14367.638672	4280.254395	22.796932
610.226318	1349.383789	14570.160156	4400.857422	23.080896
610.564392	1312.975464	14793.161133	4409.959473	22.974342
610.902344	1303.873413	14715.792969	4523.735352	24.007463
611.240295	1297.046875	14504.169922	4369.000000	23.259821
611.578247	1253.812012	14385.842773	4282.530273	23.063593
611.916138	1285.669312	13989.902344	4239.295410	23.249147
612.253845	1317.526489	13671.329102	4191.509277	23.263954
612.591675	1269.740601	13496.114258	4064.080078	22.855013
612.929382	1290.220337	13038.734375	4014.018799	23.184195
613.267090	1328.904175	12674.650391	3870.660889	22.402729
613.604736	1215.128052	12387.935547	3793.293213	23.075356
613.942261	1328.904175	12328.771484	3829.701416	22.734797
614.279785	1322.077637	12162.658203	3674.966064	21.704451
614.617310	1301.597900	11939.657227	3831.977051	23.786097
614.954712	1281.118164	11914.626953	3659.037354	22.362507
615.292175	1251.536499	11828.157227	3697.721191	23.128223
615.629517	1233.332275	11627.911133	3636.282227	23.117338
615.966797	1256.087524	11762.166992	3656.761963	22.850336
616.304138	1235.607788	11734.860352	3613.527100	22.648462
616.641296	1328.904175	11768.993164	3613.527100	21.883177
616.978516	1308.424438	11507.308594	3645.384277	22.913879
617.315552	1285.669312	11623.360352	3654.486328	22.914370
617.652771	1322.077637	11470.900391	3590.771729	22.354259
617.989685	1269.740601	11480.002930	3461.067139	21.462000
618.326721	1262.914063	11864.565430	3622.629150	22.257996
618.663696	1276.567139	11555.094727	3720.476563	23.776844
619.000549	1256.087524	11703.003906	3540.710449	21.868876
619.337463	1276.567139	11586.952148	3752.333740	24.012360
619.674194	1347.108276	11345.747070	3599.874023	22.530724
620.010986	1331.179688	11539.166016	3593.047363	22.157824
620.347778	1265.189575	11566.472656	3593.047363	22.597748
620.684387	1285.669312	11318.440430	3583.945313	22.907686
621.020996	1297.046875	11502.757813	3568.016602	22.251951
621.357605	1283.393677	11382.155273	3545.261475	22.397476
621.694214	1285.669312	11252.450195	3565.741211	22.876711
622.030579	1285.669312	11206.940430	3420.107666	21.513760
622.367065	1249.260864	11179.633789	3533.883789	23.006416
622.703430	1265.189575	11275.206055	3511.128662	22.436916
623.039795	1253.812012	11120.469727	3474.720215	22.509224
623.376160	1228.781250	11068.132813	3354.117676	21.600370
623.712402	1287.944824	10945.254883	3515.679688	23.067860
624.048645	1246.985352	11079.510742	3461.067139	22.517937
624.384766	1290.220337	10988.490234	3511.128662	22.900045
624.720886	1240.158813	11056.755859	3449.689453	22.508114
625.057007	1253.812012	11084.061523	3329.086914	21.111111
625.392944	1340.281738	11059.031250	3381.423828	21.002106
625.729004	1221.954712	11165.980469	3515.679688	23.066364
626.064941	1260.638550	11313.889648	3504.302002	22.317791
626.400818	1322.077637	11366.226563	3517.955078	21.862255
626.736633	1315.250977	11812.228516	3522.506104	21.027531
627.072449	1224.230225	11912.351563	3638.557861	22.588888
627.408264	1251.536499	12406.139648	3672.690674	21.705427
627.743896	1237.883301	12028.403320	3656.761963	22.416702
628.079590	1251.536499	12094.392578	3761.435791	23.147953
628.415161	1287.944824	11998.821289	3734.129639	22.838324
628.750793	1278.842651	11932.831055	3563.465576	21.443829
629.086365	1174.168701	11803.125977	3634.006836	23.142799
629.421753	1185.546387	11414.012695	3531.608398	22.936596
629.757263	1299.322388	11373.052734	3445.138428	21.301105
630.092651	1317.526489	10983.938477	3488.373291	22.457626
630.427917	1260.638550	11065.857422	3381.423828	21.629147
630.763184	1287.944824	10920.224609	3358.668701	21.497755
631.098511	1292.495850	10863.335938	3292.678711	20.898718
631.433716	1278.842651	10640.334961	3379.148438	22.435587
631.768799	1310.699951	10367.272461	3349.566650	22.512566
632.103943	1287.944824	10258.047852	3315.433838	22.602737
632.438965	1274.291626	10201.160156	3385.974854	23.655363
632.773987	1228.781250	10337.691406	3188.004639	21.508867
633.109070	1317.526489	10319.487305	3247.168213	21.435793
633.443848	1235.607788	10237.568359	3194.831299	21.764408
633.778870	1299.322388	10098.761719	3201.657715	21.618824
634.113708	1290.220337	10301.282227	3233.515137	21.565659
634.448425	1262.914063	10417.333984	3140.218750	20.507086
634.783264	1237.883301	10522.007813	3210.759766	21.249998
635.117859	1269.740601	10276.251953	3267.647949	22.182920
635.452576	1290.220337	10456.018555	3172.075928	20.531281
635.787170	1242.434326	10242.119141	3158.422852	21.289507
636.121704	1240.158813	9821.147461	3244.892578	23.362505
636.456177	1290.220337	10057.801758	3165.249512	21.385935
636.790588	1285.669312	9755.157227	3099.259277	21.413218
637.125122	1265.189575	9673.239258	3153.871826	22.462786
637.459412	1310.699951	9791.566406	3112.912354	21.250334
637.793762	1190.097412	9516.227539	3056.024414	22.410496
638.128052	1240.158813	9306.879883	2926.319824	20.902681
638.462280	1303.873413	9368.319336	2996.860840	20.993227
638.796509	1251.536499	9466.166992	3028.718262	21.634348
639.130615	1292.495850	8915.490234	2971.830078	22.029850
639.464722	1324.353149	9236.338867	2965.003662	20.736267
639.798767	1285.669312	9154.419922	2946.799316	21.110468
640.132751	1281.118164	8872.255859	2885.360352	21.133093
640.466736	1262.914063	9140.766602	2880.809326	20.537262
640.800598	1246.985352	9106.633789	2871.707275	20.671686
641.134521	1285.669312	8961.000977	2921.768799	21.316336
641.468262	1326.628662	8883.632813	2946.799316	21.439325
641.802063	1340.281738	8833.571289	2983.207764	21.925297
642.135803	1237.883301	8678.835938	2880.809326	22.079512
642.469421	1262.914063	8749.377930	2880.809326	21.610941
642.803101	1276.567139	8606.019531	2848.952148	21.452969
643.136658	1260.638550	8722.071289	2864.880615	21.500456
643.470215	1246.985352	8526.375977	2910.391113	22.850893
643.803711	1278.842651	8449.008789	2794.339600	21.136148
644.137085	1217.403687	8464.937500	2771.584229	21.444267
644.470581	1310.699951	8410.325195	2867.156250	21.923079
644.803833	1292.495850	8408.049805	2821.645752	21.490244
645.137207	1228.781250	8385.293945	2821.645752	22.257551
645.470459	1233.332275	8371.640625	2967.279053	24.290724
645.803589	1253.812012	8367.089844	2842.125488	22.328856
646.136780	1256.087524	8487.692383	2826.196777	21.711767
646.469849	1256.087524	8455.834961	2767.033203	20.986092
646.802979	1290.220337	8392.121094	2821.645752	21.563599
647.135986	1190.097412	8553.682617	2828.472412	22.249693
647.468994	1226.505737	8371.640625	2862.605225	22.898092
647.801941	1251.536499	8489.967773	2867.156250	22.320026
648.134766	1203.750488	8362.539063	2780.686523	22.027973
648.467651	1292.495850	8492.243164	2807.992676	21.049307
648.800354	1253.812012	8453.559570	2833.023438	21.934261
649.133179	1265.189575	8514.999023	2792.063965	21.060890
649.465881	1274.291626	8455.834961	2807.992676	21.356148
649.798462	1292.495850	8533.203125	2876.258301	21.873035
650.131104	1256.087524	8451.284180	2785.237549	21.252373
650.463623	1351.659302	8410.325195	2910.391113	22.082527
650.796143	1297.046875	8314.752930	2908.115479	22.957197
651.128662	1278.842651	8360.263672	2705.594238	20.147816
651.461060	1306.148926	8389.844727	2871.707275	22.100870
651.793396	1310.699951	8483.141602	2846.676514	21.414976
652.125732	1269.740601	8355.711914	2853.503174	22.350677
652.458008	1306.148926	8596.917969	2896.738037	21.816479
652.790222	1310.699951	8521.825195	2739.727051	19.816978
653.122437	1326.628662	8387.569336	2801.166016	20.883017
653.454529	1326.628662	8337.507813	2830.747803	21.454073
653.786621	1276.567139	8587.815430	2792.063965	20.728292
654.118713	1244.709839	8398.947266	2830.747803	22.169210
654.450623	1253.812012	8269.242188	2798.890625	22.024004
654.782654	1253.812012	8173.670898	2787.512939	22.163759
655.114502	1242.434326	8182.772949	2666.910400	20.524590
655.446350	1262.914063	8046.241699	2737.451416	21.737669
655.778198	1287.944824	8037.139648	2707.869873	21.038437
656.109863	1276.567139	8030.312988	2798.890625	22.540432
656.441650	1249.260864	8037.139648	2792.063965	22.728796
656.773254	1358.485962	8107.680664	2712.420898	20.060688
657.104919	1276.567139	8203.252930	2814.819336	22.207623
657.436462	1283.393677	8037.139648	2792.063965	22.338274
657.767944	1265.189575	8082.649902	2625.950928	19.959946
658.099548	1303.873413	8182.772949	2776.135498	21.402582
658.430908	1256.087524	8285.170898	2883.084961	23.146650
658.762268	1326.628662	8342.059570	2896.738037	22.380798
659.093628	1251.536499	8526.375977	2903.564453	22.708790
659.424927	1237.883301	8758.479492	2951.350586	22.783663
659.756226	1342.557251	9197.655273	2985.483398	20.915413
660.087341	1267.465088	9300.053711	3040.095703	22.067986
660.418518	1274.291626	9529.880859	3005.962891	20.975744
660.749573	1265.189575	9538.983398	3046.922363	21.534653
661.080627	1276.567139	9279.574219	3046.922363	22.121126
661.411621	1276.567139	9179.451172	3026.442627	22.142241
661.742554	1249.260864	8931.418945	2992.309814	22.689573
662.073547	1319.802124	8844.949219	3003.687500	22.376778
662.404297	1297.046875	8592.366211	2869.431641	21.553337
662.735229	1297.046875	8417.151367	2858.054199	21.923939
663.065979	1226.505737	8492.243164	2892.187012	22.925152
663.396667	1297.046875	8144.088867	2807.992676	22.067133
663.727417	1246.985352	8005.282227	2830.747803	23.434343
664.057922	1185.546387	7707.188965	2723.798340	23.586880
664.388611	1301.597900	7454.605957	2794.339600	24.260357
664.719116	1287.944824	7625.270020	2801.166016	23.877916
665.049622	1203.750488	7595.688477	2728.349365	23.851904
665.380005	1262.914063	7516.045410	2650.981689	22.197960
665.710388	1310.699951	7404.544922	2673.737061	22.367441
666.040771	1294.771362	7522.871582	2671.461426	22.104494
666.371033	1290.220337	7456.881836	2748.829102	23.653135
666.701294	1297.046875	7359.034180	2764.757813	24.211712
667.031555	1283.393677	7338.554688	2625.950928	22.172113
667.361633	1258.363037	7543.351563	2742.002686	23.606085
667.691772	1276.567139	7293.043945	2694.216553	23.562784
668.021790	1215.128052	7447.779785	2603.195801	22.270901
668.351807	1276.567139	7440.953125	2701.043213	23.108160
668.681763	1292.495850	7352.207520	2646.430664	22.343222
669.011719	1319.802124	7370.412109	2739.727051	23.467468
669.341614	1324.353149	7461.432617	2794.339600	23.952539
669.671387	1272.016113	7552.453613	2696.492188	22.681160
670.001221	1306.148926	7436.401855	2744.278076	23.459539
670.330933	1315.250977	7443.228516	2685.114502	22.354252
670.660583	1294.771362	7552.453613	2744.278076	23.163635
670.990173	1297.046875	7461.432617	2712.420898	22.960505
671.319763	1310.699951	7388.616211	2769.308838	23.998503
671.649292	1283.393677	7320.350586	2726.073975	23.897474
671.978821	1333.455200	7286.217773	2698.767578	22.935778
672.308289	1224.230225	7147.410645	2721.522949	25.278524
672.637695	1244.709839	7108.727051	2778.410889	26.154444
672.966980	1324.353149	7231.604980	2689.665527	23.112478
673.296326	1317.526489	6974.471191	2764.757813	25.583267
673.625610	1294.771362	7076.869629	2739.727051	24.990162
673.954773	1262.914063	7156.512695	2742.002686	25.096527
674.283936	1299.322388	7035.910156	2573.614014	22.213408
674.613037	1210.577026	6992.675293	2714.696289	26.013382
674.942078	1224.230225	6931.236328	2691.941162	25.717705
675.271118	1249.260864	6865.246094	2489.419678	22.082657
675.600098	1315.250977	6938.062988	2653.257324	23.796036
675.928955	1253.812012	6885.726074	2657.808350	24.929293
676.257813	1319.802124	6767.398926	2639.604248	24.227236
676.586670	1292.495850	6767.398926	2691.941162	25.561096
676.915466	1312.975464	6771.949707	2712.420898	25.635685
677.244141	1342.557251	6724.164063	2594.093750	23.255814
677.572876	1226.505737	6769.674316	2571.338623	24.261086
677.901489	1253.812012	6999.501953	2712.420898	25.386141
678.230042	1262.914063	6901.654785	2580.440674	23.365618
678.558594	1306.148926	6997.226563	2628.226563	23.230709
678.887085	1244.709839	6831.113281	2546.307861	23.299393
679.215515	1292.495850	6862.970703	2728.349365	25.776144
679.543945	1249.260864	6858.419922	2694.216553	25.760647
679.872253	1303.873413	6958.542480	2723.798340	25.110664
680.200562	1312.975464	7088.247070	2780.686523	25.413715
680.528809	1331.179688	7279.391113	2778.410889	24.330526
680.856995	1235.607788	7472.810547	2812.543701	25.282743
681.185120	1212.852539	7611.617188	2826.196777	25.213371
681.513306	1312.975464	7522.871582	2794.339600	23.854895
681.841309	1390.343262	7625.270020	2853.503174	23.467155
682.169373	1331.179688	7388.616211	2869.431641	25.394438
682.497314	1285.669312	7422.749023	2830.747803	25.176119
682.825134	1360.761475	7388.616211	2894.462402	25.443563
683.153076	1308.424438	7268.013672	2780.686523	24.704086
683.480896	1249.260864	7063.216797	2742.002686	25.675148
683.808655	1276.567139	7156.512695	2739.727051	24.883904
684.136414	1240.158813	7088.247070	2821.645752	27.042801
684.464050	1221.954712	6922.134277	2726.073975	26.387226
684.791626	1272.016113	6735.541504	2732.900391	26.738857
685.119263	1285.669312	6783.327637	2707.869873	25.869207
685.446838	1287.944824	6665.000488	2671.461426	25.730003
685.774292	1283.393677	6569.428711	2557.685303	24.106756
686.101685	1297.046875	6521.642578	2628.226563	25.479095
686.429077	1285.669312	6494.336426	2696.492188	27.086063
686.756348	1231.056763	6441.999512	2607.746826	26.419212
687.083679	1194.648438	6426.070801	2546.307861	25.837322
687.410950	1276.567139	6441.999512	2623.675537	26.079294
687.738159	1315.250977	6496.611816	2669.185791	26.130873
688.065308	1328.904175	6569.428711	2603.195801	24.316109
688.392395	1265.189575	6587.632813	2714.696289	27.233858
688.719421	1256.087524	6596.734863	2694.216553	26.927990
689.046448	1276.567139	6594.459473	2746.553711	27.642277
689.373413	1244.709839	6692.306641	2623.675537	25.313286
689.700317	1285.669312	6510.265137	2671.461426	26.524389
690.027100	1290.220337	6298.641602	2612.297852	26.397091
690.353943	1297.046875	6401.040039	2625.950928	26.036556
690.680725	1235.607788	6182.589844	2685.114502	29.300829
691.007446	1308.424438	6325.947754	2628.226563	26.303856
691.334106	1278.842651	6180.314453	2575.889648	26.462399
691.660645	1260.638550	6105.222168	2623.675537	28.135277
691.987244	1308.424438	6021.027832	2546.307861	26.267506
692.313721	1249.260864	5980.068848	2475.766602	25.925924
692.640259	1253.812012	5914.078613	2493.970703	26.611324
692.966675	1267.465088	5941.384766	2503.072998	26.436224
693.293030	1353.934937	5866.292480	2396.123291	23.096317
693.619324	1228.781250	5807.128906	2466.664551	27.037775
693.945618	1158.240112	5941.384766	2591.818115	29.971455
694.271851	1278.842651	5727.485840	2473.491211	26.854223
694.598083	1283.393677	5663.771484	2591.818115	29.870127
694.924194	1335.730713	5479.454102	2430.256104	26.414053
695.250244	1244.709839	5675.148926	2448.460449	27.170008
695.576294	1242.434326	5600.056641	2523.552490	29.399479
695.902283	1285.669312	5668.322266	2512.175049	27.985464
696.228210	1283.393677	5452.147949	2516.726074	29.585154
696.554138	1319.802124	5766.169922	2464.388916	25.742064
696.879944	1242.434326	5738.863281	2537.205811	28.795553
697.205750	1319.802124	5775.271973	2596.369141	28.651682
697.531433	1274.291626	5827.608887	2498.521729	26.886553
697.857178	1206.026001	5893.598633	2534.930176	28.349516
698.182739	1256.087524	6032.405762	2616.848877	28.489754
698.508423	1242.434326	6391.937988	2644.155273	27.220505
698.833984	1251.536499	6528.469238	2660.083740	26.692537
699.159485	1272.016113	6753.745605	2885.360352	29.431299
699.484924	1267.465088	6922.134277	2803.441650	27.162979
699.810303	1272.016113	7249.809082	2953.625977	28.130949
700.135681	1226.505737	7158.788574	2903.564453	28.270041
700.460999	1310.699951	7042.736816	2994.585449	29.376738
700.786255	1299.322388	6944.889648	2939.972900	29.060862
701.111450	1246.985352	6696.857910	2821.645752	28.893526
701.436646	1240.158813	6653.623047	2716.971924	27.280371
701.761719	1235.607788	6376.009277	2689.665527	28.286852
702.086792	1244.709839	6139.354980	2612.297852	27.940495
702.411865	1285.669312	5977.792969	2575.889648	27.497578
702.736816	1290.220337	5877.670410	2505.348389	26.488092
703.061646	1287.944824	5697.904297	2489.419678	27.244577
703.386536	1242.434326	5559.097168	2523.552490	29.678438
703.711365	1281.118164	5452.147949	2514.450439	29.569012
704.036194	1283.393677	5429.392578	2459.837891	28.375410
704.360901	1287.944824	5249.626465	2407.500977	28.259619
704.685547	1237.883301	5131.299316	2343.786377	28.404442
705.010132	1258.363037	5195.014160	2334.684326	27.341038
705.334717	1253.812012	5265.555176	2368.817139	27.793531
705.659302	1246.985352	5097.166504	2359.715088	28.900711
705.983765	1231.056763	4992.492676	2330.133301	29.219599
706.308228	1253.812012	4899.196289	2307.378174	28.901375
706.632568	1178.719727	5101.717773	2286.898438	28.248260
706.956909	1246.985352	4974.288574	2375.643799	30.280832
707.281189	1278.842651	5081.237793	2307.378174	27.049675
707.605408	1262.914063	5038.002930	2273.245361	26.763113
707.929626	1240.158813	4815.001953	2273.245361	28.898792
708.253784	1365.312500	4978.839355	2423.429688	29.282118
708.577820	1317.526489	4978.839355	2389.296875	29.272842
708.901855	1246.985352	5008.421387	2325.582275	28.675137
709.225830	1312.975464	5131.299316	2316.480225	26.281290
709.549805	1322.077637	5169.983398	2332.408936	26.256655
709.873718	1303.873413	5060.758301	2282.347412	26.044823
710.197510	1242.434326	5058.482910	2391.572266	30.113295
710.521362	1372.139038	5138.125977	2314.204590	25.015104
710.845093	1331.179688	5024.350098	2350.613037	27.603203
711.168701	1278.842651	5210.942871	2343.786377	27.083332
711.492432	1212.852539	5208.666992	2418.878662	30.182236
711.816040	1246.985352	5261.003906	2534.930176	32.086170
712.139587	1246.985352	5392.984375	2448.460449	28.979145
712.463074	1267.465088	5470.352051	2373.368164	26.312941
712.786499	1226.505737	5438.494629	2371.092773	27.174503
713.109924	1308.424438	5395.259766	2493.970703	29.008905
713.433350	1235.607788	5340.647461	2284.622803	25.554321
713.756592	1340.281738	5301.963379	2507.624023	29.465828
714.079834	1249.260864	5251.901855	2373.368164	28.084139
714.403015	1272.016113	5119.921875	2475.766602	31.283264
714.726196	1231.056763	5133.574707	2341.510986	28.454813
715.049255	1208.301514	5199.564941	2373.368164	29.190422
715.372375	1274.291626	4956.084473	2305.102539	27.997524
715.695435	1303.873413	4994.768066	2371.092773	28.914925
716.018311	1260.638550	5069.860352	2368.817139	29.091995
716.341248	1262.914063	5179.085449	2336.959961	27.425917
716.664063	1317.526489	5069.860352	2289.173828	25.894480
716.987000	1256.087524	5126.748535	2293.724854	26.807755
717.309692	1283.393677	5247.351074	2275.520752	25.028702
717.632385	1244.709839	5017.523438	2266.418701	27.080820
717.955078	1281.118164	4896.920898	2232.285889	26.305853
718.277649	1328.904175	4874.165527	2198.153076	24.518614
718.600220	1221.954712	4880.992188	2134.438477	24.937807
718.922791	1219.679199	4758.113770	2300.551514	30.546625
719.245300	1262.914063	4541.939453	2125.336426	26.301180
719.567688	1317.526489	4582.898926	2161.744873	25.853662
719.890015	1335.730713	4512.357910	2152.642578	25.716328
720.212341	1292.495850	4639.787109	2054.795166	22.773619
720.534607	1294.771362	4464.571777	2120.785400	26.058867
720.856873	1237.883301	4241.570801	2195.877686	31.893944
721.179016	1219.679199	4339.417969	2168.571289	30.415754
721.501160	1340.281738	4250.672852	2086.652588	25.645037
721.823242	1267.465088	4241.570801	2136.714111	29.227240
722.145264	1274.291626	4205.162598	2068.448486	27.096273
722.467224	1303.873413	4214.264648	2057.070801	25.879593
722.789185	1306.148926	4218.815430	2088.927979	26.874998
723.111023	1276.567139	4241.570801	2034.315552	25.556408
723.432861	1256.087524	4080.008789	1975.152100	25.463335
723.754578	1240.158813	4070.906738	2093.479248	30.144697
724.076294	1360.761475	4093.661865	1945.570313	21.398834
724.397949	1319.802124	4125.519043	2072.999512	26.845097
724.719666	1260.638550	4093.661865	1984.254150	25.542168
725.041260	1215.128052	4118.692871	2020.662476	27.742945
725.362732	1249.260864	4134.621094	2091.203613	29.179813
725.684265	1283.393677	4036.773926	2009.284912	26.363638
726.005676	1290.220337	4107.314941	2038.866699	26.575123
726.327087	1244.709839	4039.049316	2120.785400	31.351795
726.648438	1217.403687	4268.876953	2041.142212	26.994781
726.969666	1269.740601	4196.060547	2025.213501	25.816484
727.290894	1246.985352	4182.407227	2088.927979	28.682167
727.612061	1301.597900	4216.540039	2066.172852	26.229507
727.933228	1294.771362	4225.642090	2045.693237	25.621120
728.254395	1310.699951	4291.632324	2134.438477	27.633587
728.575378	1262.914063	4252.948242	2095.754639	27.853882
728.896301	1265.189575	4394.030762	2113.958740	27.127268
729.217285	1278.842651	4389.479492	2143.540527	27.798100
729.538147	1201.474976	4355.346680	1997.907227	25.252527
729.858948	1290.220337	4446.367676	2070.723877	24.729628
730.179810	1199.199463	4414.510254	2004.733887	25.053082
730.500549	1174.168701	4364.448730	2109.407715	29.315264
730.821228	1285.669312	4412.234863	1991.080688	22.561861
731.141846	1235.607788	4291.632324	2084.376953	27.773638
731.462402	1237.883301	4391.755371	2063.897461	26.190477
731.782898	1262.914063	4366.724609	2111.683350	27.346041
732.103455	1297.046875	4516.908691	2216.357178	28.551235
732.423889	1294.771362	4343.969238	2063.897461	25.223885
732.744263	1276.567139	4259.774902	2143.540527	29.061783
733.064636	1274.291626	4455.469727	2157.193604	27.753929
733.384888	1301.597900	4475.949219	2118.509766	25.734766
733.705200	1199.199463	4405.408203	2057.070801	26.756565
734.025330	1285.669312	4405.408203	2175.397949	28.519331
734.345520	1235.607788	4544.214844	2109.407715	26.409904
734.665527	1301.597900	4296.183105	2129.887451	27.659575
734.985596	1308.424438	4282.530273	2123.060791	27.390966
735.305542	1253.812012	4405.408203	2204.979736	30.180508
735.625549	1308.424438	4287.081055	2109.407715	26.890755
735.945435	1240.158813	4186.958496	2086.652588	28.725866
736.265259	1301.597900	4293.907715	2082.101563	26.083651
736.585083	1301.597900	4155.101074	2102.581299	28.070177
736.904785	1276.567139	4000.365479	2061.621826	28.822056
737.224426	1308.424438	4073.182129	2050.244141	26.831272
737.544128	1256.087524	4000.365479	2057.070801	29.187397
737.863708	1310.699951	3975.334961	1972.876587	24.850557
738.183289	1201.474976	4007.192139	2070.723877	30.981342
738.502808	1294.771362	4105.039551	1995.631714	24.939270
738.822205	1294.771362	3995.814453	2002.458252	26.200504
739.141541	1303.873413	4029.947266	2059.346436	27.712860
739.460938	1287.944824	4004.916504	1952.396851	24.455610
739.780212	1283.393677	4209.713379	2034.315552	25.660963
740.099426	1287.944824	4132.345703	2093.479248	28.320004
740.418640	1299.322388	4118.692871	2043.417725	26.392250
740.737793	1226.505737	4148.274414	2070.723877	28.894079
741.056885	1244.709839	3988.988037	2088.927979	30.762848
741.375977	1290.220337	3934.375488	2045.693237	28.571426
741.694946	1287.944824	4039.049316	2125.336426	30.438379
742.013855	1208.301514	4023.120850	2032.040039	29.264347
742.332703	1281.118164	3925.273438	2009.284912	27.538729
742.651550	1208.301514	3886.589600	1975.152100	28.632118
742.970398	1267.465088	3800.119629	1984.254150	28.301888
743.289124	1292.495850	3909.344727	1986.529663	26.521738
743.607788	1253.812012	3795.568604	1972.876587	28.290064
743.926453	1324.353149	3763.711426	1979.703125	26.865669
744.245056	1219.679199	3843.354736	1904.610962	26.105810
744.563599	1237.883301	3884.313965	1970.601074	27.687019
744.882141	1281.118164	3763.711426	1879.580200	24.106327
745.200500	1260.638550	3634.006836	1988.805176	30.680727
745.518860	1278.842651	3634.006836	2027.489014	31.787439
745.837219	1251.536499	3661.312988	2007.009399	31.350332
746.155518	1276.567139	3586.220703	2052.519775	33.596062
746.473755	1312.975464	3654.486328	1995.631714	29.154522
746.791992	1283.393677	3588.496338	2018.386963	31.885492
747.110107	1292.495850	3474.720215	2016.111450	33.159542
747.428162	1301.597900	3568.016602	1954.672363	28.815262
747.746216	1285.669312	3608.976074	1959.223389	28.991182
748.064148	1281.118164	3588.496338	1941.019287	28.599609
748.382080	1176.444214	3686.343750	1956.947876	31.097010
748.700073	1242.434326	3693.170166	1988.805176	30.454969
749.017822	1276.567139	3629.455566	1872.753662	25.338495
749.335632	1319.802124	3672.690674	1972.876587	27.756285
749.653320	1294.771362	3654.486328	1968.325439	28.543877
749.971008	1306.148926	3629.455566	1868.202637	24.191973
750.288696	1274.291626	3704.547852	1954.672363	27.996254
750.606262	1278.842651	3813.772949	1984.254150	27.827650
750.923828	1283.393677	3661.312988	1968.325439	28.803825
751.241272	1246.985352	3629.455566	1975.152100	30.563519
751.558716	1260.638550	3699.996826	1997.907227	30.223877
751.876038	1249.260864	3590.771729	1984.254150	31.389704
752.193481	1306.148926	3636.282227	1945.570313	27.441408
752.510681	1281.118164	3615.802490	1886.406738	25.925928
752.827942	1269.740601	3536.159424	1963.774414	30.622486
753.145081	1246.985352	3659.037354	1943.294800	28.867929
753.462219	1285.669312	3608.976074	1977.427612	29.774731
753.779297	1328.904175	3574.843262	1911.437500	25.937183
754.096375	1340.281738	3634.006836	1977.427612	27.777779
754.413330	1203.750488	3570.292236	1893.233276	29.134613
754.730286	1237.883301	3461.067139	1972.876587	33.060390
755.047119	1269.740601	3583.945313	1936.468262	28.810230
755.363892	1276.567139	3454.240479	1906.886475	28.944622
755.680725	1287.944824	3554.363525	1956.947876	29.518070
755.997498	1276.567139	3360.944336	1922.815063	31.004366
756.314148	1260.638550	3438.312012	1950.121338	31.661442
756.630737	1235.607788	3411.005615	1931.917114	32.008366
756.947327	1290.220337	3577.118652	1854.549438	24.676615
757.263855	1301.597900	3522.506104	2018.386963	32.274593
757.580261	1242.434326	3385.974854	1888.682251	30.148623
757.896729	1333.455200	3463.342773	1972.876587	30.021366
758.213074	1215.128052	3431.485352	1947.845825	33.059547
758.529419	1269.740601	3506.577637	1929.641602	29.501526
758.845642	1290.220337	3536.159424	1913.713013	27.760891
759.161865	1292.495850	3554.363525	1954.672363	29.275652
759.478149	1310.699951	3608.976074	2132.163086	35.742577
759.794189	1276.567139	3558.914551	1895.508789	27.118643
760.110229	1246.985352	3595.322754	1884.131226	27.131786
760.426270	1208.301514	3604.425049	1943.294800	30.674265
760.742249	1269.740601	3649.935303	1900.059814	26.481833
761.058105	1290.220337	3652.210938	1963.774414	28.516373
761.374023	1199.199463	3652.210938	2011.560425	33.116882
761.689819	1310.699951	3561.189941	2063.897461	33.468155
762.005554	1281.118164	3581.669678	1936.468262	28.486652
762.321289	1299.322388	3563.465576	1968.325439	29.547737
762.636902	1240.158813	3659.037354	1913.713013	27.845724
762.952515	1278.842651	3645.384277	2027.489014	31.634619
763.268127	1299.322388	3715.925537	2027.489014	30.131826
763.583618	1344.832764	3775.089111	1966.049927	25.561796
763.899048	1256.087524	4125.519043	2075.274902	28.548767
764.214478	1287.944824	4398.581543	2245.938965	30.797365
764.529785	1276.567139	4728.532227	2364.266113	31.509560
764.845093	1360.761475	4994.768066	2425.705078	29.304945
765.160400	1297.046875	5001.594727	2432.531738	30.651106
765.475586	1269.740601	4885.542969	2302.827148	28.571434
765.790771	1331.179688	4701.226074	2366.541748	30.722486
766.105835	1349.383789	4514.633301	2291.449463	29.762762
766.420837	1356.210449	4332.591797	2257.316650	30.275227
766.735840	1303.873413	4266.601563	2120.785400	27.572966
767.050842	1322.077637	4105.039551	2086.652588	27.473425
767.365662	1260.638550	3886.589600	2061.621826	30.502596
767.680542	1292.495850	3872.936523	2043.417725	29.100529
767.995300	1235.607788	3795.568604	2043.417725	31.555557
768.309998	1260.638550	3645.384277	1900.059814	26.812977
768.624817	1190.097412	3768.262451	1984.254150	30.803177
768.939392	1267.465088	3579.394287	1975.152100	30.610237
769.254028	1322.077637	3549.812500	1984.254150	29.724207
769.568481	1342.557251	3586.220703	2022.937988	30.324543
769.882935	1312.975464	3467.893799	2013.835938	32.523758
770.197388	1240.158813	3404.179199	1943.294800	32.492111
770.511841	1260.638550	3399.628174	1906.886475	30.212765
770.826172	1299.322388	3249.443604	1884.131226	29.988333
771.140442	1306.148926	3304.056152	1906.886475	30.068340
771.454651	1262.914063	3235.790527	1920.539551	33.333332
771.768860	1212.852539	3258.545898	1986.529663	37.819798
772.082886	1381.241089	3213.035400	1956.947876	31.428572
772.397034	1292.495850	3224.413086	1840.896362	28.386335
772.711060	1299.322388	3313.158203	1906.886475	30.169495
773.025024	1272.016113	3263.096924	1900.059814	31.542854
773.338928	1226.505737	3258.545898	1854.549438	30.907051
773.652771	1228.781250	3162.973877	1890.957764	34.235294
773.966614	1290.220337	3103.810303	1875.029175	32.245922
774.280457	1283.393677	3144.769775	1843.171875	30.073353
774.594116	1274.291626	3169.800537	1861.375977	30.972387
774.907776	1237.883301	3151.596191	1854.549438	32.223545
775.221375	1253.812012	3167.524902	1870.478149	32.223545
775.534912	1310.699951	3185.729004	1811.314575	26.699034
775.848450	1274.291626	3112.912354	1879.580200	32.920795
776.161926	1267.465088	3078.779541	1865.927002	33.040199
776.475342	1299.322388	3101.534912	1847.722900	30.429293
776.788696	1322.077637	3144.769775	1836.345337	28.214731
777.101990	1274.291626	3005.962891	1770.355225	28.646523
777.415283	1301.597900	2987.758789	1777.181763	28.205130
777.728516	1310.699951	3071.953125	1745.324463	24.677004
778.041626	1303.873413	2958.177002	1875.029175	34.525452
778.354736	1262.914063	3005.962891	1802.212524	30.939951
778.667725	1317.526489	3053.749023	1790.834839	27.260811
778.980774	1333.455200	2960.452637	1797.661377	28.531464
779.293640	1210.577026	2974.105713	1820.416626	34.580647
779.606567	1256.087524	2994.585449	1768.079712	29.450262
779.919434	1324.353149	2978.656738	1861.375977	32.462170
780.232239	1333.455200	2901.289063	1736.222412	25.689405
780.544983	1251.536499	2912.666504	1777.181763	31.643837
780.857666	1201.474976	2958.177002	1765.804199	32.124355
781.170227	1233.332275	2958.177002	1815.865601	33.773087
781.482849	1267.465088	2919.493164	1784.008301	31.267218
781.795410	1237.883301	2955.901611	1756.702026	30.198673
782.107910	1297.046875	2792.063965	1790.834839	33.028919
782.420288	1256.087524	2887.635986	1720.293701	28.451878
782.732666	1283.393677	2794.339600	1758.977539	31.475903
783.044983	1265.189575	2730.625000	1799.937012	36.490685
783.357300	1240.158813	2860.329590	1743.048950	31.039330
783.669495	1258.363037	2744.278076	1768.079712	34.303219
783.981689	1281.118164	2787.512939	1731.671387	29.909372
784.293762	1267.465088	2757.931152	1770.355225	33.740463
784.605835	1276.567139	2835.298828	1697.538574	27.007305
784.917908	1258.363037	2764.757813	1667.956787	27.190332
785.229858	1251.536499	2767.033203	1672.507813	27.777779
785.541748	1253.812012	2778.410889	1777.181763	34.328358
785.853577	1285.669312	2757.931152	1740.773438	30.911901
786.165405	1319.802124	2662.359375	1686.160889	27.288130
786.477173	1301.597900	2701.043213	1688.436401	27.642273
786.788879	1260.638550	2685.114502	1738.497925	33.546329
787.100525	1242.434326	2671.461426	1708.916138	32.643314
787.412109	1308.424438	2644.155273	1736.222412	32.027260
787.723694	1242.434326	2678.288086	1733.946899	34.231380
788.035156	1262.914063	2666.910400	1677.058838	29.497568
788.346558	1272.016113	2810.268311	1649.752563	24.556211
788.658081	1260.638550	2798.890625	1763.528564	32.692303
788.969360	1292.495850	2739.727051	1802.212524	35.220127
789.280640	1258.363037	2780.686523	1708.916138	29.596411
789.591919	1331.179688	2869.431641	1763.528564	28.106506
789.903076	1310.699951	2926.319824	1729.395752	25.915489
790.214172	1292.495850	2883.084961	1788.559326	31.187405
790.525269	1301.597900	2812.543701	1738.497925	28.915665
790.836365	1276.567139	2876.258301	1752.151001	29.729731
791.147339	1269.740601	2780.686523	1733.946899	30.722893
791.458191	1315.250977	2694.216553	1756.702026	32.013203
791.769104	1274.291626	2830.747803	1740.773438	29.970764
792.079895	1324.353149	2598.644775	1633.823975	24.285715
792.390686	1262.914063	2671.461426	1724.844727	32.794827
792.701416	1331.179688	2655.532715	1729.395752	30.068724
793.012085	1251.536499	2646.430664	1636.099487	27.569330
793.322693	1240.158813	2694.216553	1638.375000	27.386545
793.633240	1251.536499	2623.675537	1640.650513	28.358206
793.943787	1251.536499	2603.195801	1661.130127	30.303022
794.254272	1217.403687	2628.226563	1640.650513	29.999998
794.564636	1260.638550	2605.471436	1631.548462	27.580372
794.875000	1278.842651	2575.889648	1679.334351	30.877193
795.185303	1262.914063	2619.124512	1633.823975	27.348993
795.495544	1253.812012	2596.369141	1629.272949	27.966105
795.805786	1306.148926	2596.369141	1756.702026	34.920635
796.115906	1376.690063	2612.297852	1722.569214	27.992632
796.426025	1249.260864	2553.134277	1758.977539	39.092499
796.736023	1269.740601	2673.737061	1677.058838	29.011343
797.045959	1262.914063	2739.727051	1654.303589	26.502308
797.355896	1276.567139	2646.430664	1772.630737	36.212627
797.665833	1262.914063	2694.216553	1704.365112	30.842609
797.975708	1285.669312	2773.859863	1692.987427	27.370024
798.285461	1206.026001	2812.543701	1652.028076	27.762039
798.595154	1233.332275	2671.461426	1672.507813	30.537975
798.904846	1262.914063	2644.155273	1724.844727	33.443157
799.214478	1335.730713	2607.746826	1649.752563	24.686939
799.524109	1287.944824	2612.297852	1768.079712	36.254299
799.833557	1262.914063	2694.216553	1683.885376	29.411764
800.143005	1315.250977	2623.675537	1622.446289	23.478260
800.452393	1240.158813	2605.471436	1649.752563	29.999998
800.761780	1274.291626	2646.430664	1677.058838	29.353235
801.071106	1272.016113	2455.286865	1636.099487	30.769236
801.380371	1308.424438	2455.286865	1674.783325	31.944448
801.689575	1319.802124	2537.205811	1640.650513	26.355135
801.998718	1244.709839	2509.899414	1704.365112	36.330940
802.307800	1299.322388	2427.980713	1683.885376	34.072578
802.616882	1312.975464	2448.460449	1606.517700	25.851706
802.925903	1342.557251	2603.195801	1629.272949	22.743689
803.234863	1253.812012	2359.715088	1645.201538	35.390942
803.543701	1274.291626	2387.021240	1695.262939	37.832310
803.852539	1228.781250	2484.868652	1677.058838	35.688408
804.161316	1258.363037	2484.868652	1652.028076	32.096474
804.470032	1317.526489	2348.337402	1679.334351	35.099342
804.778809	1256.087524	2425.705078	1590.588989	28.599216
805.087341	1228.781250	2407.500977	1652.028076	35.907333
805.395935	1244.709839	2375.643799	1545.078613	26.559357
805.704468	1258.363037	2446.184814	1615.619751	30.076626
806.012939	1237.883301	2389.296875	1640.650513	34.980240
806.321350	1299.322388	2455.286865	1567.833862	23.228350
806.629761	1258.363037	2489.419678	1583.762451	26.432529
806.938049	1326.628662	2466.664551	1647.477051	28.143709
807.246277	1299.322388	2423.429688	1690.711914	34.817810
807.554504	1294.771362	2500.797363	1640.650513	28.679245
807.862671	1251.536499	2500.797363	1638.375000	30.965389
808.170715	1260.638550	2357.439453	1658.854614	36.307053
808.478821	1262.914063	2400.674561	1688.436401	37.399994
808.786804	1260.638550	2393.847900	1633.823975	32.931728
809.094727	1274.291626	2355.164063	1604.242188	30.526318
809.402649	1274.291626	2455.286865	1604.242188	27.938349
809.710510	1253.812012	2398.398926	1681.609863	37.375744
810.018311	1385.792114	2466.664551	1697.538574	28.842113
810.326050	1256.087524	2409.776611	1645.201538	33.727806
810.633667	1258.363037	2393.847900	1626.997314	32.464924
810.941345	1242.434326	2368.817139	1599.691162	31.717178
811.248901	1246.985352	2307.378174	1608.793213	34.120174
811.556396	1267.465088	2339.235352	1677.058838	38.216560
811.863892	1283.393677	2334.684326	1592.864502	29.437227
812.171326	1347.108276	2316.480225	1633.823975	29.577471
812.478699	1308.424438	2280.071777	1604.242188	30.444971
812.786011	1228.781250	2250.489990	1499.568237	26.503344
813.093262	1297.046875	2259.592041	1615.619751	33.096928
813.400391	1235.607788	2302.827148	1567.833862	31.130064
813.707642	1331.179688	2216.357178	1545.078613	24.164524
814.014709	1190.097412	2239.112549	1674.783325	46.203899
814.321716	1338.006226	2182.224365	1620.170776	33.423180
814.628723	1249.260864	2327.857666	1561.007324	28.902966
814.935669	1283.393677	2232.285889	1579.211426	31.175064
815.242554	1310.699951	2223.183838	1649.752563	37.157108
815.549438	1274.291626	2236.836914	1620.170776	35.933804
815.856201	1262.914063	2277.796387	1581.486938	31.390129
816.162964	1322.077637	2286.898438	1576.935913	26.415089
816.469604	1206.026001	2275.520752	1658.854614	42.340424
816.776184	1294.771362	2261.867676	1642.926025	36.000000
817.082825	1251.536499	2357.439453	1579.211426	29.629627
817.389343	1212.852539	2346.062012	1647.477051	38.353413
817.695801	1347.108276	2309.653564	1574.660400	23.640667
818.002197	1331.179688	2377.919189	1601.966675	25.869568
818.308533	1319.802124	2311.929199	1611.068726	29.357792
818.614868	1315.250977	2275.520752	1633.823975	33.175365
818.921143	1303.873413	2352.888428	1567.833862	25.162695
819.227356	1297.046875	2225.459229	1679.334351	41.176476
819.533447	1262.914063	2332.408936	1572.384888	28.936167
819.839539	1326.628662	2230.010498	1638.375000	34.508812
820.145569	1281.118164	2409.776611	1718.018188	38.709675
820.451538	1212.852539	2514.450439	1681.609863	36.013988
820.757568	1315.250977	2653.257324	1720.293701	30.272108
821.063416	1226.505737	2641.879639	1729.395752	35.530540
821.369263	1269.740601	2796.614990	1768.079712	32.637859
821.675049	1297.046875	2871.707275	1824.967651	33.526009
821.980713	1265.189575	3017.340576	1879.580200	35.064938
822.286438	1301.597900	3226.688477	1934.192627	32.860519
822.592102	1299.322388	3754.609375	2113.958740	33.178864
822.897583	1310.699951	5192.738281	2464.388916	29.718639
823.203125	1242.434326	7254.360352	3222.137451	32.929600
823.508545	1322.077637	9429.757813	3936.650879	32.248104
823.813965	1258.363037	10540.211914	4182.407227	31.502821
824.119263	1276.567139	10035.046875	4132.345703	32.605873
824.424622	1244.709839	8651.530273	3549.812500	31.121351
824.729858	1292.495850	7363.585449	3213.035400	31.634180
825.035095	1308.424438	6391.937988	3028.718262	33.840645
825.340149	1237.883301	5595.505859	2714.696289	33.890339
825.645264	1308.424438	5106.268555	2578.165039	33.433193
825.950256	1283.393677	4642.062500	2382.470215	32.723576
826.255310	1267.465088	4337.142578	2341.510986	34.988884
826.560242	1308.424438	4200.611328	2141.265137	28.796227
826.865112	1351.659302	3918.446777	2118.509766	29.875883
827.169922	1265.189575	3820.599365	2123.060791	33.570789
827.474670	1333.455200	3677.241699	2061.621826	31.067957
827.779419	1290.220337	4009.467773	2159.469238	31.966524
828.084045	1287.944824	4516.908691	2409.776611	34.742779
828.388672	1356.210449	5024.350098	2441.633789	29.590567
828.693176	1315.250977	5231.422363	2598.644775	32.771645
828.997681	1240.158813	4683.021973	2427.980713	34.500988
829.302124	1210.577026	4346.244629	2286.898438	34.325111
829.606567	1244.709839	3888.864990	2132.163086	33.562828
829.910828	1242.434326	3495.199951	1984.254150	32.929295
830.215149	1287.944824	3313.158203	1984.254150	34.382023
830.519348	1308.424438	3035.544678	1945.570313	36.890648
830.823547	1299.322388	3028.718262	1861.375977	32.499996
831.127686	1240.158813	2848.952148	1829.518677	36.633659
831.431763	1258.363037	2650.981689	1756.702026	35.784309
831.735779	1290.220337	2525.828125	1708.916138	33.885818
832.039734	1299.322388	2559.960938	1731.671387	34.296032
832.343628	1246.985352	2425.705078	1656.579102	34.749035
832.647461	1212.852539	2425.705078	1615.619751	33.208260
832.951233	1272.016113	2402.949951	1617.895264	30.583500
833.255127	1251.536499	2371.092773	1686.160889	38.821129
833.558777	1242.434326	2468.940186	1613.344238	30.241186
833.862366	1260.638550	2537.205811	1692.987427	33.868084
834.165955	1246.985352	2680.563477	1736.222412	34.126991
834.469482	1349.383789	3076.504150	1865.927002	29.907772
834.773010	1312.975464	3347.291016	1979.703125	32.774052
835.076416	1224.230225	3722.751953	2007.009399	31.329693
835.379822	1235.607788	3652.210938	2143.540527	37.570621
835.683105	1299.322388	3542.985840	2041.142212	33.062881
835.986389	1244.709839	3274.474365	1890.957764	31.838566
836.289612	1251.536499	3124.290039	1859.100464	32.442280
836.592773	1253.812012	2930.870850	1731.671387	28.493895
836.895874	1253.812012	2755.655762	1768.079712	34.242424
837.198914	1256.087524	2562.236328	1711.191650	34.843208
837.501892	1317.526489	2498.521729	1679.334351	30.635843
837.804871	1349.383789	2423.429688	1677.058838	30.508478
838.107666	1249.260864	2450.735840	1599.691162	29.166676
838.410583	1299.322388	2355.164063	1588.313477	27.370684
838.713379	1287.944824	2245.938965	1558.731689	28.266026
839.016052	1231.056763	2220.908203	1608.793213	38.160923
839.318787	1294.771362	2041.142212	1549.629639	34.146332
839.621338	1269.740601	2084.376953	1551.905151	34.636871
839.923889	1258.363037	2068.448486	1567.833862	38.202244
840.226440	1249.260864	2123.060791	1626.997314	43.229168
840.528931	1226.505737	2093.479248	1592.864502	42.257202
840.831299	1196.923950	2191.326416	1590.588989	39.588100
841.133606	1278.842651	2311.929199	1606.517700	31.718063
841.435913	1251.536499	2318.755615	1595.140137	32.196167
841.738220	1303.873413	2341.510986	1633.823975	31.798246
842.040405	1249.260864	2154.918213	1636.099487	42.713573
842.342529	1338.006226	2143.540527	1611.068726	33.898308
842.644592	1324.353149	2057.070801	1535.976563	28.881987
842.946594	1258.363037	2034.315552	1504.119263	31.671555
843.248596	1251.536499	2027.489014	1458.608887	26.686218
843.550598	1276.567139	1986.529663	1529.150024	35.576931
843.852478	1258.363037	1918.264038	1567.833862	46.896553
844.154236	1303.873413	1904.610962	1495.017212	31.818188
844.455994	1251.536499	1893.233276	1481.364014	35.815594
844.757690	1294.771362	1843.171875	1460.884399	30.290461
845.059326	1378.965576	1827.243164	1401.720825	5.076151
845.360962	1322.077637	1868.202637	1444.955688	22.499987
845.662476	1312.975464	1752.151001	1456.333252	32.642479
845.963989	1274.291626	1758.977539	1501.843750	46.948368
846.265381	1233.332275	1811.314575	1472.261963	41.338581
846.566772	1292.495850	1859.100464	1442.680176	26.506020
846.868042	1176.444214	1840.896362	1394.894287	32.876720
847.169373	1240.158813	1845.447388	1533.701050	48.496246
847.470581	1265.189575	1840.896362	1342.557251	13.438729
847.771729	1276.567139	1856.824951	1385.792114	18.823524
848.072815	1272.016113	1754.426514	1399.445313	26.415102
848.373901	1281.118164	1733.946899	1456.333252	38.693455
848.674866	1301.597900	1761.253052	1458.608887	34.158432
848.975891	1256.087524	1633.823975	1476.812988	58.433720
849.276794	1287.944824	1706.640625	1454.057739	39.673889
849.577637	1274.291626	1770.355225	1506.394775	46.788990
849.878357	1317.526489	1756.702026	1447.231201	29.533684
850.179077	1365.312500	1809.039063	1390.343262	5.641033
850.479736	1231.056763	1779.457275	1381.241089	27.385883
850.780396	1274.291626	1706.640625	1394.894287	27.894747
851.080994	1260.638550	1708.916138	1390.343262	28.934017
851.381470	1244.709839	1727.120239	1397.169800	31.603788
851.681946	1285.669312	1788.559326	1390.343262	20.814482
851.982361	1297.046875	1631.548462	1394.894287	29.251703
852.282715	1301.597900	1688.436401	1458.608887	40.588253
852.583008	1235.607788	1756.702026	1460.884399	43.231453
852.883240	1267.465088	1720.293701	1399.445313	29.145735
853.183411	1242.434326	1608.793213	1422.200562	49.068344
853.483521	1324.353149	1713.467163	1431.302612	27.485380
853.783630	1249.260864	1718.018188	1429.027100	38.349529
854.083679	1290.220337	1663.405762	1431.302612	37.804874
854.383667	1281.118164	1711.191650	1403.996338	28.571436
854.683533	1260.638550	1674.783325	1324.353149	15.384620
854.983337	1278.842651	1702.089600	1374.414551	22.580647
855.283203	1256.087524	1749.875488	1401.720825	29.493084
855.582886	1287.944824	1633.823975	1522.323364	67.763130
855.882629	1312.975464	1620.170776	1390.343262	25.185215
856.182312	1315.250977	1706.640625	1326.628662	2.906997
856.481873	1249.260864	1649.752563	1390.343262	35.227295
856.781372	1331.179688	1640.650513	1401.720825	22.794115
857.080872	1349.383789	1665.681274	1383.516602	10.791364
857.380310	1306.148926	1654.303589	1410.822876	30.065359
857.679688	1253.812012	1702.089600	1444.955688	42.639580
857.979004	1260.638550	1713.467163	1394.894287	29.648245
858.278259	1258.363037	1745.324463	1360.761475	21.028038
858.577454	1256.087524	1620.170776	1356.210449	27.500008
858.876648	1338.006226	1679.334351	1456.333252	34.666649
859.175720	1292.495850	1749.875488	1376.690063	18.407949
859.474792	1251.536499	1672.507813	1347.108276	22.702682
859.773743	1217.403687	1724.844727	1385.792114	33.183842
860.072693	1276.567139	1647.477051	1390.343262	30.674868
860.371521	1308.424438	1652.028076	1506.394775	57.615902
860.670349	1244.709839	1654.303589	1356.210449	27.222244
860.969116	1317.526489	1686.160889	1435.853638	32.098782
861.267883	1272.016113	1554.180664	1424.476074	54.032288
861.566589	1269.740601	1706.640625	1413.098389	32.812492
861.865112	1297.046875	1656.579102	1424.476074	35.443054
862.163635	1294.771362	1642.926025	1385.792114	26.143770
862.462158	1315.250977	1649.752563	1397.169800	24.489817
862.760620	1249.260864	1670.232300	1372.139038	29.189196
863.059021	1285.669312	1597.415649	1397.169800	35.766415
863.357361	1262.914063	1688.436401	1426.751587	38.502686
863.655640	1301.597900	1677.058838	1372.139038	18.787876
863.953857	1260.638550	1549.629639	1392.618774	45.669308
864.251953	1212.852539	1661.130127	1363.036987	33.502556
864.550110	1221.954712	1617.895264	1403.996338	45.977009
864.848206	1310.699951	1613.344238	1442.680176	43.609024
865.146179	1281.118164	1626.997314	1360.761475	23.026340
865.444092	1278.842651	1686.160889	1417.649414	34.078209
865.741943	1251.536499	1633.823975	1363.036987	29.166660
866.039795	1276.567139	1729.395752	1388.067749	24.623137
866.337646	1226.505737	1647.477051	1472.261963	58.378380
866.635376	1253.812012	1677.058838	1335.730713	19.354830
866.933044	1233.332275	1695.262939	1424.476074	41.379326
867.230652	1285.669312	1622.446289	1431.302612	43.243248
867.528198	1283.393677	1688.436401	1365.312500	20.224737
867.825745	1262.914063	1599.691162	1360.761475	29.054058
868.123230	1287.944824	1638.375000	1385.792114	27.922050
868.420593	1274.291626	1640.650513	1410.822876	37.267078
868.717896	1276.567139	1658.854614	1410.822876	35.119053
869.015198	1265.189575	1649.752563	1488.190552	57.988155
869.312439	1285.669312	1620.170776	1481.364014	58.503391
869.609619	1306.148926	1631.548462	1349.383789	13.286701
869.906738	1249.260864	1718.018188	1351.659302	21.844658
870.203796	1233.332275	1758.977539	1426.751587	36.796547
870.500854	1267.465088	1640.650513	1385.792114	31.707300
870.797791	1297.046875	1611.068726	1306.148926	2.898540
871.094666	1251.536499	1633.823975	1299.322388	12.499988
871.391602	1301.597900	1652.028076	1413.098389	31.818176
871.688293	1294.771362	1681.609863	1458.608887	42.352951
871.985107	1224.230225	1686.160889	1356.210449	28.571436
872.281738	1301.597900	1681.609863	1397.169800	25.149708
872.578369	1340.281738	1652.028076	1360.761475	6.569359
872.874939	1342.557251	1665.681274	1456.333252	35.211246
873.171509	1240.158813	1606.517700	1483.639526	66.459618
873.467957	1290.220337	1674.783325	1381.241089	23.668619
873.764343	1344.832764	1597.415649	1383.516602	15.315305
874.060669	1235.607788	1613.344238	1426.751587	50.602425
874.356995	1322.077637	1692.987427	1347.108276	6.748444
874.653198	1240.158813	1711.191650	1397.169800	33.333344
874.949463	1267.465088	1636.099487	1356.210449	24.074085
875.245544	1221.954712	1620.170776	1383.516602	40.571415
875.541626	1246.985352	1688.436401	1410.822876	37.113407
875.837646	1201.474976	1667.956787	1406.271851	43.902435
876.133606	1312.975464	1692.987427	1403.996338	23.952108
876.429565	1338.006226	1649.752563	1397.169800	18.978113
876.725403	1269.740601	1633.823975	1317.526489	13.124985
877.021179	1294.771362	1667.956787	1410.822876	31.097548
877.316956	1244.709839	1615.619751	1415.373901	46.012268
877.612610	1301.597900	1681.609863	1463.159912	42.514980
877.908203	1208.301514	1647.477051	1415.373901	47.150257
878.203857	1217.403687	1642.926025	1365.312500	34.759354
878.499390	1294.771362	1695.262939	1495.017212	50.000015
878.794800	1347.108276	1667.956787	1419.924927	22.695024
879.090271	1235.607788	1649.752563	1431.302612	47.252758
879.385559	1272.016113	1736.222412	1381.241089	23.529404
879.680847	1192.372925	1715.742676	1383.516602	36.521729
879.976196	1285.669312	1708.916138	1426.751587	33.333332
880.271301	1278.842651	1845.447388	1422.200562	25.301220
880.566467	1265.189575	1838.620850	1424.476074	27.777784
880.861572	1215.128052	1847.722900	1535.976563	50.719433
881.156555	1322.077637	1975.152100	1472.261963	22.996510
881.451477	1283.393677	2227.734863	1592.864502	32.771084
881.746460	1226.505737	2509.899414	1702.089600	37.056740
882.041321	1326.628662	3169.800537	1986.529663	35.802467
882.336121	1274.291626	4039.049316	2061.621826	28.477365
882.630798	1283.393677	4569.245605	2350.613037	32.479229
882.925537	1246.985352	4821.828613	2371.092773	31.444942
883.220215	1306.148926	4651.164551	2375.643799	31.972792
883.514771	1215.128052	4309.836426	2293.724854	34.852936
883.809326	1299.322388	3973.059326	2191.326416	33.361698
884.103760	1285.669312	3643.108887	2109.407715	34.942081
884.398132	1260.638550	3552.087891	2145.816162	38.629597
884.692505	1226.505737	3192.555664	1911.437500	34.837963
884.986816	1278.842651	3067.402100	1875.029175	33.333336
885.281067	1312.975464	3065.126465	1863.651489	31.428572
885.575256	1251.536499	2826.196777	1786.283813	33.959534
885.869385	1328.904175	2562.236328	1733.946899	32.841335
886.163452	1301.597900	2380.194824	1649.752563	32.278477
886.457458	1253.812012	2211.806152	1640.650513	40.380047
886.751465	1281.118164	2179.948975	1615.619751	37.215191
887.045410	1283.393677	2032.040039	1515.496826	31.003042
887.339233	1240.158813	2082.101563	1463.159912	26.486492
887.632996	1221.954712	1975.152100	1458.608887	31.419941
887.926758	1297.046875	1927.366089	1506.394775	33.212997
888.220398	1274.291626	1802.212524	1520.047852	46.551712
888.514099	1269.740601	1784.008301	1495.017212	43.805321
888.807678	1294.771362	1774.906250	1454.057739	33.175339
889.101196	1299.322388	1768.079712	1488.190552	40.291245
889.394653	1324.353149	1715.742676	1449.506714	31.976728
889.688049	1251.536499	1588.313477	1447.231201	58.108101
889.981384	1272.016113	1736.222412	1408.547363	29.411762
890.274719	1310.699951	1622.446289	1492.741699	58.394188
890.567932	1256.087524	1679.334351	1378.965576	29.032244
>>>>>End Processed Spectral Data<<<<<
