Jaz Data File
++++++++++++++++++++++++++++++++++++
Date: Wed Feb 07 06:44:11 2024
User: jaz
Dark Spectrum Present: Yes
Reference Spectrum Present: Yes
Processed Spectrum Present: Yes
Spectrometers: JAZA3692
Integration Time (usec): 40000 (JAZA3692)
Spectra Averaged: 1 (JAZA3692)
Boxcar Smoothing: 0 (JAZA3692)
Correct for Electrical Dark: No (JAZA3692)
Strobe/Lamp Enabled: Yes (JAZA3692)
Correct for Detector Non-linearity: No (JAZA3692)
Correct for Stray Light: No (JAZA3692)
Number of Pixels in Processed Spectrum: 2048
>>>>>Begin Processed Spectral Data<<<<<
W	D	R	S	P
190.244385	0.000000	0.000000	0.000000	0.000000
190.627136	0.000000	0.000000	0.000000	0.000000
191.009842	1083.147949	1133.209351	992.127075	-181.818466
191.392532	1112.729614	1119.556274	1076.321289	-533.325562
191.775177	1108.178589	1076.321289	1124.107300	-50.000191
192.157791	1074.045776	1146.862427	1064.943726	-12.499958
192.540390	1196.923950	1101.352051	1062.668213	140.476166
192.922943	1142.311401	1117.280762	1085.423462	227.273209
193.305481	1085.423462	1274.291626	1042.188477	-22.891621
193.687958	1201.474976	1078.596802	1167.342163	27.777767
194.070419	1180.995239	1158.240112	1117.280762	280.000549
194.452866	1130.933838	1167.342163	1151.413574	56.250145
194.835251	1140.035889	1199.199463	1112.729614	-46.153862
195.217621	1155.964600	1133.209351	1087.698975	299.999451
195.599960	1092.250000	1165.066650	1130.933838	53.124989
195.982254	1162.791138	1099.076538	1110.454102	82.142929
196.364517	1101.352051	1133.209351	1124.107300	71.428680
196.746750	1085.423462	1192.372925	1046.739624	-36.170204
197.128952	1162.791138	1133.209351	1133.209351	100.000000
197.511139	1165.066650	1110.454102	1067.219238	179.166534
197.893280	1151.413574	1174.168701	1117.280762	-150.000534
198.275391	1110.454102	1140.035889	1124.107300	46.154068
198.657471	1199.199463	1171.893188	1155.964600	158.333069
199.039520	1146.862427	1137.760376	1080.872437	725.001343
199.421539	1180.995239	1174.168701	1117.280762	933.335144
199.803513	1124.107300	1119.556274	1105.903076	400.002686
200.185471	1206.026001	1137.760376	1092.250000	166.666611
200.567383	1117.280762	1180.995239	1167.342163	78.571472
200.949265	1126.382813	1158.240112	1115.005249	-35.714149
201.331131	1165.066650	1208.301514	1039.912964	-289.473999
201.712967	1183.270874	1144.586914	1101.352051	211.764313
202.094742	1124.107300	1169.617676	1155.964600	70.000084
202.476517	1160.515625	1149.138062	1121.831787	340.001068
202.858231	1153.689087	1133.209351	1142.311401	55.555820
203.239944	1165.066650	1149.138062	1089.974487	471.430115
203.621582	1171.893188	1137.760376	1130.933838	119.999931
204.003235	1174.168701	1140.035889	1069.494751	306.666656
204.384827	1153.689087	1203.750488	1149.138062	-9.090887
204.766388	1174.168701	1092.250000	1110.454102	77.777847
205.147934	1133.209351	1228.781250	1101.352051	-33.333332
205.529449	1060.392700	1231.056763	1087.698975	16.000015
205.910904	1135.484863	1135.484863	1101.352051	0.000000
206.292343	1167.342163	1126.382813	1049.015137	288.888916
206.673767	1169.617676	1149.138062	1144.586914	122.222816
207.055115	1185.546387	1231.056763	1117.280762	-150.000137
207.436462	1112.729614	1162.791138	1101.352051	-22.727161
207.817780	1137.760376	1171.893188	1092.250000	-133.333221
208.199051	1126.382813	1158.240112	1060.392700	-207.142822
208.580307	1174.168701	1142.311401	1078.596802	300.000000
208.961517	1112.729614	1115.005249	1128.658325	699.967834
209.342712	1051.290649	1130.933838	1119.556274	85.714333
209.723846	1117.280762	1121.831787	1055.841675	-1350.005371
210.104965	1160.515625	1151.413574	1067.219238	1025.004028
210.486069	1099.076538	1149.138062	1044.463989	-109.090866
210.867111	1140.035889	1162.791138	1069.494751	-309.999420
211.248123	1137.760376	1183.270874	1069.494751	-149.999725
211.629120	1167.342163	1185.546387	1133.209351	-187.499420
212.010071	1121.831787	1217.403687	1128.658325	7.142830
212.390991	1165.066650	1146.862427	1005.780212	874.997131
212.771881	1117.280762	1192.372925	1137.760376	27.272638
213.152756	1110.454102	1167.342163	1026.259888	-147.999786
213.533569	1149.138062	1124.107300	1185.546387	-145.454330
213.914368	1142.311401	1108.178589	1140.035889	6.666643
214.295135	1180.995239	1099.076538	1085.423462	116.666618
214.675858	1140.035889	1185.546387	1137.760376	-4.999973
215.056549	1130.933838	1094.525513	1053.566162	212.499954
215.437225	1119.556274	1115.005249	1119.556274	-0.000000
215.817841	1171.893188	1217.403687	1067.219238	-229.999573
216.198441	1190.097412	1149.138062	1105.903076	205.555832
216.579025	1190.097412	1160.515625	1121.831787	230.769104
216.959549	1158.240112	1196.923950	1137.760376	-52.941326
217.340057	1135.484863	1151.413574	1096.801025	-242.856049
217.720535	1124.107300	1135.484863	1085.423462	-340.001068
218.100967	1144.586914	1194.648438	1121.831787	-45.454323
218.481369	1153.689087	1160.515625	1101.352051	-766.670227
218.861740	1137.760376	1212.852539	1085.423462	-69.696907
219.242065	1094.525513	1199.199463	1124.107300	28.260887
219.622391	1099.076538	1199.199463	1130.933838	31.818188
220.002670	1099.076538	1165.066650	1171.893188	110.344788
220.382919	1089.974487	1251.536499	1167.342163	47.887295
220.763123	1099.076538	1171.893188	1119.556274	28.125072
221.143295	1146.862427	1192.372925	1130.933838	-34.999813
221.523453	1112.729614	1146.862427	1096.801025	-46.666500
221.903549	1096.801025	1199.199463	1112.729614	15.555500
222.283630	1108.178589	1165.066650	1128.658325	36.000061
222.663696	1140.035889	1144.586914	1124.107300	-350.000000
223.043701	1169.617676	1224.230225	1133.209351	-66.666595
223.423676	1178.719727	1130.933838	1067.219238	233.333496
223.803635	1135.484863	1092.250000	1085.423462	115.789429
224.183548	1121.831787	1203.750488	1155.964600	41.666691
224.563431	1124.107300	1187.821899	1049.015137	-117.857071
224.943283	1215.128052	1265.189575	1185.546387	-59.090622
225.323105	1074.045776	1178.719727	1167.342163	89.130470
225.702881	1133.209351	1221.954712	1058.117188	-84.615311
226.082642	1080.872437	1140.035889	1108.178589	46.153751
226.462357	1089.974487	1151.413574	1076.321289	-22.222332
226.842041	1103.627563	1153.689087	1137.760376	68.181732
227.221695	1178.719727	1208.301514	1121.831787	-192.307312
227.601318	1096.801025	1212.852539	1083.147949	-11.764668
227.980911	1130.933838	1240.158813	1108.178589	-20.833376
228.360474	1083.147949	1171.893188	1174.168701	102.564095
228.739990	1096.801025	1210.577026	1076.321289	-18.000050
229.119476	1121.831787	1228.781250	1121.831787	0.000000
229.498932	1069.494751	1240.158813	1064.943726	-2.666657
229.878372	1067.219238	1331.179688	1135.484863	25.862066
230.257736	1153.689087	1358.485962	1165.066650	5.555536
230.637115	1087.698975	1308.424438	1110.454102	10.309244
231.016449	1135.484863	1312.975464	1087.698975	-26.923054
231.395737	1096.801025	1237.883301	1135.484863	27.419346
231.774994	1124.107300	1215.128052	1155.964600	35.000042
232.154221	1140.035889	1303.873413	1076.321289	-38.888893
232.533417	1142.311401	1342.557251	1115.005249	-13.636313
232.912582	1128.658325	1231.056763	1130.933838	2.222214
233.291702	1151.413574	1306.148926	1142.311401	-5.882413
233.670792	1155.964600	1231.056763	1074.045776	-109.091042
234.049866	1158.240112	1217.403687	1135.484863	-38.461586
234.428894	1096.801025	1144.586914	1069.494751	-57.142967
234.807892	1176.444214	1226.505737	1103.627563	-145.454330
235.186874	1126.382813	1274.291626	1133.209351	4.615369
235.565781	1101.352051	1244.709839	1103.627563	1.587296
235.944687	1126.382813	1274.291626	1160.515625	23.076929
236.323547	1146.862427	1303.873413	1092.250000	-34.782551
236.702377	1115.005249	1256.087524	1108.178589	-4.838779
237.081177	1124.107300	1258.363037	1112.729614	-8.474636
237.459946	1215.128052	1290.220337	1021.708862	-257.575317
237.838669	1233.332275	1231.056763	1101.352051	5800.021484
238.217361	1206.026001	1274.291626	1023.984375	-266.666595
238.596039	1119.556274	1342.557251	1126.382813	3.061214
238.974670	1119.556274	1240.158813	1169.617676	41.509411
239.353271	1137.760376	1353.934937	1110.454102	-12.631585
239.731842	1149.138062	1253.812012	1062.668213	-82.608757
240.110367	1155.964600	1376.690063	1110.454102	-20.618599
240.488876	1162.791138	1303.873413	1076.321289	-61.290371
240.867340	1060.392700	1424.476074	1130.933838	19.374996
241.245789	1146.862427	1356.210449	1144.586914	-1.086952
241.624176	1083.147949	1406.271851	1155.964600	22.535210
242.002548	1153.689087	1415.373901	1089.974487	-24.347839
242.380890	1121.831787	1447.231201	1105.903076	-4.895126
242.759186	1046.739624	1542.803101	1128.658325	16.513754
243.137451	1067.219238	1699.814087	1196.923950	20.503599
243.515686	1169.617676	1699.814087	1126.382813	-8.154499
243.893890	1151.413574	1652.028076	1158.240112	1.363632
244.272049	1115.005249	1670.232300	1135.484863	3.688512
244.650192	1105.903076	1588.313477	1115.005249	1.886811
245.028290	1130.933838	1604.242188	1194.648438	13.461541
245.406357	1130.933838	1558.731689	1105.903076	-5.851072
245.784393	1119.556274	1570.109375	1151.413574	7.070709
246.162384	1206.026001	1570.109375	1208.301514	0.624998
246.540359	1162.791138	1604.242188	1144.586914	-4.123724
246.918289	1137.760376	1626.997314	1119.556274	-3.720917
247.296204	1196.923950	1770.355225	1194.648438	-0.396824
247.674057	1153.689087	2018.386963	1110.454102	-5.000010
248.051895	1187.821899	2195.877686	1171.893188	-1.580142
248.429703	1226.505737	2168.571289	1149.138062	-8.212558
248.807465	1153.689087	2161.744873	1080.872437	-7.223475
249.185196	1155.964600	2045.693237	1171.893188	1.790275
249.562897	1108.178589	1902.335449	1171.893188	8.022923
249.940567	1101.352051	1961.498901	1176.444214	8.730156
250.318192	1160.515625	1781.732788	1210.577026	8.058599
250.695801	1144.586914	1695.262939	1201.474976	10.330586
251.073349	1096.801025	1647.477051	1169.617676	13.223138
251.450882	1160.515625	1529.150024	1171.893188	3.086409
251.828400	1167.342163	1556.456177	1194.648438	7.017551
252.205872	1101.352051	1683.885376	1165.066650	10.937503
252.583313	1110.454102	1736.222412	1176.444214	10.545454
252.960693	1158.240112	1654.303589	1219.679199	12.385327
253.338074	1128.658325	1834.069824	1231.056763	14.516129
253.715408	1140.035889	1804.488037	1278.842651	20.890408
254.092682	1176.444214	1890.957764	1180.995239	0.636940
254.469955	1185.546387	1695.262939	1178.719727	-1.339305
254.847198	1085.423462	1624.721802	1135.484863	9.282692
255.224365	1023.984375	1638.375000	1110.454102	14.074063
255.601563	1101.352051	1629.272949	1142.311401	7.758615
255.978683	1110.454102	1531.425537	1183.270874	17.297319
256.355743	1112.729614	1542.803101	1221.954712	25.396845
256.732819	1146.862427	1556.456177	1226.505737	19.444464
257.109894	1101.352051	1604.242188	1121.831787	4.072408
257.486877	1053.566162	1677.058838	1158.240112	16.788321
257.863831	1099.076538	1690.711914	1183.270874	14.230782
258.240753	1112.729614	1686.160889	1137.760376	4.365085
258.617645	1110.454102	1713.467163	1235.607788	20.754723
258.994507	1101.352051	1770.355225	1144.586914	6.462580
259.371307	1137.760376	1918.264038	1221.954712	10.787180
259.748108	1074.045776	1972.876587	1167.342163	10.379749
260.124878	1117.280762	2102.581299	1192.372925	7.621244
260.501617	1108.178589	2396.123291	1256.087524	11.484106
260.878296	1135.484863	2650.981689	1276.567139	9.309309
261.254944	1117.280762	2644.155273	1217.403687	6.557377
261.631561	1151.413574	2610.022461	1226.505737	5.148204
262.008179	1187.821899	2336.959961	1174.168701	-1.188125
262.384735	1142.311401	2182.224365	1190.097412	4.595193
262.761261	1142.311401	1966.049927	1190.097412	5.801114
263.137695	1151.413574	1970.601074	1169.617676	2.222214
263.514191	1171.893188	2000.182739	1167.342163	-0.549449
263.890594	1080.872437	1929.641602	1160.515625	9.383374
264.267029	1121.831787	1877.304688	1194.648438	9.638553
264.643341	1044.463989	1879.580200	1196.923950	18.256138
265.019653	1060.392700	1886.406738	1105.903076	5.509637
265.395935	1103.627563	1854.549438	1137.760376	4.545455
265.772217	1158.240112	1815.865601	1160.515625	0.346020
266.148407	1083.147949	1781.732788	1140.035889	8.143312
266.524597	1096.801025	1959.223389	1155.964600	6.860162
266.900726	1160.515625	1979.703125	1158.240112	-0.277777
267.276855	1190.097412	2072.999512	1124.107300	-7.474227
267.652924	1178.719727	1997.907227	1235.607788	6.944449
268.028992	1112.729614	2109.407715	1208.301514	9.589044
268.404999	1183.270874	2013.835938	1237.883301	6.575334
268.781006	1124.107300	2200.428711	1215.128052	8.456652
269.156921	1183.270874	2070.723877	1190.097412	0.769228
269.532837	1142.311401	2054.795166	1235.607788	10.224443
269.908661	1210.577026	2091.203613	1155.964600	-6.201542
270.284546	1092.250000	2050.244141	1130.933838	4.038003
270.660339	1144.586914	2120.785400	1249.260864	10.722610
271.036133	1126.382813	2164.020264	1240.158813	10.964909
271.411835	1146.862427	2132.163086	1199.199463	5.311783
271.787537	1101.352051	2232.285889	1192.372925	8.048293
272.163239	1049.015137	2503.072998	1174.168701	8.607193
272.538849	1174.168701	2655.532715	1262.914063	5.990787
272.914459	1158.240112	2544.032227	1203.750488	3.284070
273.290070	1149.138062	2468.940186	1219.679199	5.344827
273.665588	1101.352051	2245.938965	1249.260864	12.922462
274.041046	1094.525513	2377.919189	1278.842651	14.361699
274.416565	1028.535400	2314.204590	1162.791138	10.442479
274.791962	1051.290649	2270.969727	1199.199463	12.126863
275.167389	1155.964600	2227.734863	1135.484863	-1.910833
275.542755	1108.178589	2175.397949	1142.311401	3.198294
275.918060	1121.831787	2241.387939	1221.954712	8.943091
276.293365	1121.831787	2280.071777	1240.158813	10.216106
276.668640	1160.515625	2355.164063	1249.260864	7.428566
277.043854	1099.076538	2277.796387	1176.444214	6.563704
277.419037	1144.586914	2402.949951	1242.434326	7.775770
277.794189	1206.026001	2380.194824	1201.474976	-0.387595
278.169312	1144.586914	2309.653564	1151.413574	0.585946
278.544373	1167.342163	2264.143311	1135.484863	-2.904565
278.919464	1149.138062	2309.653564	1180.995239	2.745089
279.294464	1096.801025	2371.092773	1149.138062	4.107147
279.669464	1153.689087	2332.408936	1146.862427	-0.579159
280.044403	1053.566162	2366.541748	1151.413574	7.452341
280.419312	1078.596802	2361.990479	1190.097412	8.687951
280.794189	1110.454102	2277.796387	1171.893188	5.263160
281.169037	1144.586914	2366.541748	1144.586914	0.000000
281.543854	1158.240112	2334.684326	1258.363037	8.510639
281.918671	1135.484863	2471.215576	1233.332275	7.325385
282.293365	1126.382813	2575.889648	1235.607788	7.535320
282.668091	1064.943726	2660.083740	1294.771362	14.407991
283.042786	1124.107300	2883.084961	1272.016113	8.408794
283.417419	1142.311401	2778.410889	1274.291626	8.066760
283.792053	1187.821899	2562.236328	1315.250977	9.271518
284.166595	1119.556274	2689.665527	1267.465088	9.420288
284.541138	1133.209351	2628.226563	1228.781250	6.392695
284.915619	1096.801025	2614.573486	1258.363037	10.644679
285.290100	1137.760376	2801.166016	1312.975464	10.533515
285.664520	1137.760376	2739.727051	1251.536499	7.102278
286.038940	1105.903076	2789.788574	1246.985352	8.378377
286.413300	1144.586914	2828.472412	1360.761475	12.837842
286.787628	1028.535400	2926.319824	1326.628662	15.707436
287.161896	1174.168701	2953.625977	1367.588013	10.869568
287.536194	1140.035889	3046.922363	1283.393677	7.517899
287.910400	1064.943726	2853.503174	1242.434326	9.923662
288.284607	1121.831787	2730.625000	1283.393677	10.042427
288.658752	1121.831787	2662.359375	1319.802124	12.850814
289.032867	1140.035889	2562.236328	1303.873413	11.520002
289.406921	1080.872437	2678.288086	1356.210449	17.236467
289.781006	1144.586914	2687.390137	1272.016113	8.259588
290.154999	1135.484863	2716.971924	1392.618774	16.258995
290.529022	1151.413574	2844.401123	1449.506714	17.607521
290.902954	1078.596802	2867.156250	1299.322388	12.340970
291.276825	1135.484863	3015.064941	1424.476074	15.375307
291.650757	1137.760376	2990.034424	1381.241089	13.144961
292.024597	1112.729614	2960.452637	1472.261963	19.458130
292.398407	1226.505737	2905.840088	1406.271851	10.704605
292.772156	1137.760376	2769.308838	1422.200562	17.433756
293.145905	1080.872437	2716.971924	1353.934937	16.689846
293.519592	1144.586914	2703.318604	1367.588013	14.306574
293.893280	1119.556274	2830.747803	1326.628662	12.101065
294.266907	1094.525513	2912.666504	1433.578125	18.648312
294.640533	1140.035889	2933.146240	1424.476074	15.862949
295.014069	1137.760376	2990.034424	1415.373901	14.987714
295.387604	1124.107300	3074.228516	1538.252075	21.236874
295.761078	1105.903076	3147.045166	1495.017212	19.063549
296.134552	1101.352051	3213.035400	1467.710938	17.349140
296.507996	1158.240112	3096.983887	1499.568237	17.605633
296.881378	1117.280762	3188.004639	1545.078613	20.659338
297.254730	1169.617676	3235.790527	1508.670288	16.409693
297.628021	1146.862427	3542.985840	1604.242188	19.088322
298.001282	1151.413574	3565.741211	1620.170776	19.415642
298.374573	1185.546387	3442.863037	1636.099487	19.959677
298.747803	1167.342163	3447.414063	1572.384888	17.764473
299.121002	1121.831787	3324.535889	1520.047852	18.078508
299.494141	1135.484863	3285.852051	1556.456177	19.576717
299.867188	1130.933838	3126.565674	1438.129150	15.393386
300.240265	1137.760376	3065.126465	1549.629639	21.369539
300.613312	1076.321289	2944.523926	1447.231201	19.853838
300.986328	1112.729614	3033.269287	1467.710938	18.483416
301.359314	1087.698975	2930.870850	1483.639526	21.481478
301.732239	1126.382813	2803.441650	1513.221313	23.066484
302.105103	1058.117188	2974.105713	1463.159912	21.140144
302.477997	1101.352051	2962.728027	1415.373901	16.870415
302.850830	1128.658325	3044.646729	1458.608887	17.220905
303.223602	1196.923950	2889.911377	1447.231201	14.784945
303.596375	1180.995239	3005.962891	1417.649414	12.967582
303.969116	1094.525513	2883.084961	1415.373901	17.938929
304.341766	1149.138062	2842.125488	1383.516602	13.844080
304.714478	1128.658325	2807.992676	1358.485962	13.685639
305.087067	1135.484863	2732.900391	1508.670288	23.361826
305.459656	1108.178589	2721.522949	1435.853638	20.310299
305.832214	1176.444214	2844.401123	1474.537476	17.871759
306.204681	1103.627563	2801.166016	1372.139038	15.817697
306.577148	1110.454102	2780.686523	1419.924927	18.528608
306.949646	1155.964600	2714.696289	1488.190552	21.313864
307.322021	1124.107300	2789.788574	1417.649414	17.622946
307.694397	1171.893188	2826.196777	1438.129150	16.093536
308.066742	1137.760376	2762.482178	1358.485962	13.585439
308.439026	1130.933838	2939.972900	1422.200562	16.100632
308.811279	1105.903076	3051.473389	1433.578125	16.842108
309.183502	1137.760376	3108.361328	1472.261963	16.974598
309.555695	1180.995239	3058.300049	1417.649414	12.606060
309.927887	1069.494751	3046.922363	1465.435425	20.023018
310.299988	1124.107300	3106.085938	1551.905151	21.584383
310.672058	1158.240112	3144.769775	1481.364014	16.265747
311.044128	1140.035889	3169.800537	1449.506714	15.246635
311.416168	1171.893188	3160.698486	1526.874512	17.848972
311.788147	1174.168701	3231.239502	1515.496826	16.592920
312.160065	1074.045776	3206.208740	1399.445313	15.261475
312.531982	1112.729614	3172.075928	1510.945801	19.337021
312.903870	1196.923950	3010.513916	1399.445313	11.166877
313.275696	1128.658325	2939.972900	1447.231201	17.587938
313.647491	1178.719727	3053.749023	1476.812988	15.898059
314.019318	1105.903076	3005.962891	1463.159912	18.802399
314.391022	1115.005249	2992.309814	1447.231201	17.696966
314.762726	1146.862427	2992.309814	1488.190552	18.495684
315.134369	1010.331238	3188.004639	1479.088501	21.525600
315.505981	1099.076538	3135.667725	1463.159912	17.877096
315.877594	1124.107300	3331.362549	1435.853638	14.123710
316.249146	1155.964600	3167.524902	1485.915039	16.402712
316.620636	1185.546387	3005.962891	1522.323364	18.499996
316.992157	1162.791138	3042.371338	1392.618774	12.227605
317.363586	1165.066650	2933.146240	1399.445313	13.256115
317.735016	1083.147949	2892.187012	1399.445313	17.484276
318.106354	1105.903076	2901.289063	1422.200562	17.617241
318.477722	1151.413574	2894.462402	1372.139038	12.663183
318.849060	1096.801025	2933.146240	1444.955688	18.959108
319.220306	1083.147949	2969.554688	1429.027100	18.335342
319.591522	1083.147949	2994.585449	1504.119263	22.023808
319.962738	1142.311401	3053.749023	1460.884399	16.666670
320.333923	1135.484863	3037.820313	1401.720825	13.995216
320.705017	1144.586914	2937.697266	1367.588013	12.436552
321.076111	1180.995239	3071.953125	1417.649414	12.515042
321.447144	1155.964600	2990.034424	1383.516602	12.406943
321.818176	1146.862427	2873.982666	1372.139038	13.043482
322.189178	1149.138062	2810.268311	1363.036987	12.876710
322.560120	1155.964600	2980.932129	1376.690063	12.094761
322.931030	1092.250000	2930.870850	1424.476074	18.069309
323.301910	1146.862427	3115.187988	1447.231201	15.260117
323.672729	1187.821899	3208.484375	1479.088501	14.414412
324.043549	1101.352051	3288.127441	1447.231201	15.816857
324.414337	1140.035889	3390.525879	1490.466064	15.571283
324.785095	1165.066650	3629.455566	1524.598877	14.589103
325.155792	1110.454102	3597.598389	1488.190552	15.187557
325.526428	1160.515625	3533.883789	1547.354126	16.299135
325.897034	1142.311401	3461.067139	1499.568237	15.407264
326.267670	1124.107300	3483.822266	1510.945801	16.393442
326.638184	1071.770264	3379.148438	1563.282837	21.301779
327.008728	1174.168701	3542.985840	1408.547363	9.894333
327.379211	1153.689087	3527.057129	1513.221313	15.148607
327.749634	1108.178589	3413.281250	1456.333252	15.103652
328.120026	1133.209351	3424.658691	1399.445313	11.618671
328.490417	1151.413574	3404.179199	1454.057739	13.434339
328.860748	1144.586914	3292.678711	1372.139038	10.593222
329.231079	1171.893188	3304.056152	1456.333252	13.340446
329.601318	1130.933838	3356.393066	1385.792114	11.451941
329.971558	1108.178589	3461.067139	1426.751587	13.539655
330.341736	1108.178589	3269.923340	1501.843750	18.210531
330.711914	1103.627563	3374.597412	1415.373901	13.727454
331.082062	1121.831787	3422.383301	1385.792114	11.473784
331.452148	1151.413574	3306.331787	1545.078613	18.268213
331.822174	1126.382813	3326.811523	1335.730713	9.513960
332.192200	1144.586914	3431.485352	1426.751587	12.338312
332.562134	1069.494751	3445.138428	1424.476074	14.942533
332.932129	1149.138062	3602.149414	1406.271851	10.482373
333.302063	1071.770264	3784.191162	1413.098389	12.583892
333.671906	1092.250000	3665.864014	1433.578125	13.262600
334.041718	1096.801025	3645.384277	1417.649414	12.589284
334.411499	1078.596802	3891.140625	1515.496826	15.533980
334.781281	1105.903076	3772.813477	1479.088501	13.993175
335.151001	1237.883301	3772.813477	1540.527588	11.938959
335.520721	1167.342163	3695.445801	1570.109375	15.931595
335.890350	1169.617676	3618.078125	1472.261963	12.360596
336.259979	1160.515625	3800.119629	1485.915039	12.327584
336.629547	1196.923950	3845.630127	1485.915039	10.910651
336.999084	1108.178589	3713.649902	1444.955688	12.925766
337.368622	1019.433350	3697.721191	1492.741699	17.672049
337.738098	1067.219238	3863.834229	1488.190552	15.052888
338.107513	1067.219238	3756.884766	1499.568237	16.074451
338.476898	1099.076538	3729.578613	1438.129150	12.889275
338.846252	1151.413574	3825.150391	1467.710938	11.829786
339.215576	1171.893188	3809.221924	1449.506714	10.526316
339.584869	1096.801025	3884.313965	1456.333252	12.897957
339.954132	1201.474976	3763.711426	1485.915039	11.101242
340.323334	1115.005249	3574.843262	1417.649414	12.303419
340.692505	1087.698975	3656.761963	1449.506714	14.083257
341.061646	1103.627563	3643.108887	1463.159912	14.157707
341.430786	1192.372925	3684.068115	1458.608887	10.684933
341.799896	1212.852539	3711.374512	1454.057739	9.653915
342.168915	1180.995239	3788.742188	1490.466064	11.867364
342.537903	1153.689087	3882.038574	1369.863525	7.923267
342.906830	1119.556274	3852.456787	1429.027100	11.323897
343.275757	1201.474976	3991.263428	1547.354126	12.398042
343.644684	1153.689087	4032.222900	1488.190552	11.620550
344.013550	1126.382813	4070.906738	1510.945801	13.060277
344.382355	1180.995239	4109.590332	1558.731689	12.898213
344.751129	1103.627563	4282.530273	1506.394775	12.670007
345.119873	1126.382813	4548.766113	1642.926025	15.093084
345.488586	1112.729614	4639.787109	1597.415649	13.741937
345.857269	1151.413574	4785.420410	1590.588989	12.085156
346.225891	1165.066650	4805.899902	1638.375000	13.000001
346.594482	1110.454102	4801.349121	1658.854614	14.858198
346.963043	1158.240112	4956.084473	1688.436401	13.960454
347.331543	1153.689087	4637.511230	1545.078613	11.234486
347.700043	1105.903076	4505.531250	1522.323364	12.248995
348.068512	1067.219238	4296.183105	1549.629639	14.940099
348.436951	1151.413574	4369.000000	1524.598877	11.598299
348.805328	1069.494751	4309.836426	1529.150024	14.185394
349.173645	1160.515625	4132.345703	1529.150024	12.404289
349.541931	1119.556274	4252.948242	1490.466064	11.837324
349.910217	1083.147949	4328.040527	1529.150024	13.744740
350.278473	1169.617676	4505.531250	1549.629639	11.391541
350.646667	1055.841675	4639.787109	1586.037964	14.793649
351.014801	1140.035889	4500.979980	1586.037964	13.270143
351.382935	1140.035889	4480.500488	1526.874512	11.580384
351.751007	1076.321289	4694.399414	1499.568237	11.698115
352.119049	1149.138062	4660.266602	1565.558350	11.860013
352.487091	1183.270874	4637.511230	1624.721802	12.779972
352.855072	1130.933838	4644.337891	1513.221313	10.880829
353.222992	1144.586914	4635.235840	1545.078613	11.473273
353.590881	1219.679199	4867.338867	1586.037964	10.043666
353.958740	1196.923950	4876.440918	1695.262939	13.543597
354.326599	1053.566162	5179.085449	1667.956787	14.892443
354.694397	1137.760376	5038.002930	1592.864502	11.668611
355.062134	1201.474976	5242.799805	1613.344238	10.191442
355.429840	1119.556274	5386.157715	1613.344238	11.573332
355.797516	1105.903076	5481.729492	1695.262939	13.468539
356.165192	1117.280762	5618.260742	1633.823975	11.476239
356.532776	1171.893188	5577.301270	1642.926025	10.692149
356.900360	1155.964600	5747.965332	1708.916138	12.041625
357.267883	1058.117188	5904.976563	1711.191650	13.474178
357.635376	1105.903076	6355.529785	1758.977539	12.440397
358.002808	1124.107300	6505.713867	1829.518677	13.107821
358.370270	1165.066650	6856.144043	1731.671387	9.956019
358.737640	1130.933838	6931.236328	1758.977539	10.827774
359.105011	1128.658325	6621.765625	1868.202637	13.463132
359.472321	1174.168701	6403.315430	1854.549438	13.011315
359.839569	1103.627563	6321.396973	1813.590088	13.606628
360.206787	1137.760376	6141.630859	1777.181763	12.778536
360.574005	1126.382813	6569.428711	1804.488037	12.458194
360.941193	1069.494751	6696.857910	1822.692139	13.384552
361.308319	1126.382813	7170.166016	1900.059814	12.801204
361.675415	1087.698975	7645.750000	1906.886475	12.491326
362.042450	1126.382813	8282.895508	2057.070801	13.004769
362.409424	1155.964600	8585.540039	2107.132324	12.802451
362.776428	1117.280762	9004.235352	2091.203613	12.348529
363.143402	1101.352051	8510.448242	2091.203613	13.359950
363.510284	1162.791138	7948.394043	1920.539551	11.167002
363.877136	1199.199463	7154.237305	1870.478149	11.272449
364.243988	1064.943726	6639.969727	1824.967651	13.632653
364.610779	1144.586914	6446.550293	1852.273926	13.347640
364.977539	1165.066650	6271.335449	1781.732788	12.076649
365.344269	1117.280762	6178.039063	1738.497925	12.275180
365.710938	1169.617676	6116.600098	1667.956787	10.073598
366.077576	1105.903076	5875.394531	1702.089600	12.500003
366.444183	1108.178589	5916.354004	1656.579102	11.405585
366.810760	1142.311401	5884.496582	1758.977539	13.003839
367.177277	1158.240112	5914.078613	1738.497925	12.200957
367.543823	1094.525513	6048.334473	1777.181763	13.780431
367.910248	1155.964600	5859.465820	1695.262939	11.465892
368.276642	1112.729614	5900.425293	1715.742676	12.595058
368.643036	1112.729614	5893.598633	1754.426514	13.422181
369.009399	1115.005249	5829.884277	1581.486938	9.893821
369.375671	1062.668213	5645.566895	1677.058838	13.406158
369.741974	1030.810913	5677.424316	1738.497925	15.230168
370.108215	1126.382813	5750.241211	1729.395752	13.041337
370.474396	1144.586914	5718.383789	1686.160889	11.840796
370.840546	1178.719727	5736.587891	1688.436401	11.183226
371.206665	1137.760376	5977.792969	1626.997314	10.108133
371.572784	1099.076538	5930.007324	1702.089600	12.482337
371.938843	1094.525513	6082.467285	1786.283813	13.868612
372.304840	1130.933838	6150.732910	1790.834839	13.145965
372.670807	1105.903076	6316.845703	1736.222412	12.096072
373.036713	1124.107300	5984.619629	1731.671387	12.500001
373.402649	1130.933838	5998.272949	1674.783325	11.173446
373.768524	1087.698975	6034.681152	1761.253052	13.615453
374.134308	1119.556274	6153.008301	1620.170776	9.945748
374.500122	1169.617676	6082.467285	1722.569214	11.255210
374.865875	1151.413574	6137.079590	1711.191650	11.227749
375.231567	1087.698975	6248.580078	1670.232300	11.287478
375.597260	1185.546387	6423.795410	1715.742676	10.121632
375.962891	1110.454102	6514.815918	1756.702026	11.957895
376.328461	1115.005249	6658.173828	1809.039063	12.520525
376.694031	1089.974487	6690.031250	1868.202637	13.896791
377.059540	1142.311401	7192.921387	1834.069824	11.432871
377.425049	1112.729614	7406.820313	1875.029175	12.111353
377.790497	1126.382813	7638.923340	1834.069824	10.866528
378.155945	1196.923950	7868.750977	1931.917114	11.016370
378.521301	1119.556274	7943.843262	1906.886475	11.537179
378.886597	1178.719727	7550.178223	1868.202637	10.821430
379.251892	1153.689087	7176.992676	1838.620850	11.371364
379.617157	1094.525513	7026.808105	1834.069824	12.466437
379.982422	1121.831787	6994.951172	1802.212524	11.584658
380.347595	1108.178589	6865.246094	1877.304688	13.359686
380.712738	1121.831787	6776.500977	1793.110352	11.871226
381.077820	1062.668213	6910.756836	1834.069824	13.190661
381.442902	1142.311401	6808.358398	1834.069824	12.208837
381.807953	1062.668213	6783.327637	1838.620850	13.564042
382.172974	1062.668213	6655.898438	1770.355225	12.652563
382.537933	1110.454102	6660.449219	1834.069824	13.038133
382.902832	1149.138062	6796.980469	1765.804199	10.918614
383.267700	1146.862427	7033.634766	1834.069824	11.673755
383.632538	1142.311401	7031.359375	1777.181763	10.780526
383.997345	1187.821899	7206.574219	1902.335449	11.871456
384.362152	1112.729614	7377.238281	1736.222412	9.952781
384.726898	1151.413574	7545.626953	1895.508789	11.637010
385.091553	1076.321289	7393.166992	1752.151001	10.698848
385.456238	1085.423462	7361.309570	1843.171875	12.073967
385.820862	1076.321289	7525.147461	1752.151001	10.479887
386.185425	1130.933838	7632.096680	1772.630737	9.870494
386.549988	1124.107300	7477.361328	1868.202637	11.712035
386.914490	1126.382813	7823.240723	1831.794189	10.533468
387.278961	1067.219238	7950.669922	1838.620850	11.206612
387.643372	1042.188477	7937.016602	1909.161987	12.574259
388.007782	1146.862427	7880.128418	1954.672363	11.997297
388.372101	1146.862427	7998.455566	1881.855713	10.727334
388.736450	1151.413574	7966.598145	1843.171875	10.150250
389.100739	1103.627563	8073.547852	1781.732788	9.729024
389.464966	1096.801025	7802.760742	1886.406738	11.774686
389.829163	1112.729614	7702.637695	1818.141113	10.704421
390.193329	1110.454102	7789.107910	1809.039063	10.459967
390.557495	1196.923950	7748.148438	1820.416626	9.517193
390.921570	1171.893188	7971.149414	1870.478149	10.274432
391.285614	1140.035889	8282.895508	1863.651489	10.130615
391.649597	1183.270874	8571.886719	1881.855713	9.454882
392.013550	1083.147949	8833.571289	1893.233276	10.452143
392.377502	1089.974487	9184.001953	1947.845825	10.598820
392.741455	1135.484863	9300.053711	1902.335449	9.392420
393.105316	1194.648438	9181.726563	1831.794189	7.977207
393.469086	1103.627563	8849.500000	1861.375977	9.782609
393.832886	1119.556274	8744.826172	1877.304688	9.937332
394.196655	1089.974487	9022.440430	1854.549438	9.638554
394.560333	1146.862427	9170.348633	1838.620850	8.621669
394.924042	1160.515625	9249.992188	1897.784302	9.113923
395.287659	1167.342163	9145.318359	1881.855713	8.956076
395.651245	1117.280762	9170.348633	1902.335449	9.748517
396.014771	1105.903076	8908.664063	1868.202637	9.769613
396.378296	1153.689087	8403.498047	1865.927002	9.824230
396.741791	1108.178589	8462.662109	1779.457275	9.127476
397.105255	1153.689087	8385.293945	1756.702026	8.338577
397.468628	1176.444214	8123.609375	1777.181763	8.647233
397.832001	1140.035889	8068.996582	1772.630737	9.129722
398.195313	1162.791138	8207.803711	1768.079712	8.591731
398.558624	1146.862427	8214.629883	1756.702026	8.628462
398.921844	1196.923950	8175.946289	1756.702026	8.020866
399.285095	1060.392700	8335.232422	1804.488037	10.228340
399.648254	1119.556274	8255.589844	1667.956787	7.684948
400.011383	1119.556274	8567.335938	1806.763550	9.227009
400.374451	1130.933838	8291.998047	1733.946899	8.420718
400.737549	1146.862427	8460.386719	1829.518677	9.334163
401.100586	1140.035889	8235.109375	1704.365112	7.953818
401.463562	1135.484863	8276.069336	1661.130127	7.361376
401.826508	1060.392700	8449.008789	1768.079712	9.578073
402.189392	1062.668213	8337.507813	1774.906250	9.790429
402.552246	1083.147949	8364.814453	1758.977539	9.281249
402.915070	1092.250000	8467.212891	1724.844727	8.577599
403.277893	1078.596802	8578.713867	1804.488037	9.678398
403.640656	1187.821899	8749.377930	1640.650513	5.988564
404.003326	1169.617676	9129.389648	1752.151001	7.318468
404.366028	1192.372925	9172.624023	1813.590088	7.784431
404.728699	1178.719727	9493.472656	1754.426514	6.923919
405.091248	1121.831787	9937.199219	1809.039063	7.795560
405.453857	1153.689087	9730.126953	1849.998413	8.118864
405.816345	1099.076538	9620.902344	1790.834839	8.117489
406.178833	1212.852539	9739.229492	1811.314575	7.018949
406.541260	1160.515625	9839.351563	1870.478149	8.180388
406.903687	1155.964600	9381.972656	1727.120239	6.943291
407.266052	1162.791138	9070.225586	1758.977539	7.539568
407.628387	1194.648438	9286.400391	1795.385864	7.424071
407.990662	1221.954712	8986.031250	1752.151001	6.828839
408.352905	1217.403687	9272.747070	1711.191650	6.129943
408.715118	1053.566162	9149.869141	1706.640625	8.066330
409.077332	1092.250000	8842.673828	1779.457275	8.866706
409.439484	1133.209351	8972.378906	1699.814087	7.227867
409.801575	1119.556274	9224.960938	1720.293701	7.411566
410.163605	1096.801025	9227.237305	1670.232300	7.052896
410.525635	1112.729614	9541.258789	1711.191650	7.100432
410.887604	1162.791138	9645.932617	1626.997314	5.472102
411.249573	1144.586914	9900.791016	1658.854614	5.873181
411.611481	1178.719727	9887.137695	1647.477051	5.382807
411.973328	1130.933838	9789.290039	1672.507813	6.254928
412.335144	1112.729614	9570.840820	1718.018188	7.156309
412.696930	1144.586914	9413.829102	1649.752563	6.108972
413.058685	1121.831787	9293.226563	1695.262939	7.017543
413.420410	1121.831787	9454.789063	1636.099487	6.171491
413.782104	1092.250000	9689.167969	1586.037964	5.743779
414.143707	1112.729614	9714.198242	1638.375000	6.111112
414.505310	1110.454102	9545.809570	1567.833862	5.422175
414.866852	1128.658325	9741.504883	1686.160889	6.472919
415.228394	1105.903076	9884.862305	1597.415649	5.598757
415.589874	1089.974487	10087.383789	1631.548462	6.019221
415.951324	1053.566162	10217.088867	1652.028076	6.530916
416.312683	1112.729614	10485.599609	1667.956787	5.923769
416.674072	1169.617676	10665.366211	1590.588989	4.433261
417.035370	1126.382813	10874.713867	1626.997314	5.135387
417.396667	1119.556274	11218.317383	1633.823975	5.092384
417.757935	1130.933838	11238.796875	1606.517700	4.705088
418.119141	1101.352051	11985.167969	1622.446289	4.787790
418.480286	1076.321289	11823.606445	1647.477051	5.314419
418.841400	1067.219238	12524.466797	1692.987427	5.461767
419.202484	1133.209351	12924.958008	1752.151001	5.248939
419.563568	1185.546387	13480.185547	1702.089600	4.201370
419.924591	1128.658325	14449.556641	1779.457275	4.885549
420.285553	1099.076538	14301.648438	1747.599976	4.912099
420.646484	1092.250000	15484.918945	1752.151001	4.584980
421.007355	1146.862427	15382.520508	1818.141113	4.715474
421.368225	1178.719727	16292.728516	1881.855713	4.652214
421.729065	1089.974487	16750.109375	1802.212524	4.548097
422.089874	1201.474976	17412.285156	1852.273926	4.014598
422.450592	1140.035889	17196.111328	1893.233276	4.691043
422.811279	1080.872437	17405.458984	1836.345337	4.627822
423.171936	1151.413574	17275.753906	1797.661377	4.007903
423.532593	1183.270874	16624.955078	1890.957764	4.582964
423.893127	1140.035889	16688.669922	1854.549438	4.595346
424.253723	1130.933838	17018.619141	1836.345337	4.439989
424.614197	1108.178589	17473.724609	1952.396851	5.158510
424.974670	1165.066650	17630.734375	1920.539551	4.588171
425.335052	1153.689087	18044.880859	1952.396851	4.728546
425.695496	1190.097412	17389.529297	1936.468262	4.607389
426.055817	1105.903076	17289.406250	1909.161987	4.963443
426.416168	1119.556274	17107.365234	2034.315552	5.721605
426.776398	1096.801025	16144.820313	1941.019287	5.610162
427.136627	1169.617676	15564.562500	1811.314575	4.457793
427.496826	1169.617676	15746.603516	1872.753662	4.823603
427.856995	1087.698975	14906.936523	1727.120239	4.627038
428.217102	1083.147949	14383.567383	1795.385864	5.355003
428.577179	1069.494751	14217.454102	1804.488037	5.590170
428.937195	1128.658325	13912.534180	1788.559326	5.161979
429.297180	1133.209351	13407.368164	1761.253052	5.116796
429.657135	1174.168701	13514.318359	1724.844727	4.462474
430.017059	1078.596802	13682.707031	1768.079712	5.470302
430.376984	1101.352051	13314.072266	1781.732788	5.571083
430.736786	1071.770264	13209.398438	1763.528564	5.699287
431.096588	1126.382813	13241.255859	1711.191650	4.827198
431.456360	1074.045776	13006.876953	1697.538574	5.225020
431.816071	1087.698975	12783.875977	1761.253052	5.758754
432.175781	1074.045776	12902.203125	1697.538574	5.271259
432.535400	1080.872437	12990.948242	1715.742676	5.330531
432.895020	1112.729614	12936.335938	1727.120239	5.196305
433.254578	1044.463989	13093.346680	1747.599976	5.835694
433.614105	1110.454102	13425.572266	1704.365112	4.822617
433.973602	1044.463989	13509.766602	1638.375000	4.764513
434.333038	1155.964600	13691.808594	1681.609863	4.193138
434.692444	1128.658325	13616.716797	1731.671387	4.828717
435.051819	1140.035889	13898.880859	1818.141113	5.314785
435.411133	1192.372925	13944.391602	1738.497925	4.282655
435.770416	1110.454102	13350.480469	1629.272949	4.238707
436.129669	1124.107300	13969.421875	1697.538574	4.464128
436.488861	1135.484863	13484.736328	1690.711914	4.496038
436.848083	1133.209351	13646.297852	1711.191650	4.619022
437.207184	1117.280762	13596.236328	1749.875488	5.069293
437.566254	1187.821899	13853.371094	1706.640625	4.096299
437.925293	1126.382813	13657.675781	1704.365112	4.612312
438.284363	1115.005249	13973.973633	1692.987427	4.494779
438.643311	1133.209351	14492.791992	1702.089600	4.258219
439.002258	1135.484863	14281.168945	1617.895264	3.669725
439.361145	1105.903076	14781.783203	1695.262939	4.309484
439.719971	1206.026001	15175.448242	1733.946899	3.779118
440.078827	1158.240112	15389.347656	1663.405762	3.549728
440.437592	1080.872437	15748.879883	1774.906250	4.731616
440.796295	1149.138062	16128.891602	1706.640625	3.721707
441.155029	1142.311401	17102.814453	1661.130127	3.250641
441.513672	1135.484863	17316.712891	1683.885376	3.389115
441.872253	1140.035889	17334.917969	1738.497925	3.695378
442.230865	1096.801025	16832.027344	1731.671387	4.034708
442.589386	1108.178589	16706.873047	1731.671387	3.997083
442.947876	1110.454102	16538.484375	1713.467163	3.908555
443.306335	1140.035889	16351.892578	1649.752563	3.350785
443.664764	1135.484863	15744.328125	1663.405762	3.613708
444.023102	1049.015137	16097.034180	1670.232300	4.128232
444.381500	1126.382813	15839.900391	1722.569214	4.051964
444.739777	1130.933838	15753.430664	1667.956787	3.672580
445.098022	1219.679199	16338.239258	1606.517700	2.558699
445.456238	1058.117188	15953.676758	1697.538574	4.292698
445.814423	1071.770264	16838.853516	1640.650513	3.608025
446.172577	1083.147949	17676.246094	1645.201538	3.387274
446.530701	1117.280762	17218.865234	1656.579102	3.349349
446.888733	1126.382813	18304.289063	1706.640625	3.377931
447.246765	1126.382813	19330.548828	1815.865601	3.787500
447.604736	1124.107300	18791.250000	1747.599976	3.529109
447.962677	1149.138062	18261.054688	1636.099487	2.845745
448.320587	1117.280762	19093.894531	1852.273926	4.088607
448.678436	1155.964600	18702.505859	1788.559326	3.605239
449.036255	1165.066650	18295.187500	1852.273926	4.011690
449.394043	1174.168701	17405.458984	1713.467163	3.322585
449.751770	1101.352051	17708.103516	1729.395752	3.781857
450.109467	1124.107300	16925.324219	1761.253052	4.032258
450.467163	1085.423462	16579.445313	1811.314575	4.684976
450.824768	1119.556274	16768.312500	1847.722900	4.653192
451.182343	1096.801025	16322.310547	1802.212524	4.633090
451.539886	1110.454102	15705.644531	1836.345337	4.973496
451.897369	1135.484863	16044.697266	1840.896362	4.731380
452.254822	1051.290649	15698.818359	1797.661377	5.095541
452.612274	1155.964600	16320.035156	1870.478149	4.711885
452.969635	1119.556274	16258.595703	1943.294800	5.441154
453.326965	1215.128052	16156.197266	2025.213501	5.421871
453.684326	1092.250000	15842.175781	1941.019287	5.754397
454.041534	1078.596802	15482.643555	1979.703125	6.255925
454.398773	1206.026001	15350.663086	2102.581299	6.338482
454.755951	1174.168701	14977.477539	2036.591064	6.247940
455.113098	1124.107300	14426.801758	2027.489014	6.790968
455.470215	1110.454102	14599.741211	2036.591064	6.865722
455.827240	1210.577026	14704.415039	1972.876587	5.649242
456.184265	1151.413574	14360.811523	2075.274902	6.993970
456.541260	1155.964600	14383.567383	2093.479248	7.087563
456.898193	1140.035889	14174.218750	2164.020264	7.856146
457.255096	1137.760376	14627.047852	2225.459229	8.063427
457.611969	1030.810913	14586.087891	2277.796387	9.199262
457.968781	1010.331238	14422.250977	2412.052002	10.451305
458.325531	1117.280762	14815.916016	2416.603027	9.485049
458.682312	1178.719727	15280.122070	2475.766602	9.197999
459.039001	1101.352051	16046.972656	2600.920166	10.033495
459.395630	1121.831787	16979.935547	2780.686523	10.460612
459.752289	1058.117188	18183.687500	2949.074951	11.041721
460.108856	1140.035889	19601.335938	3251.719238	11.438432
460.465363	1149.138062	20286.267578	3397.352539	11.747919
460.821899	1094.525513	20215.726563	3399.628174	12.055219
461.178345	1137.760376	19564.927734	3431.485352	12.447518
461.534760	1076.321289	19266.833984	3424.658691	12.909683
461.891144	1142.311401	18413.513672	3347.291016	12.766797
462.247467	1117.280762	17739.960938	3281.301025	13.018480
462.603760	1044.463989	17316.712891	3260.821289	13.620474
462.960052	1162.791138	16251.769531	3360.944336	14.567940
463.316254	1135.484863	16065.176758	3294.954102	14.464259
463.672424	1089.974487	15589.592773	3365.495361	15.693662
464.028564	1119.556274	15459.888672	3251.719238	14.868297
464.384644	1126.382813	14977.477539	3438.312012	16.691311
464.740723	1135.484863	15230.060547	3338.188965	15.628027
465.096741	1174.168701	15250.540039	3420.107666	15.955383
465.452698	1199.199463	15209.581055	3413.281250	15.803151
465.808655	1212.852539	15277.846680	3504.302002	16.291862
466.164520	1119.556274	15100.356445	3709.098877	18.522135
466.520355	1178.719727	15732.951172	3800.119629	18.011255
466.876190	1074.045776	15942.298828	3932.099854	19.222528
467.231964	1105.903076	15917.267578	3936.650879	19.112000
467.587677	1190.097412	16574.892578	4048.151611	18.577135
467.943390	1112.729614	16572.617188	4171.029785	19.782164
468.299011	1162.791138	16185.779297	4200.611328	20.221146
468.654633	1080.872437	15965.053711	4186.958496	20.868368
469.010223	1187.821899	16081.105469	4293.907715	20.855616
469.365723	1165.066650	15314.254883	4061.804688	20.472820
469.721191	1133.209351	15830.797852	4198.335938	20.854622
470.076660	1144.586914	14843.222656	4095.937500	21.544851
470.432068	1137.760376	15318.805664	4191.509277	21.534019
470.787445	1117.280762	15182.274414	4287.081055	22.536804
471.142792	1115.005249	15032.090820	4248.397461	22.514713
471.498016	1144.586914	15257.367188	4369.000000	22.847469
471.853271	1008.055725	15189.101563	4432.714355	24.149549
472.208496	1128.658325	15414.377930	4414.510254	23.000956
472.563660	1153.689087	15480.368164	4537.388672	23.618172
472.918762	1130.933838	15928.645508	4689.848145	24.050436
473.273865	1096.801025	16133.442383	4874.165527	25.121065
473.628876	1133.209351	16499.800781	4953.808594	24.863022
473.983917	1103.627563	16643.158203	5012.972168	25.157419
474.338837	1153.689087	16467.943359	4908.298340	24.517090
474.693787	1158.240112	16440.638672	4944.706543	24.776649
475.048645	1135.484863	16244.943359	5051.656250	25.918674
475.403503	1112.729614	16406.505859	5138.125977	26.320488
475.758270	1133.209351	16481.597656	5149.503418	26.167528
476.113037	1153.689087	16743.281250	5317.892090	26.711432
476.467773	1049.015137	17027.722656	5340.647461	26.858446
476.822418	1119.556274	17771.818359	5679.699707	27.384529
477.177063	1146.862427	17662.591797	5654.669434	27.294025
477.531647	1105.903076	18051.707031	5793.476074	27.662146
477.886200	1140.035889	18552.320313	5772.996094	26.607420
478.240723	1046.739624	19114.375000	6027.854492	27.569269
478.595184	1080.872437	18973.292969	6182.589844	28.513288
478.949585	1135.484863	19184.916016	6212.171875	28.126575
479.303986	1103.627563	19444.326172	6398.764648	28.870968
479.658325	1087.698975	19721.939453	6150.732910	27.170597
480.012634	1146.862427	19817.509766	6446.550293	28.385134
480.366913	1112.729614	20602.564453	6683.204590	28.581440
480.721130	1112.729614	20955.271484	6853.868652	28.933487
481.075317	1121.831787	21526.427734	7233.880859	29.954275
481.429474	1183.270874	22686.943359	7338.554688	28.624338
481.783569	1080.872437	23638.109375	7777.729980	29.688288
482.137604	1149.138062	24778.146484	8066.721191	29.275808
482.491669	1158.240112	26744.195313	8858.602539	30.096052
482.845612	1178.719727	29599.974609	9743.780273	30.136110
483.199554	1094.525513	33504.769531	11013.520508	30.604506
483.553436	1146.862427	39443.878906	12695.130859	30.154488
483.907318	1046.739624	45528.621094	15098.080078	31.588907
484.261139	1083.147949	52525.847656	17268.927734	31.463705
484.614899	1165.066650	54785.437500	18531.841797	32.388390
484.968628	1144.586914	54698.968750	18839.037109	33.040150
485.322357	1140.035889	52578.183594	17592.050781	31.984074
485.675964	1117.280762	48894.117188	16408.781250	32.006096
486.029572	1149.138062	45144.058594	15193.652344	31.923037
486.383148	1142.311401	41869.582031	13882.952148	31.282825
486.736694	1126.382813	39482.562500	13368.684570	31.917418
487.090149	1094.525513	39216.324219	13400.541992	32.280788
487.443604	1155.964600	40570.261719	13880.676758	32.284508
487.796997	1128.658325	42154.023438	14292.545898	32.087193
488.150360	1137.760376	43749.164063	15166.345703	32.922138
488.503693	1074.045776	44529.667969	15437.132813	33.052311
488.856964	1151.413574	43603.531250	15341.561523	33.426243
489.210175	1158.240112	41703.468750	14613.394531	33.185543
489.563416	1180.995239	39086.621094	13505.215820	32.512909
489.916565	1119.556274	36440.191406	13022.805664	33.700550
490.269653	1151.413574	34512.824219	12274.159180	33.340157
490.622772	1144.586914	33174.816406	11887.320313	33.539356
490.975769	1112.729614	33325.003906	11798.575195	33.173210
491.328735	1137.760376	34594.742188	12280.985352	33.306129
491.681732	1153.689087	36667.742188	12959.090820	33.241489
492.034607	1194.648438	39036.558594	13919.360352	33.625977
492.387482	1124.107300	39782.929688	14153.739258	33.704159
492.740326	1137.760376	39100.273438	14078.647461	34.088596
493.093079	1187.821899	36749.660156	13291.317383	34.035065
493.445862	1115.005249	33957.597656	12199.067383	33.749046
493.798523	1071.770264	31388.533203	11429.941406	34.166481
494.151215	1119.556274	29106.187500	10581.171875	33.807625
494.503815	1087.698975	26964.921875	9966.781250	34.312344
494.856384	1142.311401	25442.597656	9477.543945	34.300964
495.208923	1187.821899	24259.328125	9097.532227	34.283459
495.561432	1178.719727	23515.232422	8733.449219	33.822334
495.913879	1165.066650	23048.750000	8788.061523	34.834148
496.266296	1235.607788	23487.925781	8813.091797	34.052559
496.618683	1251.536499	23324.087891	8904.113281	34.670105
496.970978	1151.413574	24104.591797	9031.541992	34.331318
497.323273	1153.689087	24425.439453	9215.859375	34.643593
497.675507	1140.035889	24709.880859	9168.073242	34.060627
498.027710	1192.372925	24316.214844	9334.186523	35.209606
498.379852	1187.821899	24245.673828	9331.911133	35.320244
498.731995	1080.872437	23920.275391	9120.287109	35.199760
499.084076	1101.352051	23738.232422	9145.318359	35.534782
499.436096	1094.525513	23080.607422	8881.357422	35.417099
499.788086	1135.484863	22759.759766	8785.786133	35.378300
500.140106	1144.586914	22413.880859	8469.488281	34.438858
500.491943	1137.760376	21546.906250	8562.785156	36.380871
500.843842	1160.515625	21649.304688	8385.293945	35.262104
501.195679	1128.658325	21137.312500	8214.629883	35.414536
501.547455	1183.270874	20657.177734	8066.721191	35.347042
501.899231	1158.240112	20632.146484	8055.343750	35.417156
502.250885	1080.872437	20236.207031	8078.098633	36.528866
502.602600	1121.831787	20402.320313	8162.292969	36.515987
502.954193	1187.821899	20495.615234	7950.669922	35.026520
503.305786	1124.107300	19992.726563	8018.935547	36.541245
503.657379	1124.107300	20693.585938	8041.690430	35.348835
504.008820	1155.964600	20154.287109	7962.047363	35.824654
504.360291	1133.209351	20770.953125	8200.976563	35.990726
504.711700	1165.066650	20529.748047	8237.385742	36.521744
505.063080	1110.454102	20634.421875	8182.772949	36.223778
505.414368	1078.596802	20566.156250	8310.202148	37.108833
505.765656	1101.352051	20588.912109	8100.854004	35.917793
506.116943	1064.943726	20748.199219	8298.824219	36.751442
506.468109	1115.005249	20340.880859	8064.445801	36.146290
506.819305	1146.862427	20552.503906	8132.711426	35.999065
507.170410	1023.984375	20450.105469	8153.190918	36.699074
507.521484	1158.240112	20181.593750	8210.079102	37.069378
507.872559	1119.556274	20670.830078	8146.364258	35.940411
508.223480	1146.862427	20948.445313	8189.599121	35.566536
508.574493	1126.382813	20786.882813	8371.640625	36.851849
508.925385	1142.311401	21239.710938	8464.937500	36.435688
509.276245	1124.107300	21319.353516	8587.815430	36.957748
509.627045	1076.321289	21694.814453	8612.846680	36.552261
509.977814	1142.311401	21838.173828	8854.051758	37.262230
510.328613	1203.750488	22147.644531	8722.071289	35.897434
510.679260	1067.219238	22143.093750	8831.295898	36.838692
511.029999	1103.627563	22161.296875	8763.030273	36.373459
511.380585	1080.872437	22352.441406	8947.347656	36.981171
511.731140	1103.627563	22800.718750	9199.930664	37.315155
512.081726	1083.147949	22805.269531	9261.370117	37.649281
512.432129	1105.903076	23094.259766	9438.860352	37.897133
512.782654	1121.831787	23285.404297	9356.941406	37.156055
513.133057	1055.841675	23278.578125	9356.941406	37.354084
513.483398	1085.423462	23226.240234	9325.083984	37.214798
513.833801	1110.454102	23260.373047	9279.574219	36.881039
514.183960	1101.352051	22805.269531	9209.032227	37.355835
514.534302	1155.964600	22834.851563	9322.808594	37.671879
514.884460	1158.240112	22802.994141	9127.114258	36.816654
515.234619	1062.668213	22468.492188	8981.480469	36.993729
515.584717	1160.515625	22641.431641	9158.971680	37.235172
515.934753	1119.556274	22643.707031	9031.541992	36.758644
516.284851	1149.138062	22748.380859	9181.726563	37.189213
516.634766	1126.382813	23194.382813	9288.675781	36.987007
516.984741	1121.831787	23303.609375	9154.419922	36.212555
517.334595	1126.382813	24143.275391	9434.309570	36.094910
517.684448	1085.423462	24732.634766	10005.464844	37.721325
518.034363	1064.943726	25954.589844	10253.497070	36.917171
518.384094	1042.188477	26737.369141	10622.130859	37.283031
518.733826	1142.311401	27900.160156	11084.061523	37.154518
519.083496	1085.423462	28473.591797	11284.307617	37.238285
519.433167	1135.484863	28915.042969	11536.890625	37.442661
519.782776	1074.045776	28612.398438	11348.022461	37.307884
520.132324	1176.444214	28029.865234	11150.051758	37.140919
520.481873	1101.352051	27360.861328	11156.878906	38.292900
520.831299	1108.178589	27162.892578	10679.019531	36.733624
521.180786	1076.321289	26350.531250	10421.885742	36.976681
521.530151	1199.199463	25938.662109	10374.099609	37.086094
521.879517	1180.995239	25390.261719	10148.823242	37.042957
522.228882	1083.147949	25151.332031	9980.434570	36.967007
522.578064	1167.342163	25126.300781	10028.219727	36.983566
522.927307	1135.484863	25472.179688	9944.026367	36.194485
523.276489	1103.627563	25560.925781	10273.976563	37.495346
523.625610	1108.178589	25438.046875	10310.384766	37.822670
523.974792	1171.893188	26264.060547	10346.792969	36.564793
524.323792	1099.076538	26710.062500	10567.518555	36.970238
524.672852	1105.903076	27165.167969	10763.213867	37.059029
525.021790	1096.801025	28248.314453	11029.449219	36.582302
525.370728	1058.117188	29233.615234	11634.738281	37.538364
525.719604	1169.617676	30553.417969	12258.230469	37.737164
526.068420	1135.484863	32644.621094	13004.601563	37.668812
526.417297	1096.801025	34030.414063	13314.072266	37.096664
526.765991	1160.515625	34663.007813	13639.471680	37.247845
527.114746	1185.546387	35834.902344	14165.117188	37.459774
527.463379	1160.515625	37136.500000	14422.250977	36.862743
527.812012	1099.076538	38902.304688	15423.480469	37.892014
528.160706	1199.199463	42383.851563	16656.812500	37.532459
528.509155	1169.617676	47483.292969	18593.281250	37.620991
528.857727	1115.005249	52282.367188	20750.474609	38.374985
529.206177	1121.831787	54940.175781	21849.550781	38.514225
529.554565	1142.311401	55174.554688	22204.531250	38.980839
529.902893	1105.903076	54275.722656	21499.121094	38.354877
530.251221	1069.494751	51479.105469	20397.767578	38.342438
530.599548	1115.005249	47713.121094	18427.167969	37.152065
530.947876	1135.484863	43594.425781	17023.171875	37.418945
531.296021	1112.729614	40638.527344	15794.389648	37.144501
531.644165	1174.168701	37584.777344	14845.498047	37.547653
531.992249	1208.301514	35803.042969	14117.331055	37.315002
532.340454	1083.147949	34674.386719	13694.083984	37.542336
532.688354	1108.178589	35291.050781	13773.727539	37.052326
533.036438	1146.862427	36283.179688	14115.055664	36.908234
533.384338	1080.872437	39011.527344	14916.039063	36.474895
533.732239	1108.178589	40265.339844	15685.165039	37.226871
534.080139	1137.760376	40834.222656	16017.390625	37.483517
534.427917	1155.964600	40515.648438	15632.828125	36.780945
534.775757	1112.729614	38656.546875	14982.029297	36.941635
535.123474	1137.760376	37095.539063	14124.157227	36.115681
535.471191	1105.903076	35163.621094	13573.481445	36.607204
535.818848	1074.045776	33934.839844	13241.255859	37.026527
536.166382	1153.689087	32382.937500	12608.661133	36.680267
536.513977	1085.423462	33274.941406	12656.446289	35.946556
536.861511	1162.791138	33434.226563	12711.059570	35.784801
537.208984	1119.556274	33304.523438	12961.366211	36.792984
537.556396	1192.372925	33095.175781	12629.140625	35.848785
537.903809	1135.484863	32223.650391	12349.250977	36.070850
538.251160	1089.974487	31240.625000	12037.504883	36.309433
538.598389	1096.801025	29882.138672	11725.758789	36.924904
538.945740	1119.556274	28824.021484	11213.766602	36.435318
539.292969	1142.311401	28339.335938	11113.643555	36.663319
539.640137	1076.321289	28155.019531	11097.714844	37.008400
539.987244	1044.463989	28550.958984	11079.510742	36.482464
540.334351	1039.912964	29033.369141	11418.563477	37.075272
540.681458	1124.107300	30942.531250	11969.239258	36.370575
541.028442	1096.801025	33534.351563	13163.887695	37.200981
541.375366	1176.444214	36943.082031	14415.423828	37.014885
541.722290	1121.831787	39619.093750	15578.215820	37.551720
542.069153	1176.444214	42015.214844	16258.595703	36.930965
542.416016	1146.862427	42156.296875	16313.208984	36.982582
542.762756	1108.178589	41064.046875	16094.758789	37.507832
543.109558	1180.995239	39605.441406	15282.397461	36.699039
543.456299	1137.760376	37878.320313	14736.272461	37.012260
543.802917	1210.577026	36447.015625	14149.188477	36.719410
544.149536	1135.484863	34667.558594	13236.704102	36.088490
544.496094	1101.352051	32546.773438	12469.853516	36.153122
544.842651	1099.076538	30812.828125	12078.464844	36.950531
545.189148	1167.342163	29743.332031	11411.737305	35.849659
545.535583	1215.128052	28282.447266	11145.500977	36.687687
545.882019	1087.698975	27381.341797	10829.203125	37.048893
546.228333	1183.270874	27265.291016	10824.652344	36.965626
546.574707	1133.209351	27069.595703	10767.764648	37.146870
546.920898	1153.689087	27599.791016	10840.581055	36.628807
547.267212	1110.454102	27458.708984	10624.406250	36.108475
547.613342	1103.627563	27080.972656	10779.141602	37.245968
547.959473	1119.556274	26885.277344	10412.783203	36.068180
548.305664	1112.729614	26543.949219	10103.312500	35.352547
548.651611	1142.311401	25108.095703	9800.667969	36.127991
548.997742	1169.617676	24191.062500	9470.717773	36.058117
549.343689	1160.515625	23535.710938	9031.541992	35.177464
549.689575	1171.893188	22388.849609	8699.316406	35.478336
550.035522	1119.556274	21612.896484	8392.121094	35.487457
550.381287	1128.658325	20616.218750	8100.854004	35.777672
550.727173	1133.209351	20714.066406	8018.935547	35.165600
551.072876	1089.974487	20095.125000	7850.546875	35.572315
551.418640	1108.178589	19815.234375	7745.873047	35.482304
551.764282	1117.280762	19621.816406	7766.352539	35.932121
552.109863	1112.729614	20026.859375	7597.963867	34.287777
552.455505	1121.831787	19908.531250	7714.015625	35.089630
552.801025	1119.556274	20322.675781	7702.637695	34.281315
553.146545	1085.423462	20593.462891	7896.057129	34.911934
553.491943	1101.352051	20880.179688	8030.312988	35.032211
553.837341	1087.698975	20718.617188	7921.087891	34.809319
554.182800	1117.280762	20700.412109	7636.647949	33.290730
554.528015	1055.841675	20149.736328	7618.443848	34.370159
554.873352	1099.076538	20015.480469	7481.912598	33.742332
555.218628	1099.076538	19596.785156	7290.768555	33.472752
555.563721	1133.209351	19296.416016	7324.901367	34.089199
555.908875	1092.250000	18971.017578	7085.971680	33.524242
556.254028	1094.525513	18832.210938	6994.951172	33.264915
556.599121	1192.372925	18465.851563	7099.625000	34.198391
556.944031	1165.066650	18097.216797	6999.501953	34.457737
557.289063	1108.178589	18302.013672	6913.032227	33.761246
557.633972	1146.862427	17985.716797	6728.714844	33.148651
557.978882	1142.311401	18015.298828	6819.735840	33.648006
558.323792	1155.964600	17908.349609	6696.857910	33.075253
558.668518	1160.515625	17667.142578	6701.408691	33.567688
559.013306	1212.852539	17660.316406	6580.806152	32.636967
559.358032	1155.964600	17676.246094	6651.347168	33.264462
559.702637	1126.382813	17710.378906	6382.835938	31.695938
560.047363	1067.219238	17621.632813	6473.856445	32.659794
560.391846	1076.321289	17455.519531	6537.571289	33.342598
560.736450	1146.862427	17512.408203	6428.346191	32.271969
561.080933	1099.076538	17569.296875	6512.540527	32.868191
561.425354	1121.831787	17928.828125	6665.000488	32.981319
561.769775	1064.943726	17928.828125	6558.050781	32.573200
562.114136	1174.168701	18010.748047	6751.470215	33.126095
562.458496	1158.240112	17928.828125	6507.989258	31.899591
562.802673	1126.382813	18158.656250	6660.449219	32.491650
563.146912	1133.209351	17931.103516	6553.500000	32.267677
563.491150	1103.627563	17585.224609	6416.968750	32.238022
563.835266	1142.311401	17539.714844	6423.795410	32.209267
564.179443	1169.617676	17751.337891	6585.357422	32.660904
564.523438	1142.311401	17612.531250	6448.826172	32.218845
564.867493	1101.352051	17628.458984	6389.662598	31.997799
565.211426	1162.791138	18129.074219	6451.101563	31.169529
565.555359	1071.770264	18024.400391	6567.152832	32.416107
565.899231	1089.974487	18468.126953	6692.306641	32.237789
566.243042	1149.138062	19139.406250	6867.521973	31.785986
566.586914	1144.586914	19542.171875	6828.837891	30.896723
566.930603	1087.698975	19894.878906	6994.951172	31.409557
567.274292	1099.076538	19965.419922	6958.542480	31.057772
567.617981	1094.525513	19954.041016	7001.777344	31.322395
567.961609	1165.066650	19665.050781	6940.338379	31.217710
568.305237	1133.209351	19423.845703	6856.144043	31.288876
568.648682	1071.770264	18875.445313	6746.918945	31.876274
568.992188	1128.658325	18531.841797	6646.796387	31.707636
569.335632	1076.321289	18513.636719	6512.540527	31.175779
569.679016	1135.484863	18495.433594	6412.417480	30.397165
570.022461	1142.311401	18245.125000	6416.968750	30.840872
570.365662	1130.933838	18504.535156	6421.519531	30.451866
570.708984	1110.454102	18208.716797	6389.662598	30.875704
571.052185	1099.076538	18481.779297	6412.417480	30.566828
571.395386	1089.974487	18595.556641	6464.754395	30.703234
571.738525	1103.627563	19339.650391	6467.030273	29.411034
572.081604	1133.209351	19569.478516	6783.327637	30.646753
572.424683	1153.689087	19792.480469	6903.930176	30.850935
572.767578	1099.076538	20115.603516	6860.695313	30.297955
573.110596	1087.698975	19899.429688	6762.847656	30.168137
573.453552	1115.005249	19853.919922	6633.143066	29.447479
573.796387	1133.209351	19369.232422	6671.827148	30.371849
574.139282	1096.801025	19578.580078	6571.704102	29.623247
574.481995	1178.719727	19200.843750	6514.815918	29.608585
574.824768	1101.352051	19157.609375	6376.009277	29.212351
575.167480	1094.525513	19023.353516	6325.947754	29.178831
575.510132	1103.627563	18918.679688	6421.519531	29.850555
575.852722	1117.280762	18977.843750	6423.795410	29.710793
576.195251	1144.586914	18927.781250	6273.610840	28.841970
576.537842	1140.035889	18695.679688	6150.732910	28.541801
576.880188	1149.138062	18390.759766	6130.252930	28.890060
577.222717	1103.627563	17937.929688	5886.772461	28.413086
577.565063	1083.147949	17476.000000	6034.681152	30.205442
577.907410	1165.066650	17466.898438	5845.812988	28.713007
578.249756	1128.658325	17095.988281	5604.607910	28.031923
578.591919	1117.280762	16431.535156	5600.056641	29.271917
578.934204	1124.107300	16374.647461	5481.729492	28.573559
579.276306	1130.933838	16097.034180	5345.198242	28.158735
579.618469	1083.147949	15471.265625	5313.341309	29.400604
579.960571	1124.107300	15482.643555	5165.432129	28.145800
580.302551	1089.974487	15268.744141	5088.064453	28.197721
580.644531	1126.382813	15102.631836	5160.881348	28.866819
580.986511	1112.729614	14763.579102	5067.584961	28.971497
581.328369	1085.423462	14827.293945	4758.113770	26.726278
581.670227	1183.270874	14733.997070	4906.022949	27.472712
582.012024	1144.586914	14688.486328	4908.298340	27.788979
582.353821	1201.474976	14658.905273	4903.747559	27.510990
582.695496	1112.729614	14447.281250	4751.287598	27.286692
583.037231	1158.240112	14545.128906	4774.042480	27.010027
583.378845	1206.026001	14531.475586	4607.929688	25.529375
583.720398	1169.617676	14249.311523	4817.277344	27.887960
584.062012	1155.964600	14526.924805	4714.878906	26.616745
584.403442	1140.035889	14069.544922	4744.460938	27.877510
584.744934	1155.964600	14026.310547	4614.756348	26.874117
585.086365	1115.005249	14217.454102	4587.449707	26.502254
585.427734	1112.729614	14235.658203	4473.673828	25.611237
585.768982	1231.056763	14231.107422	4421.336914	24.540522
586.110291	1126.382813	14003.554688	4528.286621	26.418097
586.451599	1130.933838	13896.605469	4473.673828	26.185383
586.792725	1174.168701	14146.913086	4546.490723	25.995441
587.133850	1046.739624	13960.320313	4482.775879	26.607925
587.474915	1126.382813	14237.933594	4457.745117	25.407843
587.815979	1103.627563	14028.585938	4485.051270	26.161972
588.157043	1171.893188	14078.647461	4412.234863	25.105783
588.497925	1103.627563	14046.790039	4339.417969	25.000000
588.838867	1103.627563	14283.444336	4366.724609	24.758289
589.179749	1174.168701	14231.107422	4309.836426	24.015337
589.520569	1178.719727	14551.955078	4489.602539	24.757530
589.861450	1160.515625	14724.895508	4478.225098	24.458984
590.202087	1124.107300	14472.312500	4464.571777	25.025570
590.542847	1169.617676	14840.946289	4491.877930	24.300932
590.883484	1137.760376	14772.680664	4453.194336	24.315758
591.224121	1194.648438	14504.169922	4337.142578	23.610872
591.564636	1094.525513	14820.466797	4357.622559	23.773212
591.905151	1037.637451	14292.545898	4287.081055	24.515022
592.245667	1051.290649	14328.954102	4296.183105	24.438732
592.585999	1142.311401	14410.873047	4205.162598	23.083521
592.926453	1105.903076	14035.412109	4191.509277	23.864838
593.266724	1126.382813	14215.178711	4193.784668	23.435326
593.607056	1121.831787	14235.658203	4141.447754	23.026201
593.947388	1117.280762	14328.954102	4091.386475	22.511196
594.287476	1089.974487	14292.545898	4209.713379	23.629782
594.627686	1121.831787	14465.485352	4105.039551	22.356754
594.967773	1187.821899	14479.138672	4118.692871	22.051022
595.307861	1178.719727	14845.498047	4175.580566	21.928070
595.647888	1115.005249	14863.702148	4100.488281	21.714661
595.987854	1158.240112	15132.212891	4284.805664	22.374207
596.327820	1110.454102	15311.979492	4289.356934	22.384235
596.667725	1099.076538	15637.378906	4277.979004	21.865705
597.007568	1212.852539	16265.422852	4421.336914	21.315193
597.347351	1169.617676	16731.904297	4519.184082	21.523613
597.687073	1085.423462	17212.039063	4601.103027	21.800482
598.026794	1133.209351	16802.445313	4505.531250	21.521929
598.366455	1151.413574	16513.455078	4330.315918	20.693230
598.706116	1146.862427	16147.095703	4309.836426	21.086166
599.045654	1169.617676	15664.685547	4098.212891	20.204081
599.385193	1155.964600	15022.988281	4002.641113	20.528389
599.724731	1171.893188	14426.801758	3929.824463	20.806868
600.064087	1083.147949	14454.108398	3829.701416	20.541182
600.403564	1105.903076	13992.177734	3800.119629	20.907646
600.742920	1085.423462	13782.829102	3688.619141	20.501793
601.082153	1130.933838	13744.145508	3804.670898	21.197908
601.421387	1151.413574	13430.124023	3661.312988	20.441067
601.760620	1055.841675	13512.042969	3558.914551	20.094994
602.099854	1064.943726	13703.186523	3715.925537	20.975874
602.438843	1149.138062	13628.093750	3545.261475	19.201315
602.778015	1149.138062	13999.003906	3638.557861	19.373119
603.117065	1089.974487	14080.922852	3702.272461	20.108601
603.456055	1060.392700	14711.242188	3722.751953	19.503250
603.794983	1096.801025	14838.670898	3877.487549	20.235140
604.133850	1133.209351	15560.011719	3879.762939	19.037855
604.472778	1142.311401	15817.145508	3950.304199	19.134748
604.811584	1183.270874	16552.138672	4054.978027	18.685221
605.150330	1119.556274	16811.546875	4043.600586	18.633993
605.489075	1130.933838	17082.333984	4159.651855	18.987160
605.827698	1094.525513	16731.904297	4152.825684	19.557627
606.166382	1119.556274	16652.261719	4011.743164	18.619984
606.504883	1124.107300	16165.299805	3818.323975	17.912256
606.843445	976.198425	15616.899414	3754.609375	18.977308
607.181946	1140.035889	15318.805664	3686.343750	17.958595
607.520386	1165.066650	14349.434570	3643.108887	18.795305
607.858826	1162.791138	14301.648438	3547.536865	18.150328
608.197083	1149.138062	13958.044922	3506.577637	18.404688
608.535461	1085.423462	13776.002930	3449.689453	18.630089
608.873718	1146.862427	13821.513672	3440.587402	18.096949
609.211914	1146.862427	14404.046875	3486.097900	17.645039
609.550171	1080.872437	14615.669922	3588.496338	18.527237
609.888245	1144.586914	14986.580078	3668.139648	18.231136
610.226318	1092.250000	15396.173828	3788.742188	18.851416
610.564392	1190.097412	15530.429688	3656.761963	17.200890
610.902344	1144.586914	15177.723633	3704.547852	18.242258
611.240295	1133.209351	15054.845703	3613.527100	17.816280
611.578247	1101.352051	14338.056641	3577.118652	18.703798
611.916138	1089.974487	14476.863281	3515.679688	18.120007
612.253845	1146.862427	13826.064453	3488.373291	18.467335
612.591675	1117.280762	13537.073242	3449.689453	18.779772
612.929382	1160.515625	13461.981445	3388.250488	18.109507
613.267090	1142.311401	12990.948242	3279.025391	18.033415
613.604736	1144.586914	12947.712891	3192.555664	17.351070
613.942261	1133.209351	12485.782227	3213.035400	18.320307
614.279785	1046.739624	12474.405273	3067.402100	17.682198
614.617310	1130.933838	12137.627930	3015.064941	17.118048
614.954712	1085.423462	12267.333008	3110.636963	18.111519
615.292175	1178.719727	12078.464844	2962.728027	16.367432
615.629517	1187.821899	11969.239258	3085.606201	17.602364
615.966797	1183.270874	12060.259766	2969.554688	16.422594
616.304138	1103.627563	11980.617188	2971.830078	17.175732
616.641296	1119.556274	11932.831055	2967.279053	17.087542
616.978516	1130.933838	12060.259766	3001.411865	17.114304
617.315552	1201.474976	11989.718750	3028.718262	16.937355
617.652771	1235.607788	11841.810547	3042.371338	17.034969
617.989685	1124.107300	12094.392578	2944.523926	16.594069
618.326721	1121.831787	11855.462891	2935.421875	16.896334
618.663696	1142.311401	12078.464844	3024.167236	17.207657
619.000549	1103.627563	12101.219727	2980.932129	17.070143
619.337463	1142.311401	11989.718750	3005.962891	17.180616
619.674194	1162.791138	11960.137695	2939.972900	16.459431
620.010986	1171.893188	11828.157227	2949.074951	16.677343
620.347778	1033.086426	11966.963867	2949.074951	17.523415
620.684387	1110.454102	11878.218750	2946.799316	17.054098
621.020996	1101.352051	11534.615234	2821.645752	16.488548
621.357605	1117.280762	11923.728516	2944.523926	16.908825
621.694214	1087.698975	11439.042969	2933.146240	17.828094
622.030579	1094.525513	11439.042969	2930.870850	17.751871
622.367065	1128.658325	11484.553711	2878.533936	16.897387
622.703430	1144.586914	11468.625000	2858.054199	16.596870
623.039795	1051.290649	11532.339844	2814.819336	16.825880
623.376160	1035.361938	11386.706055	2905.840088	18.069906
623.712402	1099.076538	11461.797852	2853.503174	16.930172
624.048645	1151.413574	11464.074219	2842.125488	16.394527
624.384766	1115.005249	11131.847656	2769.308838	16.515219
624.720886	1019.433350	11361.675781	2828.472412	17.491749
625.057007	1094.525513	11361.675781	2842.125488	17.021276
625.392944	1153.689087	11429.941406	2819.370361	16.209036
625.729004	1096.801025	11468.625000	2905.840088	17.441860
626.064941	1140.035889	11618.809570	2896.738037	16.764387
626.400818	1151.413574	11903.249023	2974.105713	16.952381
626.736633	1110.454102	12087.566406	2937.697266	16.645937
627.072449	1128.658325	12210.444336	2846.676514	15.503080
627.408264	1085.423462	12503.986328	3033.269287	17.058590
627.743896	1028.535400	12376.557617	2935.421875	16.803690
628.079590	1142.311401	12613.211914	3042.371338	16.564175
628.415161	1162.791138	12365.179688	2974.105713	16.169003
628.750793	1162.791138	12296.914063	2912.666504	15.716329
629.086365	1151.413574	12055.708984	2848.952148	15.567615
629.421753	1155.964600	11778.095703	2899.013428	16.409597
629.757263	1133.209351	11693.901367	2939.972900	17.108381
630.092651	1146.862427	11607.431641	2901.289063	16.771809
630.427917	1185.546387	11275.206055	2796.614990	15.967521
630.763184	1167.342163	11077.235352	2751.104736	15.981630
631.098511	1144.586914	11245.624023	2735.176025	15.746790
631.433716	1067.219238	10911.122070	2830.747803	17.914934
631.768799	1128.658325	10931.601563	2680.563477	15.831012
632.103943	1142.311401	10745.008789	2653.257324	15.734599
632.438965	1089.974487	10380.925781	2746.553711	17.830029
632.773987	1099.076538	10471.946289	2530.379150	15.270698
633.109070	1087.698975	10606.202148	2716.971924	17.116903
633.443848	1074.045776	10362.721680	2623.675537	16.683001
633.778870	1176.444214	10658.539063	2716.971924	16.246702
634.113708	1194.648438	10704.049805	2628.226563	15.075377
634.448425	1121.831787	10683.570313	2650.981689	15.992384
634.783264	1142.311401	10487.875000	2664.634766	16.289263
635.117859	1119.556274	10547.039063	2671.461426	16.461502
635.452576	1064.943726	10567.518555	2655.532715	16.738504
635.787170	1126.382813	10430.987305	2587.267090	15.700660
636.121704	1089.974487	10253.497070	2628.226563	16.786690
636.456177	1137.760376	10351.343750	2612.297852	16.003952
636.790588	1135.484863	10141.996094	2528.103516	15.462353
637.125122	1069.494751	9987.260742	2587.267090	17.019648
637.459412	1167.342163	9891.688477	2582.716064	16.223265
637.793762	1140.035889	9868.933594	2525.828125	15.875914
638.128052	1099.076538	9443.411133	2528.103516	17.125715
638.462280	1206.026001	9602.698242	2528.103516	15.745256
638.796509	1162.791138	9736.953125	2425.705078	14.729299
639.130615	1124.107300	9520.779297	2496.246338	16.341463
639.464722	1137.760376	9306.879883	2425.705078	15.766016
639.798767	1133.209351	9318.257813	2473.491211	16.374758
640.132751	1160.515625	9482.094727	2500.797363	16.106098
640.466736	1076.321289	9095.256836	2405.225586	16.572079
640.800598	1121.831787	9143.042969	2443.909424	16.482269
641.134521	1071.770264	9088.429688	2398.398926	16.548397
641.468262	1119.556274	9092.981445	2425.705078	16.381275
641.802063	1021.708862	8972.378906	2493.970703	18.517456
642.135803	1117.280762	8954.174805	2380.194824	16.114983
642.469421	1162.791138	8692.489258	2446.184814	17.044424
642.803101	1074.045776	8840.398438	2384.745850	16.876650
643.136658	1119.556274	8753.928711	2532.654541	18.509684
643.470215	1149.138062	8758.479492	2464.388916	17.284687
643.803711	1221.954712	8621.948242	2380.194824	15.651907
644.137085	1137.760376	8535.478516	2368.817139	16.641033
644.470581	1117.280762	8742.550781	2302.827148	15.547599
644.803833	1103.627563	8464.937500	2377.919189	17.310663
645.137207	1160.515625	8692.489258	2323.306641	15.438066
645.470459	1105.903076	8560.508789	2350.613037	16.697195
645.803589	1128.658325	8585.540039	2289.173828	15.563013
646.136780	1110.454102	8644.703125	2305.102539	15.856237
646.469849	1137.760376	8849.500000	2286.898438	14.901152
646.802979	1140.035889	8642.427734	2352.888428	16.166212
647.135986	1219.679199	8546.856445	2296.000488	14.689440
647.468994	1094.525513	8756.204102	2396.123291	16.988415
647.801941	1167.342163	8706.142578	2350.613037	15.695745
648.134766	1190.097412	8697.040039	2318.755615	15.034859
648.467651	1149.138062	8756.204102	2323.306641	15.435236
648.800354	1071.770264	8699.316406	2377.919189	17.124104
649.133179	1140.035889	8758.479492	2332.408936	15.651137
649.465881	1108.178589	8549.131836	2339.235352	16.544342
649.798462	1101.352051	8715.245117	2437.082764	17.543335
650.131104	1078.596802	8640.152344	2289.173828	16.009628
650.463623	1240.158813	8694.764648	2314.204590	14.407814
650.796143	1144.586914	8496.794922	2257.316650	15.134633
651.128662	1108.178589	8694.764648	2359.715088	16.496702
651.461060	1144.586914	8617.397461	2248.214600	14.768576
651.793396	1064.943726	8710.693359	2257.316650	15.595240
652.125732	1089.974487	8715.245117	2270.969727	15.487913
652.458008	1076.321289	8599.193359	2400.674561	17.604357
652.790222	1069.494751	8744.826172	2248.214600	15.357250
653.122437	1099.076538	8580.989258	2348.337402	16.697079
653.454529	1144.586914	8628.774414	2284.622803	15.232594
653.786621	1099.076538	8683.387695	2261.867676	15.331532
654.118713	1162.791138	8569.611328	2321.031250	15.637481
654.450623	1096.801025	8590.090820	2220.908203	15.001517
654.782654	1162.791138	8499.070313	2293.724854	15.415630
655.114502	1140.035889	8417.151367	2309.653564	16.072546
655.446350	1201.474976	8351.161133	2321.031250	15.658817
655.778198	1178.719727	8239.661133	2220.908203	14.759909
656.109863	1124.107300	8262.416016	2257.316650	15.875040
656.441650	1180.995239	8278.344727	2355.164063	16.543764
656.773254	1171.893188	8244.211914	2220.908203	14.832688
657.104919	1140.035889	8205.528320	2248.214600	15.684381
657.436462	1135.484863	8112.231445	2330.133301	17.123289
657.767944	1042.188477	8328.406250	2300.551514	17.270456
658.099548	1044.463989	8362.539063	2396.123291	18.470148
658.430908	1069.494751	8367.089844	2384.745850	18.023075
658.762268	1119.556274	8512.723633	2380.194824	17.051399
659.093628	1037.637451	8867.704102	2323.306641	16.419645
659.424927	1094.525513	9081.603516	2455.286865	17.037035
659.756226	1119.556274	9586.769531	2475.766602	16.017199
660.087341	1092.250000	9743.780273	2507.624023	16.359812
660.418518	1103.627563	9686.891602	2507.624023	16.357372
660.749573	1140.035889	9627.728516	2528.103516	16.353888
661.080627	1140.035889	9527.605469	2625.950928	17.715681
661.411621	1119.556274	9552.636719	2516.726074	16.567728
661.742554	1089.974487	9104.358398	2384.745850	16.155594
662.073547	1099.076538	9038.368164	2339.235352	15.620522
662.404297	1151.413574	8956.450195	2387.021240	15.830901
662.735229	1153.689087	8631.050781	2339.235352	15.855141
663.065979	1094.525513	8378.467773	2355.164063	17.307091
663.396667	1135.484863	8264.691406	2373.368164	17.363550
663.727417	1119.556274	8028.037598	2339.235352	17.654808
664.057922	1151.413574	7952.945313	2270.969727	16.460354
664.388611	1124.107300	7927.914551	2325.582275	17.658863
664.719116	1133.209351	7805.036133	2243.663574	16.643930
665.049622	1146.862427	7661.678711	2255.041016	17.010128
665.380005	1083.147949	7659.402832	2191.326416	16.851210
665.710388	1053.566162	7545.626953	2359.715088	20.119173
666.040771	1115.005249	7679.882813	2298.276123	18.024265
666.371033	1149.138062	7538.800293	2218.632813	16.737892
666.701294	1171.893188	7520.596191	2195.877686	16.129034
667.031555	1130.933838	7627.545898	2218.632813	16.742556
667.361633	1128.658325	7345.381348	2202.704102	17.276718
667.691772	1149.138062	7516.045410	2209.530762	16.654753
668.021790	1064.943726	7616.167969	2298.276123	18.825983
668.351807	1133.209351	7477.361328	2164.020264	16.248207
668.681763	1130.933838	7531.973633	2211.806152	16.885885
669.011719	1126.382813	7493.290039	2186.775391	16.654751
669.341614	1112.729614	7720.842285	2336.959961	18.526173
669.671387	1130.933838	7634.372070	2339.235352	18.579426
670.001221	1142.311401	7593.413086	2314.204590	18.165785
670.330933	1101.352051	7486.463379	2286.898438	18.567356
670.660583	1117.280762	7634.372070	2200.428711	16.620113
670.990173	1146.862427	7468.259277	2311.929199	18.430527
671.319763	1146.862427	7399.993652	2336.959961	19.032024
671.649292	1146.862427	7297.595215	2282.347412	18.460970
671.978821	1071.770264	7577.484375	2230.010498	17.803431
672.308289	1110.454102	7377.238281	2259.592041	18.336964
672.637695	1149.138062	7231.604980	2321.031250	19.266743
672.966980	1092.250000	7202.023438	2211.806152	18.324020
673.296326	1194.648438	7067.767578	2193.602051	17.008911
673.625610	1087.698975	7242.982910	2255.041016	18.964876
673.954773	1110.454102	7076.869629	2211.806152	18.459190
674.283936	1187.821899	7154.237305	2245.938965	17.734552
674.613037	1126.382813	6958.542480	2266.418701	19.547405
674.942078	1121.831787	6901.654785	2223.183838	19.055117
675.271118	1108.178589	7074.594238	2257.316650	19.260107
675.600098	1096.801025	6992.675293	2204.979736	18.795834
675.928955	1135.484863	7095.073730	2316.480225	19.816725
676.257813	1155.964600	6935.787598	2216.357178	18.346453
676.586670	1096.801025	6988.124512	2309.653564	20.587099
676.915466	1110.454102	6922.134277	2154.918213	17.971809
677.244141	1203.750488	6897.103516	2291.449463	19.104717
677.572876	1103.627563	6862.970703	2214.081787	19.280918
677.901489	1110.454102	6892.552734	2184.500000	18.575365
678.230042	1087.698975	6906.205566	2157.193604	18.380913
678.558594	1064.943726	7022.257324	2170.846924	18.563791
678.887085	1092.250000	7133.757813	2282.347412	19.698683
679.215515	1092.250000	7067.767578	2204.979736	18.621479
679.543945	1137.760376	7231.604980	2250.489990	18.259895
679.872253	1140.035889	7270.289063	2284.622803	18.671120
680.200562	1064.943726	7279.391113	2352.888428	20.725008
680.528809	1174.168701	7404.544922	2418.878662	19.978088
680.856995	1140.035889	7670.780762	2434.807373	19.825785
681.185120	1162.791138	7668.504883	2387.021240	18.817768
681.513306	1112.729614	7827.791504	2364.266113	18.637751
681.841309	1064.943726	7784.556641	2450.735840	20.623095
682.169373	1180.995239	7531.973633	2405.225586	19.276247
682.497314	1194.648438	7661.678711	2368.817139	18.156227
682.825134	1128.658325	7593.413086	2323.306641	18.479406
683.153076	1101.352051	7388.616211	2412.052002	20.846905
683.480896	1087.698975	7322.625977	2277.796387	19.087593
683.808655	1169.617676	7247.533691	2245.938965	17.708723
684.136414	1062.668213	7038.186035	2302.827148	20.754000
684.464050	1121.831787	7022.257324	2241.387939	18.974159
684.791626	1037.637451	6765.123535	2193.602051	20.182756
685.119263	1069.494751	6853.868652	2204.979736	19.630215
685.446838	1167.342163	6614.938965	2339.235352	21.512114
685.774292	1101.352051	6610.387695	2227.734863	20.446098
686.101685	1149.138062	6576.254883	2264.143311	20.545076
686.429077	1137.760376	6662.725098	2209.530762	19.398682
686.756348	1176.444214	6539.846680	2216.357178	19.389053
687.083679	1069.494751	6373.733887	2293.724854	23.080221
687.410950	1101.352051	6412.417480	2257.316650	21.765211
687.738159	1212.852539	6655.898438	2268.694336	19.397995
688.065308	1094.525513	6592.183594	2243.663574	20.902319
688.392395	1185.546387	6628.592285	2325.582275	20.944815
688.719421	1160.515625	6696.857910	2223.183838	19.194410
689.046448	1178.719727	6635.418457	2261.867676	19.849876
689.373413	1158.240112	6558.050781	2311.929199	21.365362
689.700317	1103.627563	6535.295898	2179.948975	19.815668
690.027100	1142.311401	6348.703125	2259.592041	21.459789
690.353943	1117.280762	6498.887207	2175.397949	19.661736
690.680725	1103.627563	6462.479004	2202.704102	20.509554
691.007446	1108.178589	6205.345215	2179.948975	21.026789
691.334106	1069.494751	6173.487793	2152.642578	21.221577
691.660645	1108.178589	6096.120117	2143.540527	20.757299
691.987244	1151.413574	6139.354980	2175.397949	20.529198
692.313721	1062.668213	6034.681152	2132.163086	21.510300
692.640259	1096.801025	5907.251953	2136.714111	21.617786
692.966675	1103.627563	5875.394531	2111.683350	21.125420
693.293030	1117.280762	5934.558105	2098.030273	20.359001
693.619324	1126.382813	5850.363770	2082.101563	20.231215
693.945618	1133.209351	5820.782227	2011.560425	18.737865
694.271851	1099.076538	5750.241211	2043.417725	20.303328
694.598083	1121.831787	5631.914063	2068.448486	20.988901
694.924194	1128.658325	5759.343262	2075.274902	20.442257
695.250244	1169.617676	5804.853516	2120.785400	20.520374
695.576294	1101.352051	5802.578125	2032.040039	19.796707
695.902283	1121.831787	5641.016113	1988.805176	19.184288
696.228210	1101.352051	5666.046875	2109.407715	22.083748
696.554138	1096.801025	5825.333008	2214.081787	23.628490
696.879944	1108.178589	5745.689941	2204.979736	23.650640
697.205750	1071.770264	5882.221191	2207.255127	23.604540
697.531433	1044.463989	5923.180664	2116.234375	21.968285
697.857178	1049.015137	5886.772461	2166.295898	23.095015
698.182739	1130.933838	6057.436523	2275.520752	23.233253
698.508423	1092.250000	6464.754395	2234.561523	21.262180
698.833984	1126.382813	6742.368164	2177.673340	18.719610
699.159485	1103.627563	6969.920410	2293.724854	20.287041
699.484924	1160.515625	7124.655762	2462.113525	21.823730
699.810303	1078.596802	7279.391113	2427.980713	21.761469
700.135681	1110.454102	7058.665527	2423.429688	22.073452
700.460999	1183.270874	7129.206543	2393.847900	20.359739
700.786255	1165.066650	7008.604004	2382.470215	20.833334
701.111450	1192.372925	6826.562500	2375.643799	21.001617
701.436646	1085.423462	6796.980469	2289.173828	21.075695
701.761719	1137.760376	6416.968750	2339.235352	22.758619
702.086792	1149.138062	6123.426270	2207.255127	21.271729
702.411865	1101.352051	6039.232422	2120.785400	20.645161
702.736816	1140.035889	5848.088379	2057.070801	19.478008
703.061646	1105.903076	5752.516602	2093.479248	21.253677
703.386536	1105.903076	5518.138184	2061.621826	21.660648
703.711365	1137.760376	5540.893066	1913.713013	17.622740
704.036194	1074.045776	5404.361816	2011.560425	21.650028
704.360901	1165.066650	5286.034668	1986.529663	19.933741
704.685547	1108.178589	5142.677246	2038.866699	23.068247
705.010132	1146.862427	5124.472656	1961.498901	20.480551
705.334717	1042.188477	5097.166504	2070.723877	25.364759
705.659302	1092.250000	5060.758301	1945.570313	21.502295
705.983765	1101.352051	5081.237793	1995.631714	22.469984
706.308228	1108.178589	5017.523438	1963.774414	21.885914
706.632568	1165.066650	5063.033691	1968.325439	20.607121
706.956909	1046.739624	5056.207031	1963.774414	22.871737
707.281189	1099.076538	5049.380859	1972.876587	22.119816
707.605408	1128.658325	4983.390625	2002.458252	22.668238
707.929626	1151.413574	4937.880371	1970.601074	21.634615
708.253784	1149.138062	5138.125977	2043.417725	22.418711
708.577820	1137.760376	4960.635254	1922.815063	20.535715
708.901855	1094.525513	4969.737305	1956.947876	22.254845
709.225830	1076.321289	5022.074219	1984.254150	23.010384
709.549805	1158.240112	5058.482910	1970.601074	20.828472
709.873718	1174.168701	5035.727539	1931.917114	19.622864
710.197510	1117.280762	5088.064453	1950.121338	20.974211
710.521362	1110.454102	5088.064453	1897.784302	19.794050
710.845093	1158.240112	5279.208496	2032.040039	21.203753
711.168701	1174.168701	5304.238770	1934.192627	18.402203
711.492432	1153.689087	5392.984375	2045.693237	21.041330
711.816040	1167.342163	5443.045898	2095.754639	21.713676
712.139587	1146.862427	5370.229004	2052.519775	21.443966
712.463074	1158.240112	5322.443359	2061.621826	21.693987
712.786499	1146.862427	5440.770020	1991.080688	19.660839
713.109924	1194.648438	5365.678223	2029.764526	20.021820
713.433350	1103.627563	5299.687988	1993.356201	21.203903
713.756592	1085.423462	5197.289551	2043.417725	23.298285
714.079834	1085.423462	5179.085449	2100.305664	24.791548
714.403015	1151.413574	5078.962402	1975.152100	20.973349
714.726196	1126.382813	5099.441895	1913.713013	19.816725
715.049255	1051.290649	5147.228027	1961.498901	22.222219
715.372375	1176.444214	5038.002930	2057.070801	22.804953
715.695435	1155.964600	5106.268555	2013.835938	21.716591
716.018311	1126.382813	5001.594727	1938.743774	20.963007
716.341248	1140.035889	5103.993164	1904.610962	19.288176
716.664063	1096.801025	5154.054688	1897.784302	19.742006
716.987000	1178.719727	5042.554199	1991.080688	21.024734
717.309692	1165.066650	4865.063477	1954.672363	21.340714
717.632385	1153.689087	4972.013184	1872.753662	18.831942
717.955078	1064.943726	4956.084473	1922.815063	22.046783
718.277649	1135.484863	4776.318359	1820.416626	18.812498
718.600220	1130.933838	4751.287598	1861.375977	20.175987
718.922791	1194.648438	4803.624512	1838.620850	17.843632
719.245300	1183.270874	4610.205078	1843.171875	19.256310
719.567688	1119.556274	4553.316895	1774.906250	19.085487
719.890015	1105.903076	4532.837402	1877.304688	22.509962
720.212341	1119.556274	4505.531250	1838.620850	21.236559
720.534607	1185.546387	4341.693848	1793.110352	19.250177
720.856873	1115.005249	4246.121582	1847.722900	23.401165
721.179016	1101.352051	4257.499512	1836.345337	23.287672
721.501160	1085.423462	4223.366699	1727.120239	20.449596
721.823242	1135.484863	4277.979004	1781.732788	20.564810
722.145264	1069.494751	4189.233887	1931.917114	27.644053
722.467224	1174.168701	4227.917480	1695.262939	17.064083
722.789185	1115.005249	4205.162598	1770.355225	21.207659
723.111023	1117.280762	4105.039551	1699.814087	19.497335
723.432861	1099.076538	4091.386475	1688.436401	19.695816
723.754578	1099.076538	4080.008789	1768.079712	22.442751
724.076294	1140.035889	4041.324951	1765.804199	21.568630
724.397949	1089.974487	3948.028564	1740.773438	22.770700
724.719666	1099.076538	4132.345703	1736.222412	21.005255
725.041260	1135.484863	4093.661865	1790.834839	22.153847
725.362732	1142.311401	4105.039551	1743.048950	20.276501
725.684265	1103.627563	4102.764160	1779.457275	22.534142
726.005676	1149.138062	4086.835449	1763.528564	20.914017
726.327087	1074.045776	4234.744141	1733.946899	20.878334
726.648438	1049.015137	4045.875977	1758.977539	23.690203
726.969666	1112.729614	4029.947266	1761.253052	22.230888
727.290894	1171.893188	4234.744141	1752.151001	18.945023
727.612061	1115.005249	4105.039551	1761.253052	21.613392
727.933228	1176.444214	4227.917480	1772.630737	19.537663
728.254395	1101.352051	4218.815430	1795.385864	22.262774
728.575378	1190.097412	4221.091309	1727.120239	17.717714
728.896301	1105.903076	4373.550781	1804.488037	21.378834
729.217285	1101.352051	4446.367676	1843.171875	22.176872
729.538147	1158.240112	4444.092285	1822.692139	20.221605
729.858948	1110.454102	4250.672852	1813.590088	22.391306
730.179810	1165.066650	4287.081055	1777.181763	19.606415
730.500549	1067.219238	4175.580566	1802.212524	23.645683
730.821228	1074.045776	4314.387207	1763.528564	21.278091
731.141846	1135.484863	4414.510254	1834.069824	21.304653
731.462402	1049.015137	4362.173340	1806.763550	22.870880
731.782898	1210.577026	4425.888184	1756.702026	16.985138
732.103455	1140.035889	4510.082031	1777.181763	18.906147
732.423889	1137.760376	4412.234863	1836.345337	21.334261
732.744263	1094.525513	4453.194336	1779.457275	20.392952
733.064636	1151.413574	4434.990234	1772.630737	18.918917
733.384888	1069.494751	4364.448730	1824.967651	22.928177
733.705200	1094.525513	4357.622559	1793.110352	21.408644
734.025330	1217.403687	4432.714355	1793.110352	17.905165
734.345520	1101.352051	4382.652832	1765.804199	20.249657
734.665527	1058.117188	4341.693848	1822.692139	23.284821
734.985596	1137.760376	4362.173340	1722.569214	18.136908
735.305542	1044.463989	4214.264648	1829.518677	24.766689
735.625549	1051.290649	4080.008789	1747.599976	22.990231
735.945435	1108.178589	4341.693848	1847.722900	22.871218
736.265259	1119.556274	4143.723145	1733.946899	20.316029
736.585083	1151.413574	3982.161377	1692.987427	19.131830
736.904785	1058.117188	4025.396240	1672.507813	20.705523
737.224426	1151.413574	3963.957275	1829.518677	24.110029
737.544128	1110.454102	3959.406250	1688.436401	20.287540
737.863708	1087.698975	4016.294189	1692.987427	20.668219
738.183289	1103.627563	3861.558838	1665.681274	20.379541
738.502808	1137.760376	4068.631104	1811.314575	22.981369
738.822205	1151.413574	4011.743164	1720.293701	19.888622
739.141541	1133.209351	3888.864990	1681.609863	19.900908
739.460938	1178.719727	4107.314941	1804.488037	21.367525
739.780212	1094.525513	4136.896973	1784.008301	22.662676
740.099426	1219.679199	4130.070313	1802.212524	20.015636
740.418640	1119.556274	4004.916504	1770.355225	22.555204
740.737793	1083.147949	4045.875977	1758.977539	22.811058
741.056885	1089.974487	4020.845215	1745.324463	22.360249
741.375977	1101.352051	4109.590332	1715.742676	20.423603
741.694946	1151.413574	4155.101074	1665.681274	17.121212
742.013855	1160.515625	3988.988037	1708.916138	19.388577
742.332703	1117.280762	4016.294189	1724.844727	20.957611
742.651550	1171.893188	3827.426025	1733.946899	21.165384
742.970398	1112.729614	3745.507324	1672.507813	21.261885
743.289124	1119.556274	3850.181152	1727.120239	22.249996
743.607788	1180.995239	3684.068115	1747.599976	22.636368
743.926453	1083.147949	3829.701416	1663.405762	21.126762
744.245056	1194.648438	3788.742188	1672.507813	18.421053
744.563599	1162.791138	3686.343750	1658.854614	19.657345
744.882141	1108.178589	3702.272461	1765.804199	25.350882
745.200500	1044.463989	3624.904541	1661.130127	23.897709
745.518860	1176.444214	3636.282227	1686.160889	20.721556
745.837219	1133.209351	3615.802490	1595.140137	18.606785
746.155518	1069.494751	3704.547852	1690.711914	23.575129
746.473755	1155.964600	3583.945313	1692.987427	22.118084
746.791992	1155.964600	3538.434814	1642.926025	20.439350
747.110107	1110.454102	3579.394287	1622.446289	20.737326
747.428162	1140.035889	3581.669678	1679.334351	22.087606
747.746216	1126.382813	3554.363525	1645.201538	21.368322
748.064148	1080.872437	3579.394287	1695.262939	24.590158
748.382080	1124.107300	3731.854004	1692.987427	21.815008
748.700073	1174.168701	3611.251465	1563.282837	15.966390
749.017822	1128.658325	3643.108887	1622.446289	19.638006
749.335632	1155.964600	3577.118652	1738.497925	24.060152
749.653320	1110.454102	3622.629150	1692.987427	23.188404
749.971008	1203.750488	3684.068115	1752.151001	22.110092
750.288696	1144.586914	3640.833252	1713.467163	22.789427
750.606262	1112.729614	3529.332764	1592.864502	19.868174
750.923828	1121.831787	3656.761963	1706.640625	23.070017
751.241272	1064.943726	3611.251465	1649.752563	22.966936
751.558716	1149.138062	3558.914551	1683.885376	22.190744
751.876038	1137.760376	3492.924316	1713.467163	24.444445
752.193481	1135.484863	3599.874023	1724.844727	23.915049
752.510681	1096.801025	3508.853027	1697.538574	24.905663
752.827942	1126.382813	3422.383301	1695.262939	24.777004
753.145081	1083.147949	3602.149414	1649.752563	22.493223
753.462219	1089.974487	3574.843262	1681.609863	23.809523
753.779297	1162.791138	3472.444824	1642.926025	20.788176
754.096375	1167.342163	3474.720215	1615.619751	19.428009
754.413330	1196.923950	3458.791504	1658.854614	20.422533
754.730286	1119.556274	3522.506104	1667.956787	22.821972
755.047119	1124.107300	3588.496338	1670.232300	22.160664
755.363892	1101.352051	3465.618164	1670.232300	24.061600
755.680725	1196.923950	3474.720215	1608.793213	18.081917
755.997498	1144.586914	3385.974854	1636.099487	21.928938
756.314148	1180.995239	3397.352539	1642.926025	20.841890
756.630737	1226.505737	3345.015625	1567.833862	16.111710
756.947327	1169.617676	3376.872803	1649.752563	21.752577
757.263855	1119.556274	3440.587402	1695.262939	24.803917
757.580261	1108.178589	3442.863037	1679.334351	24.463938
757.896729	1206.026001	3315.433838	1620.170776	19.633226
758.213074	1128.658325	3411.005615	1661.130127	23.330009
758.529419	1124.107300	3472.444824	1665.681274	23.062017
758.845642	1144.586914	3449.689453	1695.262939	23.889437
759.161865	1076.321289	3442.863037	1720.293701	27.211538
759.478149	1140.035889	3470.169189	1681.609863	23.242189
759.794189	1142.311401	3549.812500	1677.058838	22.211723
760.110229	1130.933838	3602.149414	1633.823975	20.349909
760.426270	1074.045776	3638.557861	1690.711914	24.046137
760.742249	1196.923950	3479.271240	1713.467163	22.632105
761.058105	1137.760376	3659.037354	1642.926025	20.036104
761.374023	1083.147949	3517.955078	1754.426514	27.570091
761.689819	1087.698975	3513.404053	1670.232300	24.015011
762.005554	1101.352051	3599.874023	1711.191650	24.408014
762.321289	1121.831787	3486.097900	1702.089600	24.542830
762.636902	1046.739624	3593.047363	1747.599976	27.524574
762.952515	1108.178589	3622.629150	1663.405762	22.081450
763.268127	1112.729614	3661.312988	1720.293701	23.839285
763.583618	1101.352051	3740.956299	1795.385864	26.293100
763.899048	1105.903076	4080.008789	1854.549438	25.172150
764.214478	1140.035889	4687.572754	1911.437500	21.744711
764.529785	1074.045776	4912.849609	1991.080688	23.888559
764.845093	1117.280762	5012.972168	2054.795166	24.065418
765.160400	1190.097412	4862.788086	2088.927979	24.473352
765.475586	1055.841675	4726.256836	1991.080688	25.480471
765.790771	1069.494751	4705.776855	2054.795166	27.096369
766.105835	1128.658325	4453.194336	1886.406738	22.792606
766.420837	1103.627563	4357.622559	1963.774414	26.433563
766.735840	1133.209351	4205.162598	1847.722900	23.259260
767.050842	1108.178589	4016.294189	1859.100464	25.821596
767.365662	1151.413574	3950.304199	1758.977539	21.707314
767.680542	1078.596802	3688.619141	1745.324463	25.544901
767.995300	1108.178589	3688.619141	1670.232300	21.781309
768.309998	1110.454102	3636.282227	1681.609863	22.612614
768.624817	1103.627563	3649.935303	1672.507813	22.341379
768.939392	1192.372925	3390.525879	1638.375000	20.289858
769.254028	1080.872437	3627.180176	1583.762451	19.749775
769.568481	1135.484863	3492.924316	1692.987427	23.648647
769.882935	1092.250000	3517.955078	1597.415649	20.825518
770.197388	1099.076538	3397.352539	1640.650513	23.564360
770.511841	1115.005249	3351.842041	1649.752563	23.906406
770.826172	1096.801025	3306.331787	1624.721802	23.892891
771.140442	1023.984375	3299.505127	1613.344238	25.900000
771.454651	1117.280762	3190.280273	1667.956787	26.564215
771.768860	1119.556274	3215.310791	1661.130127	25.841475
772.082886	1101.352051	3267.647949	1563.282837	21.323532
772.397034	1092.250000	3283.576416	1604.242188	23.364487
772.711060	1060.392700	3197.106689	1611.068726	25.772100
773.025024	1058.117188	3258.545898	1626.997314	25.853149
773.338928	1128.658325	3244.892578	1551.905151	19.999998
773.652771	1140.035889	3149.320801	1515.496826	18.686296
773.966614	1142.311401	3008.238525	1601.966675	24.634150
774.280457	1092.250000	3021.891602	1517.772339	22.051884
774.594116	1121.831787	3019.616211	1545.078613	22.302155
774.907776	1130.933838	3003.687500	1545.078613	22.114216
775.221375	1112.729614	3026.442627	1565.558350	23.662312
775.534912	1078.596802	2978.656738	1565.558350	25.628746
775.848450	1169.617676	3083.330566	1558.731689	20.332935
776.161926	1112.729614	3042.371338	1513.221313	20.754719
776.475342	1115.005249	3035.544678	1631.548462	26.895737
776.788696	1101.352051	2910.391113	1515.496826	22.893082
777.101990	1049.015137	3008.238525	1576.935913	26.945410
777.415283	1121.831787	3065.126465	1595.140137	24.355974
777.728516	1167.342163	2937.697266	1624.721802	25.835474
778.041626	1174.168701	2951.350586	1583.762451	23.047373
778.354736	1158.240112	2851.227539	1547.354126	22.983870
778.667725	1053.566162	2967.279053	1549.629639	25.921520
778.980774	1153.689087	2953.625977	1558.731689	22.503157
779.293640	1151.413574	3021.891602	1463.159912	16.666666
779.606567	1128.658325	2949.074951	1447.231201	17.499998
779.919434	1101.352051	2873.982666	1469.986450	20.795895
780.232239	1101.352051	2889.911377	1529.150024	23.918579
780.544983	1142.311401	2921.768799	1444.955688	17.007673
780.857666	1096.801025	2880.809326	1524.598877	23.979589
781.170227	1133.209351	2819.370361	1561.007324	25.371122
781.482849	1078.596802	2801.166016	1504.119263	24.702778
781.795410	1117.280762	2705.594238	1540.527588	26.647562
782.107910	1108.178589	2921.768799	1538.252075	23.713928
782.420288	1167.342163	2905.840088	1515.496826	20.026176
782.732666	1151.413574	2719.247314	1472.261963	20.464439
783.044983	1210.577026	2712.420898	1483.639526	18.181816
783.357300	1105.903076	2753.380127	1513.221313	24.723759
783.669495	1135.484863	2682.839111	1483.639526	22.499998
783.981689	1121.831787	2712.420898	1533.701050	25.894133
784.293762	1233.332275	2737.451416	1429.027100	13.010593
784.605835	1099.076538	2726.073975	1438.129150	20.839161
784.917908	1162.791138	2696.492188	1510.945801	22.700294
785.229858	1167.342163	2587.267090	1504.119263	23.717951
785.541748	1185.546387	2712.420898	1485.915039	19.672125
785.853577	1140.035889	2635.052979	1476.812988	22.526638
786.165405	1146.862427	2616.848877	1495.017212	23.684217
786.477173	1074.045776	2548.583252	1424.476074	23.765438
786.788879	1085.423462	2696.492188	1561.007324	29.519775
787.100525	1115.005249	2676.012451	1465.435425	22.448978
787.412109	1135.484863	2641.879639	1520.047852	25.528700
787.723694	1126.382813	2653.257324	1529.150024	26.378540
788.035156	1074.045776	2660.083740	1497.292725	26.685802
788.346558	1103.627563	2732.900391	1515.496826	25.279331
788.658081	1128.658325	2646.430664	1476.812988	22.938530
788.969360	1096.801025	2776.135498	1483.639526	23.035227
789.280640	1128.658325	2851.227539	1517.772339	22.589165
789.591919	1135.484863	2828.472412	1567.833862	25.537636
789.903076	1096.801025	2867.156250	1506.394775	23.136246
790.214172	1133.209351	2958.177002	1456.333252	17.705732
790.525269	1049.015137	2807.992676	1533.701050	27.554979
790.836365	1108.178589	2666.910400	1481.364014	23.941607
791.147339	1096.801025	2764.757813	1483.639526	23.192358
791.458191	1137.760376	2598.644775	1410.822876	18.691589
791.769104	1124.107300	2569.062988	1456.333252	22.992121
792.079895	1083.147949	2553.134277	1424.476074	23.219816
792.390686	1210.577026	2553.134277	1529.150024	23.728821
792.701416	1199.199463	2580.440674	1485.915039	20.757820
793.012085	1169.617676	2537.205811	1419.924927	18.302824
793.322693	1142.311401	2430.256104	1406.271851	20.494703
793.633240	1130.933838	2498.521729	1472.261963	24.958405
793.943787	1194.648438	2471.215576	1467.710938	21.390375
794.254272	1153.689087	2507.624023	1438.129150	21.008400
794.564636	1137.760376	2503.072998	1413.098389	20.166664
794.875000	1074.045776	2525.828125	1451.782227	26.018806
795.185303	1153.689087	2425.705078	1378.965576	17.710194
795.495544	1089.974487	2400.674561	1419.924927	25.173603
795.805786	1103.627563	2473.491211	1406.271851	22.093023
796.115906	1149.138062	2516.726074	1397.169800	18.136436
796.426025	1105.903076	2446.184814	1426.751587	23.938885
796.736023	1071.770264	2635.052979	1369.863525	19.068417
797.045959	1078.596802	2682.839111	1533.701050	28.368797
797.355896	1071.770264	2528.103516	1474.537476	27.656254
797.665833	1121.831787	2616.848877	1431.302612	20.700153
797.975708	1169.617676	2625.950928	1410.822876	16.562500
798.285461	1110.454102	2482.593262	1431.302612	23.383089
798.595154	1092.250000	2425.705078	1403.996338	23.378841
798.904846	1094.525513	2471.215576	1394.894287	21.818184
799.214478	1128.658325	2425.705078	1442.680176	24.210527
799.524109	1210.577026	2450.735840	1435.853638	18.165142
799.833557	1128.658325	2446.184814	1467.710938	25.734026
800.143005	1185.546387	2441.633789	1383.516602	15.760863
800.452393	1108.178589	2418.878662	1344.832764	18.055555
800.761780	1135.484863	2407.500977	1408.547363	21.466906
801.071106	1174.168701	2471.215576	1435.853638	20.175442
801.380371	1076.321289	2393.847900	1454.057739	28.670118
801.689575	1137.760376	2346.062012	1376.690063	19.774010
801.998718	1117.280762	2493.970703	1463.159912	25.123968
802.307800	1169.617676	2311.929199	1488.190552	27.888441
802.616882	1108.178589	2380.194824	1440.404663	26.118069
802.925903	1128.658325	2389.296875	1347.108276	17.328516
803.234863	1174.168701	2346.062012	1401.720825	19.417479
803.543701	1099.076538	2377.919189	1385.792114	22.419926
803.852539	1108.178589	2316.480225	1385.792114	22.975515
804.161316	1062.668213	2275.520752	1449.506714	31.894932
804.470032	1117.280762	2264.143311	1444.955688	28.571421
804.778809	1119.556274	2257.316650	1463.159912	30.200001
805.087341	1133.209351	2361.990479	1338.006226	16.666668
805.395935	1192.372925	2361.990479	1392.618774	17.120626
805.704468	1060.392700	2412.052002	1401.720825	25.252527
806.012939	1101.352051	2261.867676	1442.680176	29.411764
806.321350	1183.270874	2316.480225	1458.608887	24.297188
806.629761	1117.280762	2359.715088	1410.822876	23.626369
806.938049	1099.076538	2380.194824	1385.792114	22.380102
807.246277	1101.352051	2402.949951	1401.720825	23.076925
807.554504	1069.494751	2270.969727	1447.231201	31.439394
807.862671	1135.484863	2325.582275	1419.924927	23.900570
808.170715	1165.066650	2421.154053	1479.088501	25.000000
808.478821	1169.617676	2302.827148	1388.067749	19.277113
808.786804	1137.760376	2398.398926	1392.618774	20.216612
809.094727	1140.035889	2402.949951	1463.159912	25.585590
809.402649	1146.862427	2346.062012	1483.639526	28.083490
809.710510	1146.862427	2316.480225	1422.200562	23.540863
810.018311	1176.444214	2148.091553	1333.455200	16.159256
810.326050	1167.342163	2200.428711	1363.036987	18.942732
810.633667	1153.689087	2209.530762	1410.822876	24.353441
810.941345	1142.311401	2236.836914	1433.578125	26.611233
811.248901	1119.556274	2161.744873	1399.445313	26.855892
811.556396	1242.434326	2261.867676	1340.281738	9.598216
811.863892	1153.689087	2189.051025	1385.792114	22.417574
812.171326	1094.525513	2123.060791	1401.720825	29.867260
812.478699	1058.117188	2204.979736	1342.557251	24.801582
812.786011	1099.076538	2207.255127	1360.761475	23.613968
813.093262	1194.648438	2150.367188	1399.445313	21.428572
813.400391	1080.872437	2111.683350	1360.761475	27.152317
813.707642	1135.484863	2209.530762	1315.250977	16.737284
814.014709	1133.209351	2118.509766	1349.383789	21.939953
814.321716	1126.382813	2179.948975	1303.873413	16.846649
814.628723	1119.556274	2127.612061	1351.659302	23.024820
814.935669	1071.770264	2152.642578	1392.618774	29.684219
815.242554	1133.209351	2111.683350	1340.281738	21.162788
815.549438	1089.974487	2152.642578	1358.485962	25.267672
815.856201	1174.168701	2082.101563	1385.792114	23.308268
816.162964	1055.841675	2093.479248	1358.485962	29.166666
816.469604	1167.342163	2136.714111	1338.006226	17.605633
816.776184	1158.240112	2113.958740	1324.353149	17.380957
817.082825	1119.556274	2166.295898	1390.343262	25.869564
817.389343	1192.372925	2166.295898	1376.690063	18.925228
817.695801	1074.045776	2072.999512	1376.690063	30.296127
818.002197	1080.872437	2225.459229	1497.292725	36.381714
818.308533	1124.107300	2170.846924	1374.414551	23.913038
818.614868	1135.484863	2138.989502	1317.526489	18.140587
818.921143	1210.577026	2207.255127	1340.281738	13.013701
819.227356	1128.658325	2195.877686	1440.404663	29.211084
819.533447	1080.872437	2218.632813	1403.996338	28.399996
819.839539	1110.454102	2314.204590	1410.822876	24.952744
820.145569	1099.076538	2407.500977	1458.608887	27.478266
820.451538	1128.658325	2387.021240	1454.057739	25.858948
820.757568	1069.494751	2532.654541	1435.853638	25.038885
821.063416	1121.831787	2678.288086	1454.057739	21.345022
821.369263	1130.933838	2819.370361	1563.282837	25.606470
821.675049	1140.035889	2764.757813	1538.252075	24.509806
821.980713	1103.627563	3033.269287	1692.987427	30.542450
822.286438	1130.933838	3308.607178	1667.956787	24.660400
822.592102	983.024963	4059.529053	1786.283813	26.109467
822.897583	1128.658325	5579.577148	2284.622803	25.971367
823.203125	1142.311401	8073.547852	2992.309814	26.690742
823.508545	1085.423462	9791.566406	3349.566650	26.006271
823.813965	1165.066650	10553.865234	3624.904541	26.199709
824.119263	1171.893188	9673.239258	3263.096924	24.598501
824.424622	1096.801025	8196.425781	2990.034424	26.666668
824.729858	1155.964600	6963.093750	2598.644775	24.843260
825.035095	1121.831787	6105.222168	2500.797363	27.671232
825.340149	1069.494751	5529.515625	2198.153076	25.306122
825.645264	1151.413574	4956.084473	2136.714111	25.897129
825.950256	1105.903076	4667.093262	1936.468262	23.322685
826.255310	1171.893188	4225.642090	2032.040039	28.166914
826.560242	1171.893188	4059.529053	1838.620850	23.089050
826.865112	1062.668213	3932.099854	1797.661377	25.614590
827.169922	1103.627563	3765.986816	1738.497925	23.846155
827.474670	1092.250000	3836.528076	1806.763550	26.036486
827.779419	1233.332275	4273.428223	1856.824951	20.508980
828.084045	1060.392700	4735.358887	2016.111450	26.006191
828.388672	1149.138062	5229.146973	2179.948975	25.264919
828.693176	1169.617676	5258.728516	2216.357178	25.598217
828.997681	1112.729614	4815.001953	2102.581299	26.736328
829.302124	1208.301514	4077.733398	2018.386963	28.231562
829.606567	1096.801025	3750.058350	1854.549438	28.559175
829.910828	1094.525513	3502.026611	1729.395752	26.370508
830.215149	1096.801025	3183.453613	1692.987427	28.571426
830.519348	1162.791138	3033.269287	1570.109375	21.776155
830.823547	1149.138062	2858.054199	1608.793213	26.897467
831.127686	1144.586914	2691.941162	1535.976563	25.294121
831.431763	1067.219238	2603.195801	1513.221313	29.037037
831.735779	1060.392700	2493.970703	1510.945801	31.428572
832.039734	1115.005249	2396.123291	1465.435425	27.353464
832.343628	1119.556274	2393.847900	1456.333252	26.428564
832.647461	1112.729614	2357.439453	1385.792114	21.937843
832.951233	1037.637451	2389.296875	1433.578125	29.292933
833.255127	1151.413574	2387.021240	1442.680176	23.572742
833.558777	1133.209351	2348.337402	1454.057739	26.404491
833.862366	1124.107300	2391.572266	1410.822876	22.621183
834.165955	1119.556274	2619.124512	1517.772339	26.555382
834.469482	1146.862427	3015.064941	1654.303589	27.162001
834.773010	1187.821899	3431.485352	1756.702026	25.354965
835.076416	1176.444214	3659.037354	1715.742676	21.723190
835.379822	1210.577026	3643.108887	1868.202637	27.034616
835.683105	1146.862427	3408.730225	1749.875488	26.659962
835.986389	1174.168701	3203.933350	1599.691162	20.964128
836.289612	1185.546387	2914.942139	1595.140137	23.684212
836.592773	1155.964600	2746.553711	1563.282837	25.608011
836.895874	1103.627563	2598.644775	1504.119263	26.788433
837.198914	1171.893188	2541.756836	1447.231201	20.099665
837.501892	1176.444214	2380.194824	1401.720825	18.714558
837.804871	1115.005249	2355.164063	1415.373901	24.220177
838.107666	1140.035889	2243.663574	1365.312500	20.412374
838.410583	1112.729614	2118.509766	1376.690063	26.244349
838.713379	1055.841675	2138.989502	1328.904175	25.210087
839.016052	1124.107300	2111.683350	1256.087524	13.364057
839.318787	1083.147949	1913.713013	1390.343262	36.986301
839.621338	1117.280762	1975.152100	1265.189575	17.241375
839.923889	1110.454102	1847.722900	1324.353149	29.012356
840.226440	1146.862427	1977.427612	1294.771362	17.808228
840.528931	1135.484863	1970.601074	1249.260864	13.623972
840.831299	1142.311401	2136.714111	1383.516602	24.256290
841.133606	1187.821899	2168.571289	1335.730713	15.081203
841.435913	1176.444214	2161.744873	1465.435425	29.330257
841.738220	1119.556274	2104.856689	1358.485962	24.249426
842.040405	1185.546387	2125.336426	1381.241089	20.823236
842.342529	1167.342163	2054.795166	1381.241089	24.102564
842.644592	1053.566162	1879.580200	1342.557251	34.986221
842.946594	1153.689087	1852.273926	1269.740601	16.612371
843.248596	1130.933838	1895.508789	1319.802124	24.702391
843.550598	1137.760376	1872.753662	1308.424438	23.219812
843.852478	1133.209351	1809.039063	1272.016113	20.538719
844.154236	1130.933838	1849.998413	1276.567139	20.253160
844.455994	1087.698975	1718.018188	1233.332275	23.104691
844.757690	1046.739624	1731.671387	1249.260864	29.568090
845.059326	1103.627563	1738.497925	1326.628662	35.125454
845.360962	1074.045776	1706.640625	1160.515625	13.669072
845.662476	1128.658325	1697.538574	1246.985352	20.799988
845.963989	1062.668213	1692.987427	1240.158813	28.158844
846.265381	1115.005249	1702.089600	1237.883301	20.930222
846.566772	1119.556274	1586.037964	1299.322388	38.536587
846.868042	1060.392700	1642.926025	1297.046875	40.625004
847.169373	1201.474976	1722.569214	1208.301514	1.310039
847.470581	1187.821899	1663.405762	1276.567139	18.660271
847.771729	1094.525513	1656.579102	1217.403687	21.862360
848.072815	1140.035889	1595.140137	1240.158813	21.999998
848.373901	1115.005249	1570.109375	1203.750488	19.499985
848.674866	1126.382813	1545.078613	1258.363037	31.521746
848.975891	1124.107300	1601.966675	1249.260864	26.190458
849.276794	1149.138062	1624.721802	1260.638550	23.444975
849.577637	1053.566162	1595.140137	1262.914063	38.655457
849.878357	1099.076538	1570.109375	1224.230225	26.570055
850.179077	1140.035889	1565.558350	1199.199463	13.903749
850.479736	1110.454102	1631.548462	1217.403687	20.524035
850.780396	1130.933838	1595.140137	1237.883301	23.039209
851.080994	1144.586914	1581.486938	1185.546387	9.375022
851.381470	1094.525513	1604.242188	1201.474976	20.982140
851.681946	1074.045776	1510.945801	1217.403687	32.812519
851.982361	1140.035889	1574.660400	1160.515625	4.712053
852.282715	1162.791138	1581.486938	1262.914063	23.913048
852.583008	1121.831787	1647.477051	1199.199463	14.718610
852.883240	1190.097412	1631.548462	1233.332275	9.793807
853.183411	1153.689087	1574.660400	1251.536499	23.243250
853.483521	1153.689087	1545.078613	1206.026001	13.372078
853.783630	1092.250000	1617.895264	1196.923950	19.913420
854.083679	1210.577026	1567.833862	1242.434326	8.917198
854.383667	1099.076538	1615.619751	1269.740601	33.039650
854.683533	1174.168701	1535.976563	1226.505737	14.465423
854.983337	1085.423462	1586.037964	1183.270874	19.545462
855.283203	1137.760376	1565.558350	1262.914063	29.255325
855.582886	1158.240112	1522.323364	1317.526489	43.749989
855.882629	1096.801025	1549.629639	1124.107300	6.030157
856.182312	1058.117188	1513.221313	1201.474976	31.499998
856.481873	1064.943726	1565.558350	1203.750488	27.727268
856.781372	1121.831787	1465.435425	1228.781250	31.125824
857.080872	1149.138062	1447.231201	1180.995239	10.686988
857.380310	1112.729614	1556.456177	1210.577026	22.051285
857.679688	1080.872437	1545.078613	1215.128052	28.921549
857.979004	1085.423462	1581.486938	1246.985352	32.568794
858.278259	1076.321289	1581.486938	1260.638550	36.486500
858.577454	1130.933838	1533.701050	1135.484863	1.129939
858.876648	1144.586914	1522.323364	1242.434326	25.903620
859.175720	1146.862427	1588.313477	1265.189575	26.804138
859.474792	1167.342163	1510.945801	1256.087524	25.827829
859.773743	1135.484863	1506.394775	1142.311401	1.840484
860.072693	1187.821899	1526.874512	1244.709839	16.778500
860.371521	1167.342163	1572.384888	1190.097412	5.617987
860.670349	1144.586914	1506.394775	1231.056763	23.899384
860.969116	1219.679199	1517.772339	1215.128052	-1.526754
861.267883	1126.382813	1495.017212	1153.689087	7.407413
861.566589	1160.515625	1501.843750	1190.097412	8.666672
861.865112	1146.862427	1488.190552	1167.342163	6.000014
862.163635	1103.627563	1617.895264	1187.821899	16.371695
862.462158	1074.045776	1417.649414	1128.658325	15.894054
862.760620	1128.658325	1513.221313	1162.791138	8.875740
863.059021	1071.770264	1565.558350	1167.342163	19.354841
863.357361	1101.352051	1495.017212	1256.087524	39.306366
863.655640	1142.311401	1538.252075	1155.964600	3.448294
863.953857	1174.168701	1549.629639	1187.821899	3.636383
864.251953	1126.382813	1565.558350	1233.332275	24.352327
864.550110	1194.648438	1429.027100	1196.923950	0.970870
864.848206	1158.240112	1510.945801	1242.434326	23.870955
865.146179	1101.352051	1515.496826	1317.526489	52.197796
865.444092	1126.382813	1547.354126	1235.607788	25.945942
865.741943	1101.352051	1524.598877	1194.648438	22.043020
866.039795	1124.107300	1567.833862	1153.689087	6.666670
866.337646	1153.689087	1463.159912	1174.168701	6.617623
866.635376	1133.209351	1558.731689	1221.954712	20.855629
866.933044	1064.943726	1490.466064	1178.719727	26.737963
867.230652	1110.454102	1574.660400	1201.474976	19.607849
867.528198	1121.831787	1561.007324	1224.230225	23.316061
867.825745	1094.525513	1551.905151	1169.617676	16.417908
868.123230	1146.862427	1465.435425	1140.035889	-2.142849
868.420593	1096.801025	1474.537476	1319.802124	59.036160
868.717896	1174.168701	1526.874512	1160.515625	-3.870953
869.015198	1085.423462	1465.435425	1176.444214	23.952076
869.312439	1119.556274	1474.537476	1226.505737	30.128204
869.609619	1149.138062	1526.874512	1162.791138	3.614445
869.906738	1155.964600	1442.680176	1201.474976	15.873004
870.203796	1039.912964	1433.578125	1210.577026	43.352596
870.500854	1128.658325	1508.670288	1201.474976	19.161673
870.797791	1110.454102	1542.803101	1176.444214	15.263159
871.094666	1135.484863	1526.874512	1224.230225	22.674427
871.391602	1094.525513	1447.231201	1203.750488	30.967739
871.688293	1124.107300	1485.915039	1217.403687	25.786179
871.985107	1153.689087	1538.252075	1221.954712	17.751480
872.281738	1146.862427	1576.935913	1237.883301	21.164028
872.578369	1105.903076	1490.466064	1276.567139	44.378700
872.874939	1128.658325	1506.394775	1203.750488	19.879513
873.171509	1153.689087	1485.915039	1137.760376	-4.794541
873.467957	1112.729614	1479.088501	1190.097412	21.118034
873.764343	1044.463989	1561.007324	1178.719727	25.991186
874.060669	1149.138062	1524.598877	1212.852539	16.969675
874.356995	1067.219238	1456.333252	1242.434326	45.029240
874.653198	1085.423462	1444.955688	1171.893188	24.050619
874.949463	1060.392700	1476.812988	1196.923950	32.786888
875.245544	1137.760376	1488.190552	1208.301514	20.129869
875.541626	1167.342163	1508.670288	1178.719727	3.333321
875.837646	1192.372925	1549.629639	1162.791138	-8.280261
876.133606	1201.474976	1508.670288	1208.301514	2.222214
876.429565	1199.199463	1510.945801	1217.403687	5.839435
876.725403	1110.454102	1533.701050	1194.648438	19.892485
877.021179	1153.689087	1579.211426	1187.821899	8.021392
877.316956	1140.035889	1490.466064	1235.607788	27.272738
877.612610	1110.454102	1563.282837	1180.995239	15.577885
877.908203	1105.903076	1533.701050	1169.617676	14.893619
878.203857	1067.219238	1558.731689	1212.852539	29.629625
878.499390	1105.903076	1542.803101	1217.403687	25.520853
878.794800	1128.658325	1476.812988	1265.189575	39.215691
879.090271	1089.974487	1613.344238	1228.781250	26.521740
879.385559	1110.454102	1504.119263	1215.128052	26.589590
879.680847	1051.290649	1692.987427	1199.199463	23.049643
879.976196	1083.147949	1672.507813	1312.975464	38.996124
880.271301	1137.760376	1758.977539	1180.995239	6.959702
880.566467	1137.760376	1736.222412	1267.465088	21.673006
880.861572	1146.862427	1770.355225	1272.016113	20.072996
881.156555	1103.627563	2018.386963	1356.210449	27.611948
881.451477	1151.413574	2145.816162	1363.036987	21.281462
881.746460	1087.698975	2666.910400	1549.629639	29.250717
882.041321	1176.444214	3390.525879	1699.814087	23.638239
882.336121	1185.546387	4084.559814	1868.202637	23.547882
882.630798	1128.658325	4689.848145	2059.346436	26.134190
882.925537	1069.494751	4637.511230	1936.468262	24.298471
883.220215	1146.862427	4387.204102	1995.631714	26.193819
883.514771	1085.423462	4196.060547	1929.641602	27.139717
883.809326	1080.872437	3827.426025	1838.620850	27.589062
884.103760	1142.311401	3590.771729	1761.253052	25.278809
884.398132	1108.178589	3408.730225	1704.365112	25.914936
884.692505	1140.035889	3144.769775	1672.507813	26.560728
884.986816	1130.933838	2949.074951	1515.496826	21.151438
885.281067	1078.596802	2844.401123	1558.731689	27.190720
885.575256	1083.147949	2660.083740	1517.772339	27.561325
885.869385	1149.138062	2393.847900	1456.333252	24.680065
886.163452	1140.035889	2291.449463	1340.281738	17.391306
886.457458	1094.525513	2095.754639	1272.016113	17.727270
886.751465	1169.617676	2102.581299	1322.077637	16.341469
887.045410	1203.750488	2007.009399	1281.118164	9.631723
887.339233	1153.689087	1897.784302	1301.597900	19.877672
887.632996	1190.097412	1774.906250	1272.016113	14.007774
887.926758	1119.556274	1722.569214	1326.628662	34.339626
888.220398	1142.311401	1774.906250	1267.465088	19.784178
888.514099	1144.586914	1663.405762	1171.893188	5.263162
888.807678	1233.332275	1711.191650	1231.056763	-0.476189
889.101196	1146.862427	1611.068726	1233.332275	18.627460
889.394653	1117.280762	1611.068726	1219.679199	20.737329
889.688049	1096.801025	1540.527588	1228.781250	29.743593
889.981384	1142.311401	1583.762451	1153.689087	2.577338
890.274719	1178.719727	1481.364014	1228.781250	16.541374
890.567932	1183.270874	1488.190552	1142.311401	-13.432873
>>>>>End Processed Spectral Data<<<<<
