Jaz Data File
++++++++++++++++++++++++++++++++++++
Date: Wed Feb 07 06:46:48 2024
User: jaz
Dark Spectrum Present: Yes
Reference Spectrum Present: Yes
Processed Spectrum Present: Yes
Spectrometers: JAZA3692
Integration Time (usec): 47000 (JAZA3692)
Spectra Averaged: 1 (JAZA3692)
Boxcar Smoothing: 0 (JAZA3692)
Correct for Electrical Dark: No (JAZA3692)
Strobe/Lamp Enabled: Yes (JAZA3692)
Correct for Detector Non-linearity: No (JAZA3692)
Correct for Stray Light: No (JAZA3692)
Number of Pixels in Processed Spectrum: 2048
>>>>>Begin Processed Spectral Data<<<<<
W	D	R	S	P
190.244385	0.000000	0.000000	0.000000	0.000000
190.627136	0.000000	0.000000	0.000000	0.000000
191.009842	1044.463989	1105.903076	978.473938	-107.407280
191.392532	964.820801	1023.984375	994.402588	50.000000
191.775177	1033.086426	971.647400	1035.361938	-3.703693
192.157791	1092.250000	1023.984375	983.024963	160.000061
192.540390	1117.280762	1112.729614	1071.770264	999.978516
192.922943	1119.556274	1058.117188	1103.627563	25.926022
193.305481	1064.943726	1151.413574	1115.005249	57.894775
193.687958	1089.974487	1037.637451	1078.596802	21.739262
194.070419	1162.791138	1089.974487	1053.566162	150.000000
194.452866	1060.392700	1130.933838	1135.484863	106.451591
194.835251	1115.005249	1117.280762	1051.290649	-2800.010742
195.217621	1049.015137	1049.015137	1103.627563	0.000000
195.599960	1033.086426	1105.903076	992.127075	-56.249981
195.982254	1158.240112	1094.525513	1023.984375	210.714249
196.364517	1094.525513	1144.586914	1028.535400	-131.818344
196.746750	1101.352051	1167.342163	1058.117188	-65.517181
197.128952	1119.556274	1060.392700	1130.933838	-19.230690
197.511139	1137.760376	1055.841675	1083.147949	66.666618
197.893280	1101.352051	1021.708862	1064.943726	45.714298
198.275391	1117.280762	1076.321289	1089.974487	66.666565
198.657471	1128.658325	1069.494751	1103.627563	42.307724
199.039520	989.851563	1108.178589	1037.637451	40.384594
199.421539	1089.974487	1087.698975	969.371887	5300.018555
199.803513	1099.076538	1039.912964	1046.739624	88.461380
200.185471	1017.157776	1140.035889	1076.321289	48.148129
200.567383	1053.566162	1124.107300	1069.494751	22.580566
200.949265	1087.698975	1094.525513	1001.229126	-1266.671997
201.331131	1042.188477	1128.658325	1023.984375	-21.052542
201.712967	1049.015137	1069.494751	1026.259888	-111.111710
202.094742	1105.903076	1115.005249	1021.708862	-924.990295
202.476517	1128.658325	1135.484863	1094.525513	-500.001801
202.858231	1128.658325	1055.841675	1153.689087	-34.375053
203.239944	1071.770264	1144.586914	1058.117188	-18.749937
203.621582	1137.760376	1026.259888	1069.494751	61.224506
204.003235	1108.178589	1037.637451	1074.045776	48.387104
204.384827	1060.392700	1053.566162	985.300537	1100.003540
204.766388	1055.841675	1142.311401	1064.943726	10.526286
205.147934	1092.250000	1105.903076	1030.810913	-450.001801
205.529449	1064.943726	1162.791138	1049.015137	-16.279009
205.910904	1140.035889	1124.107300	1019.433350	757.145142
206.292343	1037.637451	1151.413574	1108.178589	61.999947
206.673767	1044.463989	1112.729614	1074.045776	43.333359
207.055115	1044.463989	1137.760376	1094.525513	53.658588
207.436462	1105.903076	1201.474976	1137.760376	33.333332
207.817780	1078.596802	1119.556274	1049.015137	-72.221794
208.199051	1142.311401	1089.974487	1074.045776	130.434952
208.580307	1076.321289	1140.035889	1044.463989	-50.000000
208.961517	1094.525513	1064.943726	1037.637451	192.307724
209.342712	1060.392700	1151.413574	1083.147949	25.000034
209.723846	1074.045776	1112.729614	1012.606750	-158.823502
210.104965	1053.566162	1062.668213	1058.117188	50.000000
210.486069	1074.045776	1096.801025	1037.637451	-159.999680
210.867111	1074.045776	1117.280762	1021.708862	-121.052231
211.248123	1085.423462	1112.729614	989.851563	-350.001343
211.629120	1069.494751	1146.862427	1039.912964	-38.235332
212.010071	980.749451	1094.525513	1012.606750	28.000002
212.390991	1026.259888	1119.556274	1089.974487	68.292679
212.771881	1058.117188	1171.893188	1053.566162	-3.999987
213.152756	1062.668213	1046.739624	1062.668213	-0.000000
213.533569	998.953613	1085.423462	1064.943726	76.315750
213.914368	1030.810913	1087.698975	1087.698975	100.000000
214.295135	1067.219238	1108.178589	1021.708862	-111.111076
214.675858	1087.698975	1126.382813	1019.433350	-176.470657
215.056549	1103.627563	1151.413574	1010.331238	-195.237732
215.437225	1010.331238	1103.627563	1074.045776	68.292656
215.817841	1101.352051	1080.872437	1060.392700	200.000595
216.198441	1019.433350	1142.311401	1023.984375	3.703693
216.579025	1119.556274	1074.045776	944.341125	384.999420
216.959549	1112.729614	1112.729614	1049.015137	0.000000
217.340057	1021.708862	1115.005249	1053.566162	34.146339
217.720535	1105.903076	1028.535400	1023.984375	105.882332
218.100967	1083.147949	1060.392700	985.300537	429.999298
218.481369	1096.801025	1049.015137	1035.361938	128.571609
218.861740	1019.433350	1067.219238	1076.321289	119.047569
219.242065	1060.392700	1103.627563	955.718750	-242.105423
219.622391	1064.943726	1089.974487	1055.841675	-36.363461
220.002670	1055.841675	1137.760376	1071.770264	19.444387
220.382919	1092.250000	1128.658325	1064.943726	-75.000084
220.763123	1049.015137	1187.821899	1037.637451	-8.196780
221.143295	1028.535400	1121.831787	1121.831787	100.000000
221.523453	1037.637451	1110.454102	1099.076538	84.375053
221.903549	1135.484863	1087.698975	1085.423462	104.761894
222.283630	1096.801025	1055.841675	1128.658325	-77.777847
222.663696	1085.423462	1051.290649	1092.250000	-19.999928
223.043701	1144.586914	1119.556274	1046.739624	390.910065
223.423676	1096.801025	1112.729614	987.576050	-685.716614
223.803635	1026.259888	1071.770264	1008.055725	-40.000027
224.183548	1046.739624	1117.280762	983.024963	-90.322701
224.563431	1083.147949	1096.801025	1017.157776	-483.335571
224.943283	1087.698975	1108.178589	973.922913	-555.557617
225.323105	1130.933838	1105.903076	1058.117188	290.908661
225.702881	1023.984375	1096.801025	1053.566162	40.625031
226.082642	1030.810913	1135.484863	1119.556274	84.782661
226.462357	1042.188477	1178.719727	1076.321289	25.000000
226.842041	1083.147949	1099.076538	1074.045776	-57.143623
227.221695	1133.209351	1092.250000	1110.454102	55.555687
227.601318	1062.668213	1133.209351	1112.729614	70.967667
227.980911	960.269775	1187.821899	1115.005249	68.000015
228.360474	1092.250000	1187.821899	1089.974487	-2.380943
228.739990	1033.086426	1167.342163	1124.107300	67.796638
229.119476	1124.107300	1240.158813	1074.045776	-43.137329
229.498932	1092.250000	1265.189575	1055.841675	-21.052628
229.878372	1105.903076	1299.322388	1046.739624	-30.588182
230.257736	1080.872437	1299.322388	1128.658325	21.874983
230.637115	998.953613	1363.036987	1078.596802	21.874987
231.016449	1071.770264	1374.414551	1078.596802	2.255631
231.395737	1089.974487	1385.792114	1003.504700	-29.230776
231.774994	1067.219238	1235.607788	1060.392700	-4.054039
232.154221	1023.984375	1267.465088	1064.943726	16.822420
232.533417	1030.810913	1242.434326	1124.107300	44.086040
232.912582	1115.005249	1246.985352	1076.321289	-29.310448
233.291702	1026.259888	1274.291626	957.994263	-27.522940
233.670792	1103.627563	1281.118164	1071.770264	-17.948725
234.049866	1121.831787	1258.363037	1019.433350	-75.000000
234.428894	1001.229126	1237.883301	1014.882263	5.769236
234.807892	1119.556274	1253.812012	1092.250000	-20.339001
235.186874	1076.321289	1319.802124	1112.729614	14.953261
235.565781	1083.147949	1308.424438	976.198425	-47.474781
235.944687	1003.504700	1363.036987	1110.454102	29.746815
236.323547	1083.147949	1269.740601	1023.984375	-31.707344
236.702377	1083.147949	1317.526489	1130.933838	20.388338
237.081177	1103.627563	1367.588013	1076.321289	-10.344835
237.459946	1060.392700	1338.006226	962.545288	-35.245911
237.838669	1069.494751	1315.250977	1096.801025	11.111122
238.217361	1046.739624	1237.883301	1012.606750	-17.857182
238.596039	1042.188477	1281.118164	1001.229126	-17.142847
238.974670	1067.219238	1340.281738	1001.229126	-24.166670
239.353271	1039.912964	1235.607788	1071.770264	16.279072
239.731842	1096.801025	1363.036987	1135.484863	14.529907
240.110367	1121.831787	1196.923950	1005.780212	-154.545517
240.488876	1044.463989	1392.618774	1044.463989	0.000000
240.867340	1028.535400	1356.210449	1049.015137	6.250014
241.245789	1105.903076	1479.088501	1096.801025	-2.439016
241.624176	1115.005249	1485.915039	1092.250000	-6.134982
242.002548	1069.494751	1479.088501	1051.290649	-4.444428
242.380890	998.953613	1558.731689	1064.943726	11.788620
242.759186	1076.321289	1642.926025	1142.311401	11.646586
243.137451	1010.331238	1847.722900	1158.240112	17.663046
243.515686	1035.361938	1890.957764	1064.943726	3.457449
243.893890	1069.494751	1909.161987	1124.107300	6.504070
244.272049	1028.535400	1888.682251	1067.219238	4.497353
244.650192	1058.117188	1802.212524	1055.841675	-0.305809
245.028290	1023.984375	1704.365112	1130.933838	15.719061
245.406357	1060.392700	1686.160889	1062.668213	0.363635
245.784393	1005.780212	1747.599976	1064.943726	7.975457
246.162384	1035.361938	1617.895264	1044.463989	1.562494
246.540359	1026.259888	1649.752563	1115.005249	14.233585
246.918289	1078.596802	1824.967651	1046.739624	-4.268277
247.296204	1096.801025	1988.805176	1105.903076	1.020405
247.674057	1178.719727	2220.908203	1192.372925	1.310051
248.051895	1137.760376	2521.277100	1240.158813	7.401316
248.429703	1062.668213	2598.644775	1301.597900	15.555555
248.807465	1099.076538	2471.215576	1276.567139	12.935322
249.185196	1096.801025	2471.215576	1171.893188	5.463574
249.562897	1092.250000	2232.285889	1212.852539	10.578837
249.940567	1126.382813	2164.020264	1160.515625	3.289474
250.318192	1112.729614	1959.223389	1176.444214	7.526884
250.695801	1030.810913	1879.580200	1231.056763	23.592495
251.073349	1028.535400	1840.896362	1160.515625	16.246500
251.450882	1092.250000	1793.110352	1119.556274	3.896108
251.828400	1099.076538	1752.151001	1149.138062	7.665515
252.205872	1087.698975	1772.630737	1115.005249	3.986715
252.583313	1053.566162	1845.447388	1194.648438	17.816090
252.960693	1028.535400	1947.845825	1194.648438	18.069309
253.338074	1092.250000	2016.111450	1062.668213	-3.201972
253.715408	1117.280762	1966.049927	1199.199463	9.651470
254.092682	1037.637451	1872.753662	1149.138062	13.351508
254.469955	1076.321289	1806.763550	1151.413574	10.280386
254.847198	1017.157776	1686.160889	1140.035889	18.367346
255.224365	1099.076538	1747.599976	1142.311401	6.666662
255.601563	1085.423462	1736.222412	1171.893188	13.286703
255.978683	1103.627563	1708.916138	1121.831787	3.007528
256.355743	1033.086426	1765.804199	1183.270874	20.496902
256.732819	1078.596802	1743.048950	1149.138062	10.616454
257.109894	1023.984375	1795.385864	1155.964600	17.109148
257.486877	1105.903076	1745.324463	1115.005249	1.423501
257.863831	1083.147949	1799.937012	1142.311401	8.253956
258.240753	1019.433350	1929.641602	1117.280762	10.750003
258.617645	1096.801025	1975.152100	1212.852539	13.212429
258.994507	1099.076538	2047.968750	1142.311401	4.556351
259.371307	1089.974487	2220.908203	1140.035889	4.426555
259.748108	1089.974487	2200.428711	1240.158813	13.524585
260.124878	1080.872437	2616.848877	1149.138062	4.444445
260.501617	1085.423462	2928.595215	1190.097412	5.679012
260.878296	1064.943726	3208.484375	1256.087524	8.917200
261.254944	1119.556274	3390.525879	1315.250977	8.617230
261.631561	1058.117188	3203.933350	1322.077637	12.301167
262.008179	1096.801025	2876.258301	1292.495850	10.997444
262.384735	1058.117188	2523.552490	1196.923950	9.472050
262.761261	1076.321289	2298.276123	1192.372925	9.497211
263.137695	1083.147949	2218.632813	1169.617676	7.615225
263.514191	1071.770264	2189.051025	1128.658325	5.091653
263.890594	1012.606750	2168.571289	1224.230225	18.307089
264.267029	1074.045776	2177.673340	1165.066650	8.247427
264.643341	1117.280762	2202.704102	1124.107300	0.628929
265.019653	1062.668213	2145.816162	1126.382813	5.882354
265.395935	1083.147949	2175.397949	1153.689087	6.458333
265.772217	985.300537	2125.336426	1089.974487	9.181637
266.148407	1042.188477	2052.519775	1169.617676	12.612616
266.524597	1085.423462	2236.836914	1249.260864	14.229241
266.900726	1062.668213	2243.663574	1162.791138	8.477842
267.276855	1085.423462	2339.235352	1135.484863	3.992736
267.652924	1083.147949	2446.184814	1199.199463	8.514188
268.028992	1028.535400	2462.113525	1165.066650	9.523809
268.404999	1094.525513	2466.664551	1171.893188	5.638472
268.781006	1128.658325	2361.990479	1160.515625	2.583027
269.156921	985.300537	2268.694336	1126.382813	10.992907
269.532837	1105.903076	2336.959961	1144.586914	3.142327
269.908661	1010.331238	2459.837891	1144.586914	9.262164
270.284546	1053.566162	2380.194824	1187.821899	10.120070
270.660339	1039.912964	2491.695313	1171.893188	9.090910
271.036133	1071.770264	2484.868652	1208.301514	9.661836
271.411835	1076.321289	2573.614014	1196.923950	8.054715
271.787537	1035.361938	2853.503174	1260.638550	12.390491
272.163239	1030.810913	2965.003662	1265.189575	12.117647
272.538849	1046.739624	3090.157227	1251.536499	10.022272
272.914459	1010.331238	3144.769775	1269.740601	12.153518
273.290070	1092.250000	2944.523926	1206.026001	6.142504
273.665588	1130.933838	2919.493164	1231.056763	5.597965
274.041046	1055.841675	2949.074951	1212.852539	8.293265
274.416565	1044.463989	2798.890625	1203.750488	9.079120
274.791962	1071.770264	2751.104736	1203.750488	7.859079
275.167389	1092.250000	2687.390137	1228.781250	8.559201
275.542755	1028.535400	2682.839111	1187.821899	9.628613
275.918060	1014.882263	2689.665527	1231.056763	12.907611
276.293365	1053.566162	2698.767578	1221.954712	10.235133
276.668640	1076.321289	2619.124512	1171.893188	6.194692
277.043854	1094.525513	2655.532715	1126.382813	2.040817
277.419037	1092.250000	2757.931152	1267.465088	10.519125
277.794189	1008.055725	2735.176025	1221.954712	12.384718
278.169312	1087.698975	2757.931152	1244.709839	9.400541
278.544373	1014.882263	2776.135498	1210.577026	11.111109
278.919464	1051.290649	2735.176025	1262.914063	12.567567
279.294464	1124.107300	2803.441650	1256.087524	7.859080
279.669464	1071.770264	2771.584229	1167.342163	5.622492
280.044403	1014.882263	2801.166016	1319.802124	17.070068
280.419312	1010.331238	2810.268311	1258.363037	13.780026
280.794189	1087.698975	2848.952148	1253.812012	9.431525
281.169037	1069.494751	2990.034424	1265.189575	10.189574
281.543854	1071.770264	3008.238525	1301.597900	11.868392
281.918671	1110.454102	3076.504150	1262.914063	7.754633
282.293365	1067.219238	3224.413086	1231.056763	7.594937
282.668091	1062.668213	3210.759766	1210.577026	6.885592
283.042786	1112.729614	3379.148438	1201.474976	3.915664
283.417419	1176.444214	3470.169189	1287.944824	4.861115
283.792053	1105.903076	3279.025391	1258.363037	7.015710
284.166595	1080.872437	3192.555664	1242.434326	7.650859
284.541138	1033.086426	3165.249512	1335.730713	14.194238
284.915619	1021.708862	3115.187988	1299.322388	13.260870
285.290100	1169.617676	3358.668701	1347.108276	8.108107
285.664520	1017.157776	3390.525879	1351.659302	14.093959
286.038940	1071.770264	3465.618164	1328.904175	10.741447
286.413300	1042.188477	3476.995850	1333.455200	11.962619
286.787628	1058.117188	3679.517090	1347.108276	11.024303
287.161896	1133.209351	3843.354736	1433.578125	11.083123
287.536194	1012.606750	3718.200928	1378.965576	13.540790
287.910400	1060.392700	3702.272461	1435.853638	14.211885
288.284607	1103.627563	3379.148438	1454.057739	15.399998
288.658752	1017.157776	3306.331787	1365.312500	15.208749
289.032867	1042.188477	3210.759766	1353.934937	14.375661
289.406921	1085.423462	3356.393066	1338.006226	11.122243
289.781006	1030.810913	3372.321777	1317.526489	12.244897
290.154999	1035.361938	3269.923340	1338.006226	13.543789
290.529022	1087.698975	3520.230713	1413.098389	13.376986
290.902954	1101.352051	3690.894775	1381.241089	10.808434
291.276825	1074.045776	3843.354736	1547.354126	17.091208
291.650757	1085.423462	3877.487549	1424.476074	12.143440
292.024597	1101.352051	3922.997803	1561.007324	16.290325
292.398407	1103.627563	3597.598389	1467.710938	14.598542
292.772156	1108.178589	3545.261475	1474.537476	15.032680
293.145905	1058.117188	3404.179199	1483.639526	18.137728
293.519592	1058.117188	3395.077148	1399.445313	14.605647
293.893280	1196.923950	3527.057129	1442.680176	10.546874
294.266907	1076.321289	3595.322754	1424.476074	13.821142
294.640533	989.851563	3638.557861	1463.159912	17.869415
295.014069	978.473938	3918.446777	1529.150024	18.730652
295.387604	1128.658325	4032.222900	1517.772339	13.401253
295.761078	1060.392700	4004.916504	1626.997314	19.242657
296.134552	1135.484863	4041.324951	1551.905151	14.330462
296.507996	1062.668213	4050.427002	1572.384888	17.060167
296.881378	1051.290649	4045.875977	1590.588989	18.009115
297.254730	1076.321289	4289.356934	1547.354126	14.660056
297.628021	962.545288	4607.929688	1647.477051	18.789015
298.001282	1058.117188	4612.480469	1720.293701	18.629961
298.374573	1026.259888	4805.899902	1624.721802	15.833833
298.747803	1101.352051	4644.337891	1649.752563	15.478484
299.121002	1042.188477	4323.489746	1592.864502	16.782246
299.494141	1119.556274	4143.723145	1633.823975	17.005268
299.867188	1074.045776	4107.314941	1622.446289	18.079521
300.240265	1078.596802	3941.202148	1597.415649	18.124008
300.613312	1071.770264	3820.599365	1533.701050	16.804638
300.986328	1089.974487	3818.323975	1583.762451	18.098412
301.359314	1087.698975	3704.547852	1599.691162	19.565218
301.732239	1085.423462	3734.129639	1551.905151	17.611683
302.105103	1014.882263	3781.915527	1529.150024	18.585529
302.477997	1119.556274	3706.823486	1533.701050	16.007036
302.850830	1094.525513	3761.435791	1485.915039	14.675767
303.223602	1053.566162	3806.946289	1545.078613	17.851238
303.596375	1042.188477	3831.977051	1485.915039	15.905383
303.969116	1094.525513	3649.935303	1497.292725	15.761356
304.341766	1099.076538	3552.087891	1385.792114	11.688311
304.714478	1089.974487	3536.159424	1533.701050	18.139534
305.087067	1089.974487	3533.883789	1488.190552	16.294226
305.459656	1069.494751	3645.384277	1495.017212	16.519436
305.832214	1076.321289	3563.465576	1492.741699	16.742912
306.204681	1162.791138	3554.363525	1442.680176	11.703139
306.577148	1030.810913	3506.577637	1438.129150	16.452208
306.949646	1085.423462	3713.649902	1408.547363	12.294370
307.322021	1074.045776	3668.139648	1472.261963	15.350879
307.694397	1039.912964	3579.394287	1474.537476	17.114695
308.066742	1069.494751	3595.322754	1413.098389	13.603603
308.439026	992.127075	3818.323975	1447.231201	16.103058
308.811279	1146.862427	3761.435791	1447.231201	11.488253
309.183502	1019.433350	3948.028564	1547.354126	18.026417
309.555695	983.024963	3954.855225	1513.221313	17.840734
309.927887	1033.086426	3991.263428	1529.150024	16.769234
310.299988	1121.831787	4070.906738	1565.558350	15.046296
310.672058	1103.627563	4064.080078	1474.537476	12.528825
311.044128	1069.494751	4239.295410	1558.731689	15.434312
311.416168	1092.250000	4255.224121	1576.935913	15.323739
311.788147	1085.423462	4159.651855	1513.221313	13.915617
312.160065	1124.107300	4089.110840	1558.731689	14.658479
312.531982	1096.801025	4123.243652	1581.486938	16.015038
312.903870	1089.974487	3954.855225	1488.190552	13.899917
313.275696	1019.433350	3893.416016	1508.670288	17.022961
313.647491	1037.637451	4004.916504	1465.435425	14.417180
314.019318	1153.689087	3763.711426	1515.496826	13.862247
314.391022	1044.463989	3765.986816	1499.568237	16.722410
314.762726	1046.739624	3913.895752	1579.211426	18.571426
315.134369	1074.045776	4023.120850	1520.047852	15.123455
315.505981	1089.974487	4287.081055	1558.731689	14.661921
315.877594	1037.637451	4321.213867	1565.558350	16.077620
316.249146	1099.076538	4127.794922	1547.354126	14.800900
316.620636	1030.810913	3927.548828	1515.496826	16.732130
316.992157	1105.903076	3809.221924	1451.782227	12.794612
317.363586	1035.361938	3836.528076	1353.934937	11.372871
317.735016	1089.974487	3690.894775	1454.057739	13.998246
318.106354	1055.841675	3781.915527	1476.812988	15.442404
318.477722	1044.463989	3784.191162	1397.169800	12.873757
318.849060	1074.045776	3788.742188	1431.302612	13.160103
319.220306	1055.841675	3875.211914	1349.383789	10.411620
319.591522	1083.147949	3963.957275	1483.639526	13.902051
319.962738	1053.566162	3895.691650	1495.017212	15.532427
320.333923	1071.770264	4011.743164	1515.496826	15.092879
320.705017	1092.250000	3843.354736	1435.853638	12.489660
321.076111	1155.964600	3836.528076	1392.618774	8.828524
321.447144	1105.903076	3909.344727	1431.302612	11.607145
321.818176	1094.525513	3699.996826	1429.027100	12.838429
322.189178	1005.780212	3829.701416	1429.027100	14.987914
322.560120	1003.504700	3761.435791	1383.516602	13.778875
322.931030	1110.454102	3613.527100	1508.670288	15.909092
323.301910	1060.392700	3868.385254	1422.200562	12.884929
323.672729	1033.086426	4180.131836	1476.812988	14.099783
324.043549	1021.708862	4369.000000	1490.466064	14.004077
324.414337	1078.596802	4425.888184	1485.915039	12.168591
324.785095	1096.801025	4764.940430	1533.701050	11.910671
325.155792	1092.250000	4667.093262	1554.180664	12.921704
325.526428	1074.045776	4728.532227	1504.119263	11.768371
325.897034	1080.872437	4683.021973	1510.945801	11.939354
326.267670	1035.361938	4391.755371	1481.364014	13.288134
326.638184	1071.770264	4505.531250	1513.221313	12.856196
327.008728	1071.770264	4607.929688	1545.078613	13.384813
327.379211	1130.933838	4532.837402	1492.741699	10.635453
327.749634	1087.698975	4516.908691	1476.812988	11.347046
328.120026	1089.974487	4412.234863	1501.843750	12.397261
328.490417	1083.147949	4434.990234	1481.364014	11.880513
328.860748	1105.903076	4207.437988	1483.639526	12.179016
329.231079	1064.943726	4214.264648	1474.537476	13.005780
329.601318	1055.841675	4227.917480	1508.670288	14.275467
329.971558	1060.392700	4312.111816	1444.955688	11.826451
330.341736	1058.117188	4200.611328	1392.618774	10.644462
330.711914	1101.352051	4209.713379	1469.986450	11.859445
331.082062	1130.933838	4391.755371	1499.568237	11.304955
331.452148	1074.045776	4246.121582	1449.506714	11.836443
331.822174	1064.943726	4275.703613	1501.843750	13.607372
332.192200	1087.698975	4466.847168	1458.608887	10.976432
332.562134	1096.801025	4412.234863	1608.793213	15.442691
332.932129	1046.739624	4621.582520	1510.945801	12.985359
333.302063	1067.219238	4667.093262	1547.354126	13.337547
333.671906	1067.219238	4785.420410	1474.537476	10.954712
334.041718	1092.250000	4846.859375	1533.701050	11.757576
334.411499	1071.770264	4821.828613	1620.170776	14.623786
334.781281	1030.810913	4903.747559	1574.660400	14.042303
335.151001	1112.729614	4808.175293	1586.037964	12.807882
335.520721	1126.382813	4833.206055	1545.078613	11.295273
335.890350	1037.637451	4678.470703	1497.292725	12.625002
336.259979	1085.423462	4642.062500	1479.088501	11.068456
336.629547	1046.739624	4683.021973	1570.109375	14.392990
336.999084	1085.423462	4778.593750	1481.364014	10.720885
337.368622	1017.157776	4805.899902	1495.017212	12.612615
337.738098	1023.984375	4796.797852	1435.853638	10.916767
338.107513	1046.739624	4712.603516	1488.190552	12.042208
338.476898	1049.015137	4737.634277	1522.323364	12.831583
338.846252	1055.841675	4869.614746	1570.109375	13.484487
339.215576	1126.382813	4965.186523	1535.976563	10.669827
339.584869	1158.240112	4758.113770	1510.945801	9.797725
339.954132	1064.943726	4883.267578	1515.496826	11.799762
340.323334	1083.147949	4628.409180	1481.364014	11.232347
340.692505	1060.392700	4578.347656	1408.547363	9.896507
341.061646	1115.005249	4444.092285	1469.986450	10.663020
341.430786	1035.361938	4651.164551	1574.660400	14.915041
341.799896	1096.801025	4805.899902	1524.598877	11.533741
342.168915	976.198425	4830.930664	1458.608887	12.514759
342.537903	1117.280762	5010.696777	1497.292725	9.760374
342.906830	978.473938	5008.421387	1499.568237	12.930548
343.275757	1017.157776	5110.819824	1542.803101	12.840466
343.644684	937.514587	5035.727539	1460.884399	12.770684
344.013550	1078.596802	5183.636230	1524.598877	10.864745
344.382355	1064.943726	5361.126953	1538.252075	11.016950
344.751129	1021.708862	5490.831543	1540.527588	11.608962
345.119873	1080.872437	5784.374023	1626.997314	11.611028
345.488586	1087.698975	5891.323242	1631.548462	11.321650
345.857269	1137.760376	6075.640625	1588.313477	9.124423
346.225891	1067.219238	6118.875488	1617.895264	10.900901
346.594482	1087.698975	6389.662598	1652.028076	10.643775
346.963043	1053.566162	6385.111328	1702.089600	12.163894
347.331543	1053.566162	5850.363770	1647.477051	12.381403
347.700043	1133.209351	5766.169922	1558.731689	9.184674
348.068512	1030.810913	5700.179688	1561.007324	11.354777
348.436951	1069.494751	5479.454102	1540.527588	10.681115
348.805328	1064.943726	5402.086426	1576.935913	11.804828
349.173645	1130.933838	5333.820801	1667.956787	12.777478
349.541931	1060.392700	5395.259766	1497.292725	10.078741
349.910217	1078.596802	5577.301270	1520.047852	9.812848
350.278473	1092.250000	5527.240234	1620.170776	11.903539
350.646667	1067.219238	5763.894043	1554.180664	10.368217
351.014801	1026.259888	5827.608887	1595.140137	11.848342
351.382935	1033.086426	5895.874512	1517.772339	9.967243
351.751007	1128.658325	5688.802246	1611.068726	10.578841
352.119049	1080.872437	5950.486816	1697.538574	12.663552
352.487091	1101.352051	5873.119141	1672.507813	11.969481
352.855072	1033.086426	5786.649414	1601.966675	11.967449
353.222992	1046.739624	5975.517578	1576.935913	10.757155
353.590881	1033.086426	6046.058594	1683.885376	12.982297
353.958740	1092.250000	6255.406738	1713.467163	12.031732
354.326599	1035.361938	6337.325195	1720.293701	12.918455
354.694397	1158.240112	6601.285645	1663.405762	9.280937
355.062134	1037.637451	6703.684082	1683.885376	11.405622
355.429840	1130.933838	6890.276855	1774.906250	11.181353
355.797516	1101.352051	6960.818359	1752.151001	11.106795
356.165192	1046.739624	7017.706055	1711.191650	11.128049
356.532776	1044.463989	7233.880859	1831.794189	12.720588
356.900360	1083.147949	7445.503906	1784.008301	11.015737
357.267883	1078.596802	7588.861816	1888.682251	12.443202
357.635376	1071.770264	8087.201172	1984.254150	13.006812
358.002808	1069.494751	8262.416016	1975.152100	12.590953
358.370270	1080.872437	8756.204102	1929.641602	11.058404
358.737640	1062.668213	8722.071289	1902.335449	10.962567
359.105011	1055.841675	8494.519531	1909.161987	11.471397
359.472321	1062.668213	8162.292969	1902.335449	11.826923
359.839569	1049.015137	8182.772949	1868.202637	11.483253
360.206787	1037.637451	7930.189941	1872.753662	12.116211
360.574005	1023.984375	8296.548828	1900.059814	12.046307
360.941193	1046.739624	8801.714844	1920.539551	11.267605
361.308319	1003.504700	9165.797852	1970.601074	11.848342
361.675415	1008.055725	9964.505859	2143.540527	12.677845
362.042450	1110.454102	10690.396484	2243.663574	11.828980
362.409424	1008.055725	11115.918945	2323.306641	13.012156
362.776428	1046.739624	11099.990234	2348.337402	12.947034
363.143402	1071.770264	10804.172852	2189.051025	11.480010
363.510284	1094.525513	9932.648438	2177.673340	12.255405
363.877136	1092.250000	9236.338867	2100.305664	12.377759
364.243988	1121.831787	8503.621094	1959.223389	11.344020
364.610779	1105.903076	8071.272461	2041.142212	13.426986
364.977539	1058.117188	7964.322754	1956.947876	13.014827
365.344269	1017.157776	7775.454590	1893.233276	12.962963
365.710938	1039.912964	7641.198730	1865.927002	12.512927
366.077576	1019.433350	7427.299805	1897.784302	13.707386
366.444183	1001.229126	7334.003418	1793.110352	12.504491
366.810760	1044.463989	7447.779785	1945.570313	14.072495
367.177277	998.953613	7525.147461	1918.264038	14.086472
367.543823	1055.841675	7436.401855	1909.161987	13.373753
367.910248	1039.912964	7390.891602	1888.682251	13.364386
368.276642	1049.015137	7236.156250	1861.375977	13.129826
368.643036	1058.117188	7447.779785	1915.988525	13.425925
369.009399	1110.454102	7124.655762	1845.447388	12.220962
369.375671	1051.290649	7142.859863	1770.355225	11.804258
369.741974	1042.188477	6938.062988	1852.273926	13.739869
370.108215	1142.311401	7004.053223	1834.069824	11.801244
370.474396	1037.637451	7111.002441	1872.753662	13.750469
370.840546	1085.423462	7145.135254	1779.457275	11.453248
371.206665	1021.708862	7274.839844	1906.886475	14.155750
371.572784	1089.974487	7288.493164	1834.069824	12.004406
371.938843	1008.055725	7570.657715	1893.233276	13.488210
372.304840	1110.454102	7418.197754	1941.019287	13.167390
372.670807	1078.596802	7618.443848	1954.672363	13.395964
373.036713	1055.841675	7472.810547	1904.610962	13.226951
373.402649	1026.259888	7368.136230	1868.202637	13.275925
373.768524	985.300537	7363.585449	1938.743774	14.948269
374.134308	1017.157776	7447.779785	1920.539551	14.048124
374.500122	980.749451	7409.095703	1950.121338	15.079647
374.865875	1049.015137	7818.689453	1886.406738	12.369747
375.231567	1112.729614	7859.648926	1972.876587	12.748736
375.597260	1071.770264	7848.271484	1979.703125	13.398254
375.962891	1033.086426	7902.883789	2022.937988	14.408745
376.328461	1078.596802	8394.396484	2041.142212	13.157077
376.694031	1055.841675	8335.232422	2050.244141	13.660518
377.059540	1094.525513	8699.316406	2120.785400	13.494912
377.425049	1112.729614	8945.072266	2157.193604	13.335269
377.790497	1087.698975	9263.645508	2202.704102	13.637628
378.155945	1089.974487	9614.075195	2291.449463	14.095036
378.521301	1121.831787	9611.799805	2266.418701	13.481640
378.886597	1060.392700	9275.022461	2198.153076	13.850415
379.251892	1142.311401	8906.388672	2098.030273	12.309498
379.617157	1074.045776	8565.060547	2143.540527	14.277035
379.982422	1039.912964	8351.161133	2034.315552	13.600996
380.347595	1094.525513	8178.221680	2050.244141	13.491807
380.712738	1053.566162	8278.344727	2054.795166	13.858266
381.077820	1021.708862	8230.558594	2111.683350	15.119950
381.442902	989.851563	8403.498047	2214.081787	16.513199
381.807953	1126.382813	8319.303711	2047.968750	12.812402
382.172974	1085.423462	8480.866211	2104.856689	13.784614
382.537933	1021.708862	8114.507324	2214.081787	16.811037
382.902832	1001.229126	8291.998047	2120.785400	15.355805
383.267700	1112.729614	8330.681641	2041.142212	12.862549
383.632538	1023.984375	8269.242188	2234.561523	16.708546
383.997345	1099.076538	8594.641602	2132.163086	13.782638
384.362152	1046.739624	8844.949219	2204.979736	14.852642
384.726898	1049.015137	8976.929688	2191.326416	14.408724
385.091553	1092.250000	8854.051758	2284.622803	15.362062
385.456238	1060.392700	8872.255859	2259.592041	15.351003
385.820862	1069.494751	9113.460938	2250.489990	14.681753
386.185425	1083.147949	8942.796875	2184.500000	14.012738
386.549988	1055.841675	9006.511719	2314.204590	15.827130
386.914490	1053.566162	9281.849609	2318.755615	15.376105
387.278961	1080.872437	9422.931641	2243.663574	13.938897
387.643372	980.749451	9407.002930	2361.990479	16.392113
388.007782	1105.903076	9566.289063	2355.164063	14.766006
388.372101	1083.147949	9545.809570	2425.705078	15.864477
388.736450	1078.596802	9447.961914	2409.776611	15.905386
389.100739	1092.250000	9475.268555	2396.123291	15.553744
389.464966	998.953613	9379.696289	2409.776611	16.834106
389.829163	1033.086426	9320.533203	2393.847900	16.419550
390.193329	1089.974487	9163.522461	2275.520752	14.684328
390.557495	1001.229126	9193.104492	2307.378174	15.944445
390.921570	1049.015137	9413.829102	2407.500977	16.240479
391.285614	1053.566162	9598.146484	2405.225586	15.818910
391.649597	1101.352051	10248.945313	2464.388916	14.900496
392.013550	1055.841675	10742.733398	2605.471436	15.997183
392.377502	1062.668213	10817.826172	2653.257324	16.305109
392.741455	1119.556274	10952.082031	2619.124512	15.251100
393.105316	1026.259888	10963.458984	2548.583252	15.319441
393.469086	1037.637451	10565.243164	2596.369141	16.360163
393.832886	1080.872437	10444.640625	2532.654541	15.504251
394.196655	1012.606750	10553.865234	2534.930176	15.955164
394.560333	1039.912964	10647.162109	2564.511963	15.869257
394.924042	1058.117188	10733.631836	2607.746826	16.015991
395.287659	1042.188477	10738.182617	2666.910400	16.756630
395.651245	1005.780212	10763.213867	2580.440674	16.138060
396.014771	1121.831787	10476.498047	2596.369141	15.762587
396.378296	1037.637451	10114.690430	2532.654541	16.470291
396.741791	1110.454102	9798.392578	2371.092773	14.510217
397.105255	1062.668213	9684.616211	2446.184814	16.046450
397.468628	1076.321289	9450.238281	2352.888428	15.244564
397.832001	1014.882263	9427.482422	2371.092773	16.121180
398.195313	1049.015137	9650.483398	2396.123291	15.661373
398.558624	1092.250000	9402.452148	2425.705078	16.046001
398.921844	1087.698975	9582.217773	2412.052002	15.590678
399.285095	1026.259888	9602.698242	2361.990479	15.574421
399.648254	1089.974487	9675.514648	2398.398926	15.239861
400.011383	1042.188477	9741.504883	2321.031250	14.700498
400.374451	1126.382813	9723.300781	2255.041016	13.128637
400.737549	1067.219238	9645.932617	2359.715088	15.066315
401.100586	1094.525513	9591.320313	2375.643799	15.077665
401.463562	1078.596802	9645.932617	2302.827148	14.289510
401.826508	994.402588	9946.301758	2275.520752	14.311132
402.189392	1099.076538	9866.658203	2293.724854	13.625745
402.552246	1030.810913	9686.891602	2364.266113	15.404838
402.915070	1126.382813	9918.995117	2380.194824	14.259835
403.277893	1044.463989	10148.823242	2364.266113	14.496375
403.640656	1055.841675	10289.905273	2412.052002	14.687037
404.003326	1042.188477	10640.334961	2489.419678	15.078237
404.366028	1001.229126	10806.448242	2430.256104	14.574147
404.728699	1051.290649	11036.276367	2336.959961	12.876026
405.091248	1037.637451	11475.451172	2562.236328	14.606497
405.453857	1110.454102	11366.226563	2544.032227	13.978256
405.816345	1121.831787	11357.124023	2487.144287	13.339263
406.178833	1062.668213	11377.604492	2557.685303	14.493711
406.541260	1135.484863	11416.288086	2453.011475	12.815406
406.903687	1108.178589	10983.938477	2398.398926	13.064517
407.266052	1028.535400	10936.153320	2430.256104	14.147908
407.628387	1076.321289	10756.386719	2334.684326	12.999530
407.990662	1069.494751	10565.243164	2387.021240	13.874910
408.352905	1119.556274	10797.346680	2405.225586	13.284740
408.715118	1096.801025	10676.743164	2298.276123	12.541569
409.077332	1076.321289	10442.365234	2323.306641	13.313896
409.439484	1096.801025	10679.019531	2277.796387	12.324863
409.801575	1010.331238	10783.693359	2291.449463	13.108264
410.163605	1080.872437	11179.633789	2366.541748	12.730960
410.525635	1051.290649	11074.959961	2336.959961	12.826335
410.887604	1087.698975	11384.430664	2402.949951	12.773480
411.249573	1130.933838	11400.359375	2339.235352	11.766008
411.611481	1058.117188	11566.472656	2393.847900	12.711130
411.973328	1021.708862	11209.215820	2218.632813	11.748939
412.335144	1030.810913	11475.451172	2241.387939	11.590413
412.696930	1035.361938	11079.510742	2284.622803	12.437698
413.058685	1078.596802	11102.265625	2236.836914	11.555052
413.420410	1080.872437	11065.857422	2138.989502	10.597082
413.782104	1074.045776	11131.847656	2164.020264	10.837105
414.143707	1060.392700	11250.174805	2141.265137	10.607414
414.505310	1012.606750	11272.929688	2102.581299	10.623199
414.866852	1099.076538	11477.726563	2170.846924	10.326684
415.228394	1067.219238	11525.512695	2098.030273	9.856399
415.589874	1078.596802	11586.952148	2150.367188	10.199221
415.951324	1128.658325	11805.402344	2261.867676	10.613811
416.312683	1101.352051	12183.138672	2202.704102	9.938397
416.674072	1060.392700	12422.068359	2291.449463	10.835169
417.035370	998.953613	12674.650391	2284.622803	11.011498
417.396667	1012.606750	12852.141602	2259.592041	10.532384
417.757935	1049.015137	13141.132813	2346.062012	10.726383
418.119141	1062.668213	13755.523438	2393.847900	10.487630
418.480286	1051.290649	13846.543945	2298.276123	9.745688
418.841400	1062.668213	14690.762695	2332.408936	9.317081
419.202484	1055.841675	15052.570313	2348.337402	9.234270
419.563568	1112.729614	15619.174805	2478.042236	9.411765
419.924591	1092.250000	16490.699219	2530.379150	9.339441
420.285553	1060.392700	16729.628906	2496.246338	9.163520
420.646484	1087.698975	17785.470703	2584.991699	8.967021
421.007355	1110.454102	18261.054688	2669.185791	9.088495
421.368225	1060.392700	19087.068359	2689.665527	9.038121
421.729065	1014.882263	19485.285156	2739.727051	9.338426
422.089874	1069.494751	20008.654297	2810.268311	9.191398
422.450592	1085.423462	20354.533203	2769.308838	8.738782
422.811279	1010.331238	19917.632813	2833.023438	9.640150
423.171936	1060.392700	19933.562500	2705.594238	8.717145
423.532593	1010.331238	19567.203125	2773.859863	9.503372
423.893127	1019.433350	19942.664063	2801.166016	9.415584
424.253723	1039.912964	20397.767578	2844.401123	9.321736
424.614197	1039.912964	20456.931641	2967.279053	9.926168
424.974670	1137.760376	21091.802734	2801.166016	8.336184
425.335052	1087.698975	21280.669922	2878.533936	8.868606
425.695496	1087.698975	19999.552734	2798.890625	9.048249
426.055817	1008.055725	20254.410156	2823.921387	9.434855
426.416168	985.300537	20156.562500	2862.605225	9.792286
426.776398	1064.943726	19171.263672	2723.798340	9.161743
427.136627	1058.117188	18213.267578	2721.522949	9.696247
427.496826	992.127075	17753.613281	2669.185791	10.005429
427.856995	1060.392700	17266.652344	2607.746826	9.547879
428.217102	1046.739624	16506.626953	2701.043213	10.700619
428.577179	1053.566162	16518.005859	2559.960938	9.741024
428.937195	1042.188477	16304.106445	2514.450439	9.646638
429.297180	1028.535400	15616.899414	2512.175049	10.170021
429.657135	1076.321289	15484.918945	2537.205811	10.138978
430.017059	1085.423462	15980.982422	2534.930176	9.731133
430.376984	1030.810913	15425.755859	2478.042236	10.053746
430.736786	1014.882263	15437.132813	2384.745850	9.498264
431.096588	1044.463989	15018.437500	2489.419678	10.340335
431.456360	1094.525513	15496.296875	2464.388916	9.511770
431.816071	985.300537	14840.946289	2330.133301	9.706027
432.175781	1064.943726	14911.488281	2459.837891	10.073951
432.535400	1110.454102	15455.336914	2446.184814	9.311548
432.895020	1030.810913	15170.897461	2343.786377	9.285483
433.254578	1019.433350	15327.908203	2398.398926	9.637404
433.614105	1026.259888	15457.613281	2437.082764	9.776095
433.973602	1101.352051	15557.735352	2498.521729	9.664725
434.333038	1003.504700	15830.797852	2421.154053	9.561081
434.692444	1044.463989	15812.593750	2450.735840	9.522342
435.051819	1083.147949	16103.860352	2475.766602	9.271322
435.411133	1049.015137	16165.299805	2434.807373	9.167545
435.770416	989.851563	15387.071289	2316.480225	9.214478
436.129669	1049.015137	16274.524414	2296.000488	8.190105
436.488861	996.678101	15644.205078	2405.225586	9.616282
436.848083	1023.984375	15910.441406	2289.173828	8.498929
437.207184	1046.739624	15785.288086	2327.857666	8.692294
437.566254	1039.912964	16263.147461	2416.603027	9.043348
437.925293	987.576050	15992.360352	2334.684326	8.977859
438.284363	1101.352051	16265.422852	2314.204590	7.998199
438.643311	1089.974487	16663.638672	2480.317627	8.927527
439.002258	1117.280762	16586.271484	2259.592041	7.384524
439.361145	1108.178589	17146.048828	2446.184814	8.342793
439.719971	1051.290649	17505.582031	2421.154053	8.325266
440.078827	985.300537	17603.429688	2350.613037	8.215801
440.437592	1062.668213	18395.310547	2498.521729	8.284101
440.796295	1028.535400	18802.628906	2400.674561	7.719882
441.155029	1119.556274	19640.019531	2530.379150	7.617644
441.513672	1096.801025	20345.431641	2505.348389	7.317650
441.872253	1028.535400	20306.748047	2569.062988	7.991029
442.230865	1117.280762	19517.142578	2348.337402	6.690576
442.589386	1078.596802	19717.388672	2393.847900	7.056526
442.947876	1060.392700	19426.121094	2541.756836	8.065915
443.306335	1110.454102	18982.394531	2377.919189	7.091927
443.664764	1112.729614	18224.646484	2389.296875	7.460107
444.023102	1044.463989	18793.525391	2336.959961	7.282053
444.381500	1085.423462	18377.105469	2361.990479	7.382550
444.739777	1026.259888	18600.107422	2352.888428	7.548879
445.098022	1094.525513	18734.363281	2252.765625	6.566047
445.456238	1033.086426	18656.994141	2375.643799	7.617819
445.814423	1085.423462	19483.009766	2430.256104	7.309832
446.172577	1023.984375	20320.400391	2571.338623	8.018868
446.530701	1101.352051	20468.310547	2503.072998	7.237692
446.888733	1060.392700	21344.384766	2534.930176	7.269464
447.246765	1076.321289	22152.195313	2541.756836	6.953142
447.604736	1064.943726	21137.312500	2607.746826	7.686203
447.962677	1049.015137	21756.253906	2575.889648	7.373627
448.320587	1046.739624	21904.164063	2580.440674	7.353262
448.678436	1019.433350	21389.896484	2603.195801	7.774798
449.036255	1128.658325	21253.365234	2555.409912	7.089552
449.394043	1017.157776	19949.490234	2539.481201	8.040866
449.751770	1087.698975	20347.707031	2557.685303	7.632325
450.109467	998.953613	19626.367188	2562.236328	8.392377
450.467163	1064.943726	19517.142578	2596.369141	8.299419
450.824768	1060.392700	19232.701172	2610.022461	8.527424
451.182343	1069.494751	19025.628906	2676.012451	8.946901
451.539886	1064.943726	18356.626953	2669.185791	9.277535
451.897369	989.851563	18468.126953	2614.573486	9.295665
452.254822	1099.076538	18201.890625	2664.634766	9.153805
452.612274	1101.352051	18759.392578	2792.063965	9.574742
452.969635	1023.984375	18656.994141	2858.054199	10.401343
453.326965	1044.463989	18538.667969	2917.217773	10.704996
453.684326	1042.188477	18513.636719	2876.258301	10.497525
454.041534	1014.882263	17922.001953	2919.493164	11.265141
454.398773	1023.984375	17576.123047	2942.248291	11.589221
454.755951	1062.668213	17173.355469	2994.585449	11.991526
455.113098	1023.984375	16866.160156	3021.891602	12.611319
455.470215	1158.240112	16754.660156	2958.177002	11.540706
455.827240	1060.392700	16736.455078	3081.055176	12.890115
456.184265	1078.596802	16413.332031	3208.484375	13.889302
456.541260	1062.668213	16793.343750	3167.524902	13.380587
456.898193	1105.903076	16447.464844	3335.913574	14.535747
457.255096	1033.086426	16984.486328	3301.780762	14.222540
457.611969	1069.494751	16624.955078	3433.760986	15.198947
457.968781	1071.770264	16590.822266	3545.261475	15.938417
458.325531	1105.903076	17234.794922	3722.751953	16.224604
458.682312	1049.015137	17908.349609	4000.365479	17.505735
459.039001	1071.770264	18868.619141	4196.060547	17.555300
459.395630	1039.912964	19703.734375	4496.429199	18.519873
459.752289	1014.882263	21005.332031	4701.226074	18.440525
460.108856	1023.984375	22919.044922	5213.218262	19.133238
460.465363	1049.015137	23478.824219	5447.596680	19.610428
460.821899	1103.627563	23817.876953	5374.780273	18.803846
461.178345	1053.566162	22702.871094	5509.035645	20.580198
461.534760	1076.321289	22275.072266	5563.648438	21.167885
461.891144	1076.321289	21722.121094	5320.167480	20.555492
462.247467	1014.882263	20588.912109	5326.994141	22.029760
462.603760	1103.627563	20174.767578	5349.749512	22.264647
462.960052	1053.566162	18697.955078	5119.921875	23.046169
463.316254	1092.250000	18443.095703	5163.156738	23.462296
463.672424	1092.250000	18231.472656	5220.044922	24.083910
464.028564	1101.352051	17516.958984	5044.829590	24.022734
464.384644	1140.035889	17380.427734	5115.370605	24.478071
464.740723	1021.708862	18072.185547	5367.953613	25.490458
465.096741	1014.882263	17683.072266	5304.238770	25.733788
465.452698	1003.504700	17407.734375	5429.392578	26.980160
465.808655	960.269775	17696.724609	5663.771484	28.103334
466.164520	1069.494751	17623.908203	5634.189453	27.573883
466.520355	1044.463989	18358.902344	6041.507813	28.860561
466.876190	1155.964600	18256.503906	6016.477051	28.423155
467.231964	1049.015137	18616.035156	6084.742676	28.665804
467.587677	1037.637451	18975.568359	6241.753418	29.011797
467.943390	1094.525513	19332.824219	6373.733887	28.945728
468.299011	1158.240112	18661.546875	6523.917969	30.655224
468.654633	1149.138062	18506.810547	6394.213379	30.217619
469.010223	1021.708862	18540.943359	6478.407715	31.146902
469.365723	1167.342163	18067.634766	6278.162109	30.241013
469.721191	1117.280762	18183.687500	6273.610840	30.213333
470.076660	1110.454102	17396.357422	6225.824707	31.409805
470.432068	1062.668213	17928.828125	6467.030273	32.042637
470.787445	1042.188477	17601.154297	6476.132324	32.815723
471.142792	1078.596802	17464.623047	6605.836914	33.731426
471.498016	1064.943726	17767.265625	6630.867676	33.324253
471.853271	1042.188477	17790.021484	6724.164063	33.926632
472.208496	1055.841675	17937.929688	6812.909180	34.101631
472.563660	1012.606750	18042.603516	6828.837891	34.152863
472.918762	1115.005249	18251.953125	7113.277832	35.001991
473.273865	1112.729614	18684.300781	7204.298828	34.667187
473.628876	1026.259888	18934.609375	7513.769531	36.226173
473.983917	1071.770264	18932.333984	7502.392090	36.004585
474.338837	1071.770264	19143.957031	7666.229492	36.489544
474.693787	1101.352051	19096.169922	7568.382324	35.938290
475.048645	1058.117188	18757.117188	7381.789551	35.728981
475.403503	1089.974487	19314.621094	7652.576660	36.009487
475.758270	1010.331238	19519.417969	7830.066895	36.845341
476.113037	1035.361938	19298.691406	7884.679688	37.503117
476.467773	1117.280762	19746.968750	8144.088867	37.718334
476.822418	1174.168701	20825.566406	8683.387695	38.212135
477.177063	1010.331238	20247.583984	8301.099609	37.899220
477.531647	1028.535400	20880.179688	8697.040039	38.629066
477.886200	1005.780212	21494.570313	9065.674805	39.338066
478.240723	1044.463989	22108.960938	9088.429688	38.187317
478.595184	1074.045776	22113.511719	9466.166992	39.887520
478.949585	1089.974487	22677.839844	9750.606445	40.118057
479.303986	1076.321289	22805.269531	9668.687500	39.543404
479.658325	992.127075	23267.201172	9980.434570	40.351414
480.012634	1074.045776	22919.044922	9912.168945	40.458332
480.366913	1010.331238	23863.386719	10287.629883	40.595444
480.721130	1062.668213	24375.378906	10308.109375	39.658371
481.075317	1144.586914	25124.025391	10738.182617	40.007591
481.429474	1042.188477	26345.980469	11275.206055	40.440647
481.783569	1074.045776	27096.902344	11798.575195	41.211960
482.137604	1076.321289	28489.519531	12633.691406	42.159874
482.491669	1101.352051	31129.125000	13664.501953	41.838436
482.845612	989.851563	34688.039063	14918.314453	41.332973
483.199554	1037.637451	38736.191406	17123.294922	42.669163
483.553436	1030.810913	45319.273438	20086.021484	43.025227
483.907318	1092.250000	52503.089844	23888.417969	44.341171
484.261139	1108.178589	57998.472656	27465.535156	46.330151
484.614899	1099.076538	59985.003906	29479.371094	48.195377
484.968628	1105.903076	59912.187500	29106.187500	47.614445
485.322357	1058.117188	57973.445313	27526.974609	46.505676
485.675964	1133.209351	54819.570313	25135.402344	44.708179
486.029572	1110.454102	51119.574219	23435.587891	44.642120
486.383148	969.371887	47931.570313	21779.009766	44.311466
486.736694	1028.535400	45879.050781	21016.710938	44.566212
487.090149	1074.045776	45740.242188	20841.494141	44.255951
487.443604	1069.494751	46859.800781	21792.662109	45.256672
487.796997	1071.770264	48165.949219	22675.564453	45.873600
488.150360	1067.219238	50236.671875	23626.732422	45.881157
488.503693	1042.188477	50939.808594	23524.333984	45.056545
488.856964	1071.770264	49988.640625	23262.648438	45.364468
489.210175	1051.290649	47296.699219	22136.265625	45.593658
489.563416	1046.739624	44905.128906	20937.066406	45.351246
489.916565	1110.454102	42374.750000	20113.328125	46.051613
490.269653	1083.147949	39924.011719	18463.576172	44.747791
490.622772	1115.005249	38645.167969	18361.177734	45.952827
490.975769	1035.361938	38567.800781	17994.818359	45.186134
491.328735	1083.147949	40046.890625	18964.189453	45.891487
491.681732	1049.015137	42024.316406	19969.970703	46.176487
492.034607	1042.188477	44613.859375	21515.048828	46.986629
492.387482	1017.157776	45430.773438	21763.080078	46.710724
492.740326	1099.076538	44852.789063	21517.324219	46.666325
493.093079	1028.535400	42939.078125	20579.810547	46.650017
493.445862	1021.708862	39093.449219	18825.382813	46.763485
493.798523	1033.086426	36228.566406	17148.324219	45.787807
494.151215	1101.352051	33502.492188	16119.789063	46.351570
494.503815	1058.117188	30969.837891	14920.589844	46.344620
494.856384	1064.943726	29026.542969	14306.199219	47.355145
495.208923	1046.739624	28182.324219	13664.501953	46.498955
495.561432	1117.280762	27435.955078	13309.521484	46.325436
495.913879	1083.147949	26468.857422	13295.868164	48.108646
496.266296	1049.015137	26971.748047	13248.082031	47.059338
496.618683	1080.872437	26951.267578	13257.184570	47.066589
496.970978	1110.454102	27611.169922	13835.166016	48.016487
497.323273	1035.361938	27891.058594	13787.380859	47.483475
497.675507	1021.708862	28519.101563	13964.871094	47.070507
498.027710	1099.076538	28473.591797	14042.239258	47.281799
498.379852	1094.525513	27704.464844	13973.973633	48.400894
498.731995	1049.015137	27572.486328	13983.075195	48.764584
499.084076	1121.831787	27021.808594	13762.349609	48.805130
499.436096	1089.974487	26910.308594	13238.980469	47.052086
499.788086	1078.596802	26250.408203	13075.142578	47.658653
500.140106	1087.698975	26009.203125	12849.866211	47.196857
500.491943	1085.423462	25126.300781	12731.539063	48.442970
500.843842	1117.280762	24819.105469	12476.680664	47.926270
501.195679	1046.739624	23968.060547	12219.546875	48.744171
501.547455	1076.321289	24206.990234	12221.822266	48.184952
501.899231	1053.566162	23747.335938	12164.934570	48.962196
502.250885	983.024963	23642.660156	11921.453125	48.272743
502.602600	1010.331238	23276.302734	11848.636719	48.676548
502.954193	1101.352051	23287.679688	12019.300781	49.210258
503.305786	1105.903076	23066.955078	12085.291016	49.994816
503.657379	1094.525513	23490.201172	11951.035156	48.475918
504.008820	1089.974487	23365.046875	11994.270508	48.952908
504.360291	1080.872437	23892.968750	12162.658203	48.578552
504.711700	1026.259888	24034.050781	12397.037109	49.421421
505.063080	1058.117188	24243.398438	12390.210938	48.876240
505.414368	1017.157776	24102.316406	12383.383789	49.236073
505.765656	1028.535400	23754.162109	12192.240234	49.123859
506.116943	1033.086426	23658.589844	12358.353516	50.055317
506.468109	1060.392700	23633.558594	12046.607422	48.669357
506.819305	955.718750	23269.476563	12087.566406	49.887821
507.170410	1030.810913	23540.261719	12055.708984	48.978973
507.521484	1049.015137	23501.578125	11948.759766	48.545658
507.872559	1051.290649	23635.833984	12171.760742	49.239296
508.223480	1053.566162	23506.128906	12149.005859	49.417252
508.574493	1035.361938	24350.347656	12699.681641	50.029278
508.925385	1110.454102	24232.021484	12583.629883	49.621101
509.276245	1126.382813	24641.615234	12733.814453	49.361332
509.627045	1101.352051	25269.658203	12897.652344	48.808968
509.977814	1069.494751	25240.076172	13227.602539	50.301262
510.328613	1051.290649	25167.259766	13154.786133	50.188717
510.679260	1037.637451	25410.740234	13291.317383	50.275417
511.029999	1064.943726	26027.406250	13289.041016	48.969917
511.380585	1110.454102	25783.925781	13336.827148	49.552704
511.731140	1062.668213	26396.041016	13341.378906	48.468521
512.081726	1074.045776	26434.724609	13684.982422	49.726334
512.432129	1089.974487	26805.634766	13578.032227	48.562073
512.782654	1042.188477	26721.441406	13755.523438	49.508194
513.133057	1042.188477	26725.992188	13682.707031	49.215912
513.483398	1030.810913	26682.757813	13887.503906	50.119755
513.833801	1012.606750	26883.001953	13844.268555	49.599792
514.183960	1003.504700	26491.613281	13512.042969	49.075974
514.534302	1092.250000	26061.539063	13382.337891	49.220818
514.884460	1151.413574	26355.082031	13662.226563	49.638855
515.234619	1108.178589	25909.080078	13352.755859	49.371498
515.584717	1124.107300	25827.160156	13459.705078	49.935520
515.934753	1094.525513	25938.662109	13348.205078	49.322220
516.284851	1124.107300	26377.837891	13605.338867	49.423317
516.634766	1130.933838	26582.634766	13578.032227	48.904781
516.984741	1101.352051	27101.453125	13639.471680	48.223347
517.334595	1089.974487	27636.199219	14194.699219	49.365681
517.684448	1101.352051	28589.642578	14588.364258	49.064571
518.034363	1096.801025	29775.189453	15489.469727	50.186462
518.384094	1033.086426	30981.214844	15582.766602	48.582935
518.733826	1064.943726	31898.250000	16356.443359	49.594097
519.083496	992.127075	32942.714844	16882.087891	49.732922
519.433167	1085.423462	33350.031250	16936.701172	49.128994
519.782776	1055.841675	33099.726563	16688.669922	48.785683
520.132324	1069.494751	32849.417969	16595.373047	48.854359
520.481873	1019.433350	32155.384766	16324.585938	49.155884
520.831299	1053.566162	31277.033203	16076.554688	49.706371
521.180786	1030.810913	30674.019531	15314.254883	48.184540
521.530151	1019.433350	29877.587891	15218.683594	49.203598
521.879517	1110.454102	29128.941406	15152.693359	50.117764
522.228882	1085.423462	29019.716797	14900.110352	49.454220
522.578064	1080.872437	29131.216797	14688.486328	48.511398
522.927307	1105.903076	28921.869141	14720.343750	48.944695
523.276489	1087.698975	28976.482422	14795.436523	49.151436
523.625610	1080.872437	29763.812500	15079.875977	48.806030
523.974792	1046.739624	30175.681641	15239.163086	48.722759
524.323792	1055.841675	30758.214844	15541.806641	48.770397
524.672852	1149.138062	31008.521484	15714.747070	48.780678
525.021790	1001.229126	32387.488281	16153.921875	48.278107
525.370728	1037.637451	34075.925781	17225.693359	48.997864
525.719604	1103.627563	35575.492188	18215.544922	49.640247
526.068420	1117.280762	37295.785156	19027.904297	49.506256
526.417297	1010.331238	38852.242188	19894.878906	49.903790
526.765991	1039.912964	40219.832031	19972.246094	48.321526
527.114746	1021.708862	41394.000000	20830.117188	49.064362
527.463379	1051.290649	42413.433594	21599.244141	49.678162
527.812012	1146.862427	45128.128906	22645.982422	48.882446
528.160706	1087.698975	48789.441406	24762.216797	49.630299
528.509155	1126.382813	53490.667969	27620.271484	50.595341
528.857727	1117.280762	57636.667969	30710.429688	52.359287
529.206177	1044.463989	59723.320313	32637.794922	53.841080
529.554565	1044.463989	60041.890625	32708.335938	53.669918
529.902893	1117.280762	58897.304688	31616.085938	52.784340
530.251221	1103.627563	56872.089844	29834.353516	51.517876
530.599548	1069.494751	53677.261719	27422.300781	50.092999
530.947876	1067.219238	50077.386719	25183.189453	49.206055
531.296021	1096.801025	46306.847656	22930.423828	48.293743
531.644165	1078.596802	43284.957031	21815.417969	49.131981
531.992249	1078.596802	41457.714844	20750.474609	48.717949
532.340454	1101.352051	40795.535156	20245.308594	48.228619
532.688354	1094.525513	40647.628906	20313.574219	48.590496
533.036438	1092.250000	41871.859375	20814.189453	48.362255
533.384338	1080.872437	44229.296875	22061.173828	48.623562
533.732239	987.576050	46543.503906	23194.382813	48.746250
534.080139	1026.259888	47260.292969	23560.742188	48.740032
534.427917	1021.708862	46543.503906	23160.250000	48.632835
534.775757	1074.045776	44293.011719	21874.582031	48.128262
535.123474	1096.801025	42265.523438	21255.640625	48.966396
535.471191	1019.433350	39933.113281	19933.562500	48.605347
535.818848	1064.943726	38665.648438	19068.865234	47.881874
536.166382	1049.015137	37241.171875	18732.087891	48.858852
536.513977	1115.005249	37566.574219	18727.537109	48.317619
536.861511	1026.259888	38142.281250	18843.587891	48.004414
537.208984	1042.188477	38155.933594	18695.679688	47.565914
537.556396	1121.831787	37910.175781	18663.822266	47.683556
537.903809	1083.147949	36893.019531	18088.115234	47.486813
538.251160	1060.392700	36135.269531	17912.900391	48.047237
538.598389	1094.525513	34929.246094	17105.089844	47.319927
538.945740	1023.984375	33409.195313	16686.394531	48.362846
539.292969	1021.708862	32917.683594	16137.993164	47.392452
539.640137	1049.015137	32640.070313	16110.687500	47.677013
539.987244	1087.698975	33102.000000	16538.484375	48.262135
540.334351	1108.178589	34069.097656	16961.732422	48.098034
540.681458	1103.627563	35668.789063	17696.724609	48.005268
541.028442	1003.504700	39063.867188	19460.253906	48.493362
541.375366	1103.627563	42406.605469	21128.210938	48.482182
541.722290	1039.912964	46402.421875	22973.658203	48.352146
542.069153	1074.045776	47808.691406	23940.753906	48.928818
542.416016	1069.494751	48611.949219	24204.714844	48.662235
542.762756	1080.872437	47312.628906	23078.332031	47.580841
543.109558	1155.964600	45380.710938	22696.044922	48.705944
543.456299	1039.912964	43394.183594	21398.998047	48.068558
543.802917	1142.311401	41728.500000	20486.513672	47.662037
544.149536	985.300537	39321.000000	19787.929688	49.047310
544.496094	1071.770264	37211.589844	18420.341797	48.004036
544.842651	1021.708862	35589.144531	17596.601563	47.949440
545.189148	1133.209351	34050.894531	16693.220703	47.269463
545.535583	1046.739624	32621.867188	16265.422852	48.198330
545.882019	1092.250000	31777.648438	15837.625000	48.053394
546.228333	1008.055725	31261.105469	15614.624023	48.281311
546.574707	1005.780212	31363.503906	15682.889648	48.347198
546.920898	1080.872437	31147.328125	15678.337891	48.550671
547.267212	1092.250000	31481.830078	15564.562500	47.622616
547.613342	1037.637451	31206.492188	15425.755859	47.691959
547.959473	1055.841675	30660.367188	15245.989258	47.932358
548.305664	996.678101	29986.812500	14574.710938	46.836739
548.651611	1089.974487	28905.941406	14267.515625	47.374016
548.997742	1042.188477	27690.812500	13409.644531	46.409359
549.343689	1049.015137	26250.408203	13091.071289	47.783298
549.689575	1074.045776	25733.865234	12265.056641	45.381557
550.035522	1083.147949	24718.982422	12001.096680	46.192360
550.381287	1108.178589	23776.916016	11618.809570	46.366192
550.727173	1101.352051	23658.589844	11361.675781	45.485729
551.072876	1110.454102	23064.679688	11429.941406	47.004559
551.418640	1092.250000	22859.882813	11008.969727	45.557178
551.764282	1080.872437	22759.759766	11040.827148	45.943111
552.109863	1058.117188	22848.503906	10963.458984	45.457394
552.455505	1119.556274	22823.474609	11122.746094	46.089325
552.801025	1069.494751	23465.169922	11172.807617	45.112782
553.146545	1044.463989	23319.537109	11382.155273	46.409237
553.491943	1019.433350	23993.091797	11343.471680	44.938591
553.837341	1012.606750	23767.814453	11245.624023	44.970005
554.182800	1060.392700	23617.630859	11172.807617	44.830021
554.528015	971.647400	23305.884766	11004.418945	44.921036
554.873352	1049.015137	23101.087891	10770.040039	44.082142
555.218628	1028.535400	22682.390625	10583.447266	44.125687
555.563721	1055.841675	22240.939453	10421.885742	44.210529
555.908875	1042.188477	22040.695313	10273.976563	43.964020
556.254028	1058.117188	21446.783203	10160.200195	44.642857
556.599121	1060.392700	21355.763672	10112.414063	44.601410
556.944031	1053.566162	21205.578125	9784.739258	43.326557
557.289063	1126.382813	20902.933594	9857.555664	44.149120
557.633972	1074.045776	21037.189453	9789.290039	43.656670
557.978882	1060.392700	20727.718750	9614.075195	43.491844
558.323792	1137.760376	20529.748047	9550.360352	43.381832
558.668518	1110.454102	20140.634766	9582.217773	44.517517
559.013306	1087.698975	20479.687500	9477.543945	43.264488
559.358032	1124.107300	19967.695313	9395.625000	43.895660
559.702637	1085.423462	20211.175781	9575.391602	44.390244
560.047363	1008.055725	20322.675781	9325.083984	43.060795
560.391846	1044.463989	20072.369141	9368.319336	43.745518
560.736450	1101.352051	20179.318359	9149.869141	42.187500
561.080933	1089.974487	19878.949219	9545.809570	45.004238
561.425354	1089.974487	20532.023438	9393.349609	42.708332
561.769775	1092.250000	20454.656250	9554.912109	43.706665
562.114136	1026.259888	20689.035156	9557.187500	43.386185
562.458496	1046.739624	20798.259766	9589.044922	43.248852
562.802673	1058.117188	20650.351563	9384.248047	42.497097
563.146912	1094.525513	20354.533203	9347.839844	42.852081
563.491150	1046.739624	20263.513672	9081.603516	41.811722
563.835266	1049.015137	20231.656250	9209.032227	42.538551
564.179443	1080.872437	20290.818359	9341.012695	42.999294
564.523438	1096.801025	20038.236328	9136.215820	42.443535
564.867493	1049.015137	20190.695313	9004.235352	41.559677
565.211426	1067.219238	20664.003906	9097.532227	40.977707
565.555359	1064.943726	20982.578125	9204.481445	40.865986
565.899231	1060.392700	21453.609375	9593.595703	41.843342
566.243042	1128.658325	21751.703125	9734.677734	41.730110
566.586914	1055.841675	22418.431641	9930.373047	41.542393
566.930603	1069.494751	23139.771484	10151.098633	41.148571
567.274292	1105.903076	22932.699219	10260.323242	41.941196
567.617981	1162.791138	22978.208984	10132.894531	41.118183
567.961609	1074.045776	22209.083984	9930.373047	41.903530
568.305237	1060.392700	21926.917969	9716.473633	41.483097
568.648682	1096.801025	21635.652344	9630.003906	41.546642
568.992188	1042.188477	21128.210938	9393.349609	41.576977
569.335632	1103.627563	21289.773438	9388.798828	41.043846
569.679016	1067.219238	21207.853516	9347.839844	41.114002
570.022461	1074.045776	21098.628906	9361.492188	41.386360
570.365662	1103.627563	21114.556641	9140.766602	40.163746
570.708984	1085.423462	20937.066406	9229.512695	41.024765
571.052185	1155.964600	21298.875000	9275.022461	40.307274
571.395386	1042.188477	21376.242188	9334.186523	40.778873
571.738525	1069.494751	22161.296875	9375.145508	39.378571
572.081604	1069.494751	22507.175781	9759.708984	40.537098
572.424683	1092.250000	22880.361328	9748.331055	39.728458
572.767578	1110.454102	23192.107422	9843.903320	39.550705
573.110596	980.749451	22955.453125	9634.554688	39.380764
573.453552	1119.556274	23005.515625	9907.617188	40.153873
573.796387	1060.392700	22577.716797	9666.412109	39.995770
574.139282	1094.525513	22602.748047	9589.044922	39.494289
574.481995	1019.433350	22004.287109	9498.023438	40.403378
574.824768	980.749451	22031.591797	9400.176758	39.995682
575.167480	1017.157776	22243.216797	9341.012695	39.215263
575.510132	1074.045776	21806.316406	9040.644531	38.426079
575.852722	1039.912964	21851.826172	9081.603516	38.639839
576.195251	1039.912964	21751.703125	9054.296875	38.694790
576.537842	1039.912964	21378.517578	8945.072266	38.867756
576.880188	1092.250000	20907.484375	8751.653320	38.654114
577.222717	1049.015137	20268.064453	8578.713867	39.178310
577.565063	1044.463989	20058.716797	8383.018555	38.595020
577.907410	1092.250000	19883.500000	8141.813477	37.515137
578.249756	1085.423462	19228.150391	8057.619141	38.429703
578.591919	1053.566162	19219.048828	7882.404297	37.592384
578.934204	1069.494751	18461.300781	7591.137207	37.498363
579.276306	1119.556274	18540.943359	7679.882813	37.656742
579.618469	1001.229126	17869.664063	7379.514160	37.811954
579.960571	1071.770264	17610.255859	7584.311035	39.378098
580.302551	1053.566162	17432.765625	7281.666504	38.024452
580.644531	1130.933838	17309.886719	7313.523926	38.213783
580.986511	1053.566162	17364.500000	7088.247070	36.997765
581.328369	1035.361938	17171.080078	6894.828125	36.313641
581.670227	1101.352051	17143.773438	6885.726074	36.056740
582.012024	1101.352051	16706.873047	6715.062012	35.972588
582.353821	1115.005249	16665.914063	6885.726074	37.108574
582.695496	1019.433350	16583.996094	6712.786133	36.578945
583.037231	1110.454102	16606.750000	6601.285645	35.433186
583.378845	1076.321289	16540.759766	6583.081543	35.609184
583.720398	989.851563	16306.381836	6699.133301	37.275295
584.062012	1062.668213	16304.106445	6496.611816	35.652431
584.403442	1078.596802	16602.199219	6637.694336	35.810616
584.744934	1019.433350	16310.933594	6492.061035	35.788692
585.086365	1071.770264	16215.361328	6596.734863	36.483849
585.427734	1130.933838	15933.196289	6410.142090	35.664871
585.768982	1115.005249	15933.196289	6421.519531	35.810810
586.110291	1153.689087	15910.441406	6332.774414	35.096378
586.451599	1005.780212	15994.635742	6212.171875	34.735085
586.792725	1117.280762	15908.166016	6237.202637	34.615387
587.133850	1053.566162	15853.553711	6121.150879	34.240467
587.474915	1103.627563	15914.992188	6232.651367	34.628979
587.815979	1099.076538	15967.329102	6307.743652	35.032139
588.157043	1055.841675	16288.177734	6296.366211	34.403946
588.497925	1146.862427	16358.718750	6269.059570	33.672401
588.838867	1078.596802	16156.197266	6353.253906	34.983398
589.179749	1108.178589	16465.667969	6275.886230	33.649429
589.520569	1055.841675	16404.228516	6339.601074	34.425503
589.861450	1112.729614	16820.650391	6316.845703	33.130524
590.202087	1087.698975	16579.445313	6168.937012	32.799648
590.542847	1080.872437	16649.986328	6112.048828	32.315109
590.883484	1053.566162	16936.701172	6294.090332	32.994270
591.224121	1085.423462	16627.230469	6127.977539	32.445095
591.564636	1128.658325	16479.322266	6116.600098	32.493328
591.905151	1067.219238	16206.258789	5927.731445	32.105816
592.245667	1101.352051	16219.912109	5952.762207	32.089100
592.585999	1117.280762	16060.625977	5900.425293	32.008526
592.926453	1008.055725	15978.707031	5800.302734	32.010944
593.266724	1110.454102	16395.126953	5798.026855	30.668453
593.607056	1039.912964	16215.361328	5859.465820	31.758883
593.947388	1092.250000	15965.053711	5932.282715	32.542839
594.287476	998.953613	16310.933594	5647.842773	30.361122
594.627686	1003.504700	16488.423828	6000.548340	32.270390
594.967773	1069.494751	16659.087891	5825.333008	30.506495
595.307861	1010.331238	16734.179688	5875.394531	30.940666
595.647888	1112.729614	16918.498047	5934.558105	30.506765
595.987854	985.300537	17132.396484	5955.038086	30.777903
596.327820	1049.015137	17510.132813	5882.221191	29.361349
596.667725	1051.290649	18051.707031	6052.885254	29.420425
597.007568	1076.321289	18513.636719	6159.834961	29.153074
597.347351	1101.352051	19159.884766	6321.396973	28.906250
597.687073	1099.076538	19494.386719	6480.683105	29.255318
598.026794	1119.556274	19023.353516	6419.244141	29.600916
598.366455	1064.943726	18766.220703	6125.702148	28.589792
598.706116	1099.076538	18117.697266	5893.598633	28.172213
599.045654	1012.606750	17769.541016	5782.098145	28.462791
599.385193	1049.015137	17109.640625	5700.179688	28.960047
599.724731	987.576050	16552.138672	5458.974609	28.728069
600.064087	1067.219238	16185.779297	5370.229004	28.461769
600.403564	1058.117188	15742.052734	5144.952637	27.832018
600.742920	1019.433350	15503.123047	4942.431152	27.085625
601.082153	1023.984375	15664.685547	5185.912109	28.427107
601.421387	964.820801	15118.560547	5085.789063	29.115755
601.760620	1019.433350	15261.917969	5019.798828	28.087553
602.099854	1108.178589	15537.255859	5101.717773	27.677023
602.438843	1083.147949	15377.969727	4931.053711	26.918179
602.778015	1062.668213	15705.644531	5101.717773	27.583529
603.117065	1014.882263	16342.790039	5122.197266	26.796318
603.456055	1051.290649	16586.271484	5356.576172	27.713493
603.794983	1087.698975	17064.130859	5424.841797	27.147129
604.133850	1055.841675	17767.265625	5502.209473	26.606756
604.472778	1076.321289	18063.083984	5568.199219	26.443403
604.811584	1092.250000	18832.210938	5720.659180	26.090302
605.150330	1037.637451	19125.751953	5784.374023	26.242294
605.489075	1023.984375	19621.816406	5980.068848	26.648722
605.827698	1126.382813	19665.050781	5836.710938	25.408127
606.166382	1053.566162	18898.201172	5752.516602	26.332565
606.504883	1080.872437	18415.789063	5547.719727	25.767920
606.843445	1076.321289	17844.634766	5363.402344	25.566563
607.181946	971.647400	17259.826172	5356.576172	26.920927
607.520386	1019.433350	16524.832031	5065.309082	26.093336
607.858826	1008.055725	16258.595703	5006.145996	26.216057
608.197083	1053.566162	16203.983398	4865.063477	25.157705
608.535461	1071.770264	15494.021484	4776.318359	25.686338
608.873718	1046.739624	16017.390625	4837.757324	25.322996
609.211914	1071.770264	16108.412109	4910.573730	25.529659
609.550171	1078.596802	16954.906250	4953.808594	24.408770
609.888245	1094.525513	17064.130859	4974.288574	24.294672
610.226318	1103.627563	17516.958984	5197.289551	24.941078
610.564392	1030.810913	17237.070313	5163.156738	25.498453
610.902344	1078.596802	17130.121094	5133.574707	25.262260
611.240295	1121.831787	17182.457031	5108.544434	24.822899
611.578247	1103.627563	16754.660156	4874.165527	24.091307
611.916138	1135.484863	16320.035156	4978.839355	25.310953
612.253845	1049.015137	15530.429688	4621.582520	24.670017
612.591675	1103.627563	15441.684570	4532.837402	23.916840
612.929382	1037.637451	15009.334961	4475.949219	24.609119
613.267090	1001.229126	14262.964844	4369.000000	25.394648
613.604736	1133.209351	14442.730469	4353.071289	24.192167
613.942261	1042.188477	14265.240234	4273.428223	24.436415
614.279785	946.616638	14226.555664	4246.121582	24.845783
614.617310	978.473938	14064.994141	4234.744141	24.882627
614.954712	1008.055725	13730.492188	4221.091309	25.254877
615.292175	1044.463989	14003.554688	4155.101074	24.003513
615.629517	1126.382813	13571.206055	4159.651855	24.373741
615.966797	1089.974487	13543.899414	4100.488281	24.173212
616.304138	1076.321289	13409.644531	4066.355713	24.243542
616.641296	1064.943726	13719.115234	4100.488281	23.988487
616.978516	1033.086426	13325.450195	3975.334961	23.935581
617.315552	1085.423462	13637.196289	3988.988037	23.132704
617.652771	1121.831787	13418.746094	4018.569824	23.556625
617.989685	1017.157776	13628.093750	3968.508301	23.403107
618.326721	1108.178589	13477.910156	4159.651855	24.668871
618.663696	1092.250000	13568.930664	4091.386475	24.037935
619.000549	1121.831787	13816.961914	4157.376465	23.911097
619.337463	1074.045776	13587.134766	4141.447754	24.513546
619.674194	1076.321289	13578.032227	3966.232666	23.116127
620.010986	1087.698975	13457.429688	4064.080078	24.061810
620.347778	1076.321289	13430.124023	3957.130615	23.319210
620.684387	1101.352051	13434.674805	4109.590332	24.391144
621.020996	1030.810913	13248.082031	3897.967041	23.468058
621.357605	1078.596802	13150.234375	3866.109863	23.091425
621.694214	1058.117188	13145.683594	3793.293213	22.628012
622.030579	1080.872437	13015.978516	3859.283203	23.279312
622.367065	1012.606750	13086.520508	3877.487549	23.727856
622.703430	1067.219238	13047.835938	3759.160400	22.469135
623.039795	1026.259888	12902.203125	3695.445801	22.475571
623.376160	1030.810913	12890.825195	3834.252441	23.637756
623.712402	1178.719727	12827.110352	3779.640137	22.328581
624.048645	1099.076538	12799.804688	3747.782715	22.637104
624.384766	1105.903076	12813.458008	3770.538086	22.759962
624.720886	1042.188477	12918.131836	3781.915527	23.069553
625.057007	1067.219238	12918.131836	3765.986816	22.772657
625.392944	1078.596802	13152.509766	3770.538086	22.295517
625.729004	1083.147949	13116.101563	3763.711426	22.276855
626.064941	1019.433350	13461.981445	3834.252441	22.622530
626.400818	1083.147949	13284.490234	3927.548828	23.312197
626.736633	1099.076538	13919.360352	3995.814453	22.594957
627.072449	1092.250000	13935.289063	3970.783691	22.413181
627.408264	1028.535400	13951.217773	4157.376465	24.212009
627.743896	998.953613	14426.801758	4223.366699	24.012880
628.079590	1021.708862	14181.045898	4084.559814	23.275118
628.415161	1051.290649	14404.046875	4052.702637	22.477848
628.750793	1037.637451	14014.932617	4041.324951	23.145714
629.086365	1105.903076	13707.737305	3920.722412	22.336584
629.421753	1064.943726	13336.827148	3813.772949	22.399406
629.757263	1060.392700	13154.786133	3704.547852	21.862654
630.092651	1008.055725	13097.897461	3738.680664	22.586111
630.427917	1128.658325	12849.866211	3734.129639	22.228691
630.763184	1096.801025	12681.477539	3713.649902	22.588881
631.098511	1128.658325	12681.477539	3590.771729	21.311796
631.433716	1094.525513	12244.577148	3602.149414	22.489798
631.768799	1055.841675	12242.301758	3629.455566	23.006508
632.103943	1133.209351	12019.300781	3652.210938	23.139631
632.438965	1158.240112	12139.903320	3533.883789	21.632822
632.773987	1049.015137	11939.657227	3499.750977	22.503134
633.109070	1030.810913	11873.667969	3486.097900	22.644281
633.443848	1087.698975	11759.891602	3529.332764	22.878466
633.778870	1035.361938	11648.390625	3613.527100	24.292454
634.113708	1046.739624	11991.994141	3586.220703	23.201662
634.448425	951.167725	12080.740234	3474.720215	22.674299
634.783264	985.300537	12060.259766	3490.648926	22.621740
635.117859	1058.117188	11896.422852	3502.026611	22.548815
635.452576	980.749451	12012.474609	3606.700439	23.803629
635.787170	1053.566162	11627.911133	3388.250488	22.078762
636.121704	1085.423462	11705.279297	3461.067139	22.369829
636.456177	1130.933838	11404.910156	3438.312012	22.458471
636.790588	1117.280762	11391.256836	3374.597412	21.971207
637.125122	1080.872437	11275.206055	3329.086914	22.053568
637.459412	1019.433350	11036.276367	3424.658691	24.011810
637.793762	1135.484863	10883.816406	3329.086914	22.502333
638.128052	1067.219238	10963.458984	3251.719238	22.074039
638.462280	1028.535400	10842.856445	3190.280273	22.026432
638.796509	1026.259888	10656.263672	3224.413086	22.826090
639.130615	1067.219238	10603.926758	3115.187988	21.474590
639.464722	1060.392700	10496.977539	3135.667725	21.991800
639.798767	1094.525513	10628.958008	3169.800537	21.766108
640.132751	1071.770264	10590.273438	3131.116699	21.635193
640.466736	1001.229126	10565.243164	3151.596191	22.483940
640.800598	1037.637451	10458.293945	3087.881836	21.763287
641.134521	1076.321289	10214.812500	3069.677490	21.812750
641.468262	1067.219238	10449.191406	3126.565674	21.950037
641.802063	1046.739624	10030.496094	3001.411865	21.757849
642.135803	1099.076538	9953.127930	3010.513916	21.588280
642.469421	1046.739624	9830.250000	2967.279053	21.865282
642.803101	1033.086426	10121.516602	3003.687500	21.682526
643.136658	1083.147949	9918.995117	3010.513916	21.813028
643.470215	1087.698975	9705.096680	2965.003662	21.785053
643.803711	1042.188477	9652.758789	2869.431641	21.220930
644.137085	1067.219238	9889.413086	2976.381104	21.640444
644.470581	1053.566162	9800.667969	3090.157227	23.283039
644.803833	1087.698975	9463.890625	2969.554688	22.466722
645.137207	1092.250000	9816.596680	3056.024414	22.509129
645.470459	1094.525513	9614.075195	2994.585449	22.302351
645.803589	1074.045776	9593.595703	3110.636963	23.904915
646.136780	1128.658325	9834.800781	3058.300049	22.164141
646.469849	1083.147949	9579.942383	2867.156250	20.996250
646.802979	1110.454102	9757.433594	2844.401123	20.052633
647.135986	1089.974487	9868.933594	3001.411865	21.772940
647.468994	1105.903076	9914.444336	2949.074951	20.924826
647.801941	1055.841675	9793.841797	3015.064941	22.421873
648.134766	1105.903076	9873.484375	2905.840088	20.529459
648.467651	1026.259888	9930.373047	3003.687500	22.208023
648.800354	1058.117188	9953.127930	2955.901611	21.335381
649.133179	1058.117188	9841.627930	2951.350586	21.554403
649.465881	1021.708862	9750.606445	2844.401123	20.881128
649.798462	1124.107300	9616.350586	2887.635986	20.766348
650.131104	1049.015137	9666.412109	2944.523926	21.996305
650.463623	1071.770264	9641.381836	2914.942139	21.508232
650.796143	1064.943726	9689.167969	2935.421875	21.688654
651.128662	1042.188477	9641.381836	2926.319824	21.910559
651.461060	1055.841675	9680.065430	2969.554688	22.189974
651.793396	1035.361938	9766.535156	2914.942139	21.527237
652.125732	1046.739624	9693.718750	2980.932129	22.368418
652.458008	1019.433350	9698.269531	2946.799316	22.207655
652.790222	1074.045776	9796.117188	2958.177002	21.601879
653.122437	1080.872437	9680.065430	2878.533936	20.905001
653.454529	1062.668213	9627.728516	2983.207764	22.422953
653.786621	1010.331238	9707.372070	2937.697266	22.161169
654.118713	1069.494751	9516.227539	2867.156250	21.282330
654.450623	1062.668213	9504.850586	2896.738037	21.725067
654.782654	1062.668213	9536.708008	2967.279053	22.475830
655.114502	1071.770264	9472.993164	2908.115479	21.858070
655.446350	1130.933838	9309.155273	2826.196777	20.728992
655.778198	1062.668213	9350.115234	2817.094727	21.169685
656.109863	1094.525513	9106.633789	2839.849854	21.783585
656.441650	1021.708862	9158.971680	2871.707275	22.734898
656.773254	1021.708862	9067.950195	2953.625977	24.010181
657.104919	1110.454102	9172.624023	2796.614990	20.914480
657.436462	1101.352051	9252.267578	2908.115479	22.166386
657.767944	1012.606750	9238.614258	2803.441650	21.770401
658.099548	1096.801025	9443.411133	2914.942139	21.782988
658.430908	1067.219238	9798.392578	3085.606201	23.117018
658.762268	1030.810913	9793.841797	2935.421875	21.734613
659.093628	1064.943726	10062.352539	3162.973877	23.318159
659.424927	1094.525513	10335.415039	3151.596191	22.260529
659.756226	1049.015137	10726.804688	3297.229736	23.230663
660.087341	992.127075	10995.316406	3274.474365	22.816195
660.418518	1105.903076	11077.235352	3390.525879	22.911911
660.749573	1144.586914	10704.049805	3238.066162	21.899549
661.080627	1124.107300	10810.999023	3217.586426	21.611464
661.411621	1067.219238	10681.294922	3222.137451	22.414200
661.742554	1124.107300	10344.517578	3124.290039	21.692991
662.073547	1135.484863	10021.393555	3033.269287	21.357237
662.404297	1096.801025	10028.219727	3003.687500	21.350319
662.735229	1080.872437	9645.932617	3019.616211	22.635494
663.065979	1055.841675	9577.666992	2917.217773	21.842459
663.396667	1028.535400	9281.849609	2994.585449	23.821339
663.727417	1099.076538	9067.950195	2928.595215	22.958309
664.057922	1071.770264	9052.021484	2805.717041	21.727974
664.388611	1071.770264	8869.980469	2846.676514	22.760431
664.719116	1078.596802	8922.317383	2739.727051	21.177835
665.049622	1062.668213	8535.478516	2901.289063	24.604141
665.380005	1076.321289	8576.437500	2782.961914	22.754856
665.710388	1049.015137	8644.703125	2776.135498	22.738169
666.040771	1053.566162	8626.499023	2682.839111	21.514425
666.371033	1042.188477	8569.611328	2803.441650	23.397825
666.701294	1046.739624	8360.263672	2848.952148	24.642191
667.031555	1017.157776	8462.662109	2760.206787	23.410759
667.361633	1108.178589	8587.815430	2814.819336	22.817162
667.691772	1099.076538	8464.937500	2798.890625	23.076923
668.021790	1067.219238	8453.559570	2757.931152	22.889711
668.351807	1003.504700	8494.519531	2732.900391	23.086269
668.681763	1037.637451	8360.263672	2817.094727	24.300808
669.011719	1083.147949	8371.640625	2835.298828	24.039963
669.341614	1028.535400	8451.284180	2894.462402	25.137951
669.671387	1044.463989	8567.335938	2901.289063	24.682396
670.001221	1055.841675	8535.478516	2823.921387	23.638577
670.330933	1039.912964	8317.028320	2814.819336	24.390247
670.660583	983.024963	8357.988281	2782.961914	24.406046
670.990173	1023.984375	8235.109375	2755.655762	24.013887
671.319763	1026.259888	8435.355469	2839.849854	24.477886
671.649292	1085.423462	8180.497070	2844.401123	24.791534
671.978821	1064.943726	8244.211914	2860.329590	25.007923
672.308289	1080.872437	8230.558594	2794.339600	23.965628
672.637695	1037.637451	8273.793945	2939.972900	26.289309
672.966980	1064.943726	8096.303223	2908.115479	26.213591
673.296326	1062.668213	8146.364258	2723.798340	23.450047
673.625610	1092.250000	7943.843262	2794.339600	24.842245
673.954773	1137.760376	8098.578613	2641.879639	21.608368
674.283936	1060.392700	7946.118652	2785.237549	25.049572
674.613037	1089.974487	7948.394043	2860.329590	25.812874
674.942078	1067.219238	7798.209961	2691.941162	24.137932
675.271118	1044.463989	7882.404297	2701.043213	24.226290
675.600098	1124.107300	7682.158203	2812.543701	25.746010
675.928955	1046.739624	7884.679688	2748.829102	24.891846
676.257813	1087.698975	7600.239258	2778.410889	25.960867
676.586670	1119.556274	7864.199707	2687.390137	23.245615
676.915466	1142.311401	7709.464355	2687.390137	23.527376
677.244141	1110.454102	7793.658691	2685.114502	23.561457
677.572876	1067.219238	7686.709473	2707.869873	24.785151
677.901489	1030.810913	7743.597168	2760.206787	25.762714
678.230042	1071.770264	7770.903320	2730.625000	24.762232
678.558594	1117.280762	7759.525879	2730.625000	24.289141
678.887085	1049.015137	7850.546875	2746.553711	24.958181
679.215515	1035.361938	7841.444824	2776.135498	25.576731
679.543945	1003.504700	8039.415039	2846.676514	26.196638
679.872253	1083.147949	8189.599121	2751.104736	23.471024
680.200562	1101.352051	8362.539063	2937.697266	25.289877
680.528809	1076.321289	8114.507324	2958.177002	26.737795
680.856995	1058.117188	8619.672852	3003.687500	25.729763
681.185120	1103.627563	8521.825195	3003.687500	25.613499
681.513306	1055.841675	8569.611328	2926.319824	24.894005
681.841309	1087.698975	8565.060547	3053.749023	26.293367
682.169373	1108.178589	8403.498047	3015.064941	26.138491
682.497314	1074.045776	8207.803711	3069.677490	27.974482
682.825134	1051.290649	8196.425781	3021.891602	27.579617
683.153076	983.024963	8339.784180	2983.207764	27.188370
683.480896	1080.872437	8178.221680	2914.942139	25.841616
683.808655	1049.015137	8187.323730	2826.196777	24.896397
684.136414	1044.463989	8082.649902	2992.309814	27.675396
684.464050	1135.484863	7786.832031	2844.401123	25.692783
684.791626	1112.729614	7780.005859	2860.329590	26.211603
685.119263	1085.423462	7543.351563	2748.829102	25.757574
685.446838	1083.147949	7468.259277	2817.094727	27.156094
685.774292	1039.912964	7431.851074	2789.788574	27.376291
686.101685	1003.504700	7527.422852	2798.890625	27.520058
686.429077	1078.596802	7502.392090	2710.145264	25.398512
686.756348	1069.494751	7293.043945	2739.727051	26.837296
687.083679	1033.086426	7233.880859	2753.380127	27.743118
687.410950	1080.872437	7497.840820	2792.063965	26.666666
687.738159	1151.413574	7327.176758	2716.971924	25.350039
688.065308	1126.382813	7570.657715	2737.451416	24.999998
688.392395	1115.005249	7527.422852	2778.410889	25.940382
688.719421	1089.974487	7531.973633	2876.258301	27.728720
689.046448	1085.423462	7459.157227	2812.543701	27.097464
689.373413	1060.392700	7475.085938	2732.900391	26.073072
689.700317	1055.841675	7324.901367	2712.420898	26.424685
690.027100	1003.504700	7302.146484	2778.410889	28.179192
690.353943	1064.943726	7172.441406	2696.492188	26.713861
690.680725	1008.055725	7006.328613	2662.359375	27.579668
691.007446	1051.290649	6979.022461	2632.777588	26.679461
691.334106	1026.259888	6812.909180	2691.941162	28.784901
691.660645	1149.138062	6662.725098	2691.941162	27.981840
691.987244	1001.229126	6662.725098	2600.920166	28.255625
692.313721	1044.463989	6551.224609	2678.288086	29.669422
692.640259	1096.801025	6694.582031	2582.716064	26.544714
692.966675	1137.760376	6658.173828	2671.461426	27.782358
693.293030	1089.974487	6535.295898	2580.440674	27.371502
693.619324	1037.637451	6548.948730	2512.175049	26.754749
693.945618	1099.076538	6405.590820	2594.093750	28.173244
694.271851	1046.739624	6419.244141	2496.246338	26.980093
694.598083	1117.280762	6382.835938	2544.032227	27.095936
694.924194	1051.290649	6341.876465	2610.022461	29.462366
695.250244	1051.290649	6280.437500	2519.001465	28.067883
695.576294	1001.229126	6289.539551	2514.450439	28.614456
695.902283	1060.392700	6216.722656	2453.011475	27.007944
696.228210	1039.912964	6376.009277	2546.307861	28.230280
696.554138	1058.117188	6339.601074	2646.430664	30.073242
696.879944	1101.352051	6360.080566	2655.532715	29.554304
697.205750	1128.658325	6451.101563	2619.124512	28.003420
697.531433	1033.086426	6517.091797	2623.675537	29.004148
697.857178	1080.872437	6710.510742	2719.247314	29.102667
698.182739	1115.005249	6771.949707	2682.839111	27.715208
698.508423	1078.596802	7233.880859	2842.125488	28.650646
698.833984	1030.810913	7274.839844	2962.728027	30.940233
699.159485	1099.076538	7616.167969	3005.962891	29.259777
699.484924	1087.698975	8057.619141	3135.667725	29.382959
699.810303	1046.739624	8064.445801	3083.330566	29.020750
700.135681	1046.739624	8062.170410	3024.167236	28.186831
700.460999	1051.290649	8028.037598	2837.574463	25.603392
700.786255	1037.637451	7682.158203	2951.350586	28.801373
701.111450	1105.903076	7645.750000	2949.074951	28.183718
701.436646	1067.219238	7363.585449	2971.830078	30.249365
701.761719	1085.423462	7067.767578	2817.094727	28.946365
702.086792	1108.178589	6676.377930	2755.655762	29.587254
702.411865	1105.903076	6735.541504	2657.808350	27.566694
702.736816	1026.259888	6371.458008	2600.920166	29.459343
703.061646	1171.893188	6196.243164	2550.858887	27.445654
703.386536	1037.637451	6118.875488	2566.787354	30.094040
703.711365	1019.433350	5916.354004	2496.246338	30.157991
704.036194	1074.045776	6023.303711	2509.899414	29.011494
704.360901	1124.107300	5818.506836	2471.215576	28.696074
704.685547	1058.117188	5752.516602	2387.021240	28.308287
705.010132	1035.361938	5725.210449	2396.123291	29.015038
705.334717	1035.361938	5520.413574	2482.593262	32.267883
705.659302	1119.556274	5586.403809	2391.572266	28.476816
705.983765	1099.076538	5615.985352	2505.348389	31.133501
706.308228	1033.086426	5638.740723	2387.021240	29.397230
706.632568	1019.433350	5411.188477	2230.010498	27.564770
706.956909	1060.392700	5436.219238	2330.133301	29.017160
707.281189	1071.770264	5486.280762	2373.368164	29.484533
707.605408	1051.290649	5565.923828	2443.909424	30.846775
707.929626	1162.791138	5600.056641	2359.715088	26.974360
708.253784	1064.943726	5524.964355	2475.766602	31.632654
708.577820	1058.117188	5625.087402	2487.144287	31.290483
708.901855	1055.841675	5470.352051	2491.695313	32.525776
709.225830	1037.637451	5586.403809	2241.387939	26.463228
709.549805	1099.076538	5575.025879	2453.011475	30.249113
709.873718	1071.770264	5429.392578	2391.572266	30.287207
710.197510	1055.841675	5770.720703	2500.797363	30.646719
710.521362	1051.290649	5595.505859	2455.286865	30.896339
710.845093	1064.943726	5679.699707	2487.144287	30.818544
711.168701	998.953613	5775.271973	2439.358398	30.157219
711.492432	1074.045776	5914.078613	2446.184814	28.349789
711.816040	1083.147949	6116.600098	2450.735840	27.169979
712.139587	1069.494751	6023.303711	2507.624023	29.030777
712.463074	1019.433350	6073.365234	2471.215576	28.725800
712.786499	1087.698975	6061.987305	2596.369141	30.329369
713.109924	1076.321289	5898.149902	2453.011475	28.551205
713.433350	1019.433350	5943.660156	2405.225586	28.142332
713.756592	1135.484863	5811.680176	2466.664551	28.467154
714.079834	996.678101	5836.710938	2432.531738	29.666197
714.403015	1033.086426	5704.730469	2387.021240	28.981977
714.726196	1162.791138	5695.628418	2359.715088	26.405622
715.049255	1119.556274	5636.464844	2268.694336	25.440807
715.372375	1074.045776	5593.229980	2355.164063	28.348442
715.695435	1115.005249	5577.301270	2284.622803	26.211117
716.018311	1096.801025	5643.291504	2355.164063	27.677681
716.341248	1053.566162	5634.189453	2339.235352	28.067562
716.664063	1099.076538	5556.821777	2366.541748	28.432877
716.987000	1035.361938	5600.056641	2400.674561	29.910273
717.309692	1028.535400	5458.974609	2402.949951	31.022081
717.632385	1012.606750	5631.914063	2305.102539	27.980297
717.955078	1121.831787	5411.188477	2275.520752	26.896551
718.277649	1092.250000	5379.331055	2275.520752	27.600849
718.600220	1103.627563	5192.738281	2241.387939	27.824150
718.922791	1012.606750	5210.942871	2318.755615	31.111111
719.245300	1046.739624	5001.594727	2236.836914	30.092058
719.567688	1039.912964	5081.237793	2179.948975	28.209463
719.890015	1035.361938	4833.206055	2034.315552	26.303175
720.212341	1044.463989	4853.686035	2179.948975	29.808842
720.534607	1092.250000	4735.358887	2123.060791	28.294811
720.856873	1001.229126	4842.308105	2150.367188	29.917063
721.179016	1051.290649	4783.144531	2088.927979	27.804874
721.501160	1062.668213	4703.501465	2118.509766	28.999998
721.823242	1105.903076	4626.133789	2193.602051	30.898514
722.145264	1044.463989	4592.000977	2022.937988	27.581783
722.467224	1112.729614	4523.735352	2034.315552	27.018011
722.789185	1112.729614	4546.490723	1915.988525	23.392975
723.111023	1096.801025	4489.602539	2061.621826	28.437290
723.432861	1067.219238	4635.235840	2050.244141	27.551018
723.754578	1028.535400	4439.541016	2050.244141	29.953300
724.076294	1117.280762	4432.714355	2075.274902	28.894987
724.397949	1071.770264	4460.020996	2050.244141	28.878437
724.719666	1055.841675	4478.225098	1959.223389	26.396275
725.041260	1051.290649	4380.377441	2082.101563	30.963774
725.362732	1042.188477	4421.336914	2061.621826	30.168350
725.684265	1033.086426	4566.970215	2107.132324	30.392790
726.005676	1035.361938	4437.265625	1936.468262	26.488295
726.327087	1058.117188	4596.552246	2011.560425	26.945337
726.648438	1037.637451	4512.357910	2057.070801	29.338572
726.969666	994.402588	4471.398438	2022.937988	29.581152
727.290894	1099.076538	4416.785645	2102.581299	30.246920
727.612061	1110.454102	4557.868164	2059.346436	27.524757
727.933228	1112.729614	4648.889160	2036.591064	26.126123
728.254395	1089.974487	4562.419434	2041.142212	27.391874
728.575378	1030.810913	4860.512207	2091.203613	27.688654
728.896301	1108.178589	4837.757324	2173.122314	28.553995
729.217285	1087.698975	4803.624512	2113.958740	27.617878
729.538147	1101.352051	4819.553223	2102.581299	26.927786
729.858948	1064.943726	4926.502441	2125.336426	27.460226
730.179810	1037.637451	4906.022949	2020.662476	25.411764
730.500549	1074.045776	4721.705566	2136.714111	29.132881
730.821228	1058.117188	4721.705566	2098.030273	28.385096
731.141846	1108.178589	4687.572754	2066.172852	26.764147
731.462402	1096.801025	4764.940430	2066.172852	26.426800
731.782898	1062.668213	4824.104004	2061.621826	26.557774
732.103455	1094.525513	4926.502441	2061.621826	25.237530
732.423889	1085.423462	4871.890137	2107.132324	26.983171
732.744263	1064.943726	4896.920898	2120.785400	27.553444
733.064636	1076.321289	4919.675781	2236.836914	30.195383
733.384888	1021.708862	4842.308105	2082.101563	27.754618
733.705200	1080.872437	4803.624512	2082.101563	26.894865
734.025330	992.127075	4874.165527	2182.224365	30.656504
734.345520	1083.147949	4719.430176	2186.775391	30.350433
734.665527	1069.494751	4817.277344	2061.621826	26.472374
734.985596	1069.494751	4601.103027	2086.652588	28.801546
735.305542	1071.770264	4592.000977	2036.591064	27.407885
735.625549	1146.862427	4596.552246	2034.315552	25.725592
735.945435	1108.178589	4416.785645	1993.356201	26.753786
736.265259	1014.882263	4428.163574	1975.152100	28.133335
736.585083	1064.943726	4487.327148	1970.601074	26.462769
736.904785	1119.556274	4373.550781	1938.743774	25.174826
737.224426	1096.801025	4369.000000	2002.458252	27.677328
737.544128	1128.658325	4400.857422	2086.652588	29.276772
737.863708	1076.321289	4257.499512	2061.621826	30.972818
738.183289	1051.290649	4462.296387	1913.713013	25.283520
738.502808	1062.668213	4462.296387	2057.070801	29.250334
738.822205	1021.708862	4419.061523	1941.019287	27.059612
739.141541	1062.668213	4384.928711	2086.652588	30.821917
739.460938	1033.086426	4621.582520	2079.825928	29.169310
739.780212	1089.974487	4548.766113	2127.612061	30.000004
740.099426	1115.005249	4578.347656	2063.897461	27.398165
740.418640	1069.494751	4562.419434	2109.407715	29.771982
740.737793	989.851563	4494.153809	2036.591064	29.870127
741.056885	1021.708862	4380.377441	2179.948975	34.485100
741.375977	1035.361938	4444.092285	2116.234375	31.708944
741.694946	1030.810913	4330.315918	2009.284912	29.655176
742.013855	1115.005249	4357.622559	2091.203613	30.105261
742.332703	1087.698975	4259.774902	2020.662476	29.411764
742.651550	1023.984375	4200.611328	2025.213501	31.518625
742.970398	1049.015137	4123.243652	1988.805176	30.569948
743.289124	1085.423462	4291.632324	2020.662476	29.169621
743.607788	1067.219238	4268.876953	1897.784302	25.941719
743.926453	1062.668213	4173.305176	1963.774414	28.968542
744.245056	1051.290649	4018.569824	1984.254150	31.441715
744.563599	1021.708862	3963.957275	1836.345337	27.687548
744.882141	1074.045776	3959.406250	1956.947876	30.599371
745.200500	1028.535400	3954.855225	1906.886475	30.015553
745.518860	1083.147949	4027.671875	1902.335449	27.820711
745.837219	1115.005249	3897.967041	1941.019287	29.681112
746.155518	1133.209351	4009.467773	1959.223389	28.718353
746.473755	1058.117188	3850.181152	1868.202637	29.013857
746.791992	1005.780212	3929.824463	1913.713013	31.050585
747.110107	1019.433350	3913.895752	1947.845825	32.075474
747.428162	1078.596802	3979.885986	1836.345337	26.117651
747.746216	1039.912964	3761.435791	1909.161987	31.939802
748.064148	1126.382813	3825.150391	1900.059814	28.667789
748.382080	1076.321289	3816.048340	2093.479248	37.126251
748.700073	1028.535400	3902.518066	1893.233276	30.087095
749.017822	1151.413574	3975.334961	1956.947876	28.525379
749.335632	1069.494751	4004.916504	1906.886475	28.527134
749.653320	1055.841675	4009.467773	1856.824951	27.118643
749.971008	1083.147949	3943.477539	1795.385864	24.900555
750.288696	1064.943726	4032.222900	2013.835938	31.978527
750.606262	1010.331238	3859.283203	1913.713013	31.709267
750.923828	1033.086426	3938.926514	1849.998413	28.112764
751.241272	1064.943726	3925.273438	1875.029175	28.321402
751.558716	1037.637451	3902.518066	1911.437500	30.500401
751.876038	1053.566162	3750.058350	1890.957764	31.054850
752.193481	1087.698975	3813.772949	1911.437500	30.217028
752.510681	1112.729614	3854.732178	1947.845825	30.456436
752.827942	1060.392700	3779.640137	1950.121338	32.719662
753.145081	1039.912964	3813.772949	1977.427612	33.798199
753.462219	1046.739624	3763.711426	1934.192627	32.663315
753.779297	1042.188477	3877.487549	1879.580200	29.534512
754.096375	1078.596802	3904.793701	1938.743774	30.434788
754.413330	1046.739624	3822.875000	1854.549438	29.098360
754.730286	1108.178589	3684.068115	1954.672363	32.862190
755.047119	1010.331238	3791.017578	2018.386963	36.252048
755.363892	1058.117188	3768.262451	1925.090576	31.989923
755.680725	989.851563	3791.017578	1950.121338	34.281075
755.997498	1135.484863	3704.547852	1884.131226	29.140833
756.314148	1112.729614	3734.129639	1811.314575	26.649309
756.630737	1026.259888	3690.894775	1845.447388	30.742956
756.947327	1062.668213	3595.322754	1809.039063	29.469904
757.263855	1074.045776	3727.302979	1911.437500	31.560894
757.580261	1089.974487	3565.741211	1920.539551	33.547794
757.896729	1101.352051	3674.966064	1893.233276	30.769230
758.213074	1017.157776	3661.312988	1827.243164	30.636831
758.529419	1069.494751	3702.272461	1941.019287	33.102852
758.845642	1069.494751	3784.191162	2020.662476	35.037720
759.161865	1051.290649	3850.181152	1947.845825	32.032520
759.478149	1126.382813	3922.997803	1918.264038	28.315704
759.794189	1083.147949	3795.568604	2004.733887	33.976513
760.110229	1069.494751	3793.293213	1945.570313	32.163746
760.426270	1094.525513	3838.803711	1963.774414	31.674953
760.742249	1078.596802	3788.742188	1950.121338	32.157852
761.058105	1042.188477	3763.711426	1959.223389	33.695652
761.374023	1096.801025	3834.252441	1941.019287	30.839571
761.689819	1019.433350	3791.017578	1993.356201	35.139572
762.005554	1094.525513	3861.558838	1929.641602	30.180920
762.321289	1003.504700	3822.875000	1909.161987	32.122681
762.636902	1155.964600	3913.895752	1972.876587	29.620464
762.952515	1117.280762	3973.059326	1972.876587	29.960159
763.268127	1101.352051	3963.957275	2004.733887	31.558031
763.583618	1087.698975	4057.253662	2063.897461	32.873566
763.899048	1044.463989	4655.715332	2152.642578	30.686831
764.214478	937.514587	5035.727539	2286.898438	32.926151
764.529785	1030.810913	5395.259766	2339.235352	29.979145
764.845093	1071.770264	5493.107422	2484.868652	31.960884
765.160400	1064.943726	5463.525391	2446.184814	31.401966
765.475586	1110.454102	5367.953613	2457.562500	31.640835
765.790771	1092.250000	5167.707520	2359.715088	31.099945
766.105835	1087.698975	4969.737305	2232.285889	29.484173
766.420837	1099.076538	4692.124023	2280.071777	32.868904
766.735840	1078.596802	4642.062500	2245.938965	32.758617
767.050842	1046.739624	4359.897949	2082.101563	31.250000
767.365662	989.851563	4339.417969	2102.581299	33.220112
767.680542	1085.423462	4066.355713	2057.070801	32.595421
767.995300	1124.107300	4086.835449	2038.866699	30.875578
768.309998	1135.484863	4000.365479	1947.845825	28.355841
768.624817	1083.147949	3922.997803	1991.080688	31.971153
768.939392	1046.739624	3784.191162	1968.325439	33.665829
769.254028	1112.729614	3795.568604	1936.468262	30.703993
769.568481	1062.668213	3795.568604	1929.641602	31.723564
769.882935	1023.984375	3659.037354	1936.468262	34.628674
770.197388	1064.943726	3779.640137	1868.202637	29.589273
770.511841	1058.117188	3517.955078	1854.549438	32.377430
770.826172	1053.566162	3618.078125	1795.385864	28.926350
771.140442	1067.219238	3383.699463	1863.651489	34.381138
771.454651	1101.352051	3545.261475	1802.212524	28.677841
771.768860	1167.342163	3360.944336	1868.202637	31.950211
772.082886	1039.912964	3354.117676	1770.355225	31.563427
772.397034	1087.698975	3529.332764	1818.141113	29.916122
772.711060	1119.556274	3372.321777	1790.834839	29.797976
773.025024	1042.188477	3306.331787	1827.243164	34.673367
773.338928	1055.841675	3390.525879	1859.100464	34.405460
773.652771	1103.627563	3449.689453	1777.181763	28.709991
773.966614	1092.250000	3240.341553	1779.457275	31.991526
774.280457	1008.055725	3374.597412	1809.039063	33.846153
774.594116	1035.361938	3283.576416	1738.497925	31.275309
774.907776	1053.566162	3306.331787	1729.395752	29.999996
775.221375	1085.423462	3222.137451	1738.497925	30.564432
775.534912	1039.912964	3281.301025	1695.262939	29.238575
775.848450	1101.352051	3281.301025	1763.528564	30.375780
776.161926	1089.974487	3244.892578	1665.681274	26.715950
776.475342	1023.984375	3092.432861	1677.058838	31.573156
776.788696	1115.005249	3137.943115	1740.773438	30.933634
777.101990	1055.841675	3169.800537	1733.946899	32.077503
777.415283	1076.321289	3235.790527	1638.375000	26.027401
777.728516	1103.627563	2987.758789	1588.313477	25.724636
778.041626	1126.382813	3078.779541	1743.048950	31.585083
778.354736	1010.331238	3078.779541	1743.048950	35.423546
778.667725	1028.535400	3106.085938	1738.497925	34.173058
778.980774	1042.188477	3065.126465	1722.569214	33.633297
779.293640	1030.810913	3069.677490	1752.151001	35.379463
779.606567	1021.708862	2999.136475	1738.497925	36.248562
779.919434	1101.352051	3149.320801	1761.253052	32.222221
780.232239	1089.974487	3085.606201	1720.293701	31.584948
780.544983	1135.484863	3081.055176	1809.039063	34.619884
780.857666	1080.872437	3101.534912	1795.385864	35.360355
781.170227	1003.504700	3101.534912	1695.262939	32.971794
781.482849	1017.157776	3046.922363	1677.058838	32.511211
781.795410	1058.117188	3060.575439	1640.650513	29.090910
782.107910	1019.433350	2976.381104	1752.151001	37.441860
782.420288	1060.392700	2967.279053	1765.804199	36.992844
782.732666	1099.076538	2844.401123	1617.895264	29.726202
783.044983	1121.831787	2924.044189	1638.375000	28.661617
783.357300	1119.556274	2837.574463	1640.650513	30.331125
783.669495	1096.801025	2899.013428	1679.334351	32.323235
783.981689	1023.984375	2899.013428	1729.395752	37.621357
784.293762	1078.596802	2942.248291	1642.926025	30.280834
784.605835	1069.494751	2837.574463	1631.548462	31.788935
784.917908	1155.964600	2871.707275	1629.272949	27.586208
785.229858	1067.219238	2930.870850	1679.334351	32.844933
785.541748	1087.698975	2823.921387	1588.313477	28.833548
785.853577	1071.770264	2796.614990	1642.926025	33.113461
786.165405	1085.423462	2798.890625	1581.486938	28.950859
786.477173	1037.637451	2860.329590	1661.130127	34.207241
786.788879	1044.463989	2771.584229	1652.028076	35.177868
787.100525	1023.984375	2762.482178	1674.783325	37.434555
787.412109	1055.841675	2746.553711	1592.864502	31.763117
787.723694	1083.147949	2778.410889	1563.282837	28.322149
788.035156	1151.413574	2798.890625	1743.048950	35.911602
788.346558	1012.606750	2737.451416	1665.681274	37.862801
788.658081	1030.810913	2801.166016	1724.844727	39.203083
788.969360	1103.627563	2949.074951	1711.191650	32.922321
789.280640	1092.250000	3028.718262	1720.293701	32.432430
789.591919	1083.147949	3101.534912	1779.457275	34.498306
789.903076	1028.535400	3053.749023	1711.191650	33.707863
790.214172	1012.606750	3010.513916	1699.814087	34.396358
790.525269	1094.525513	2926.319824	1692.987427	32.670803
790.836365	1087.698975	2937.697266	1770.355225	36.900372
791.147339	1096.801025	3037.820313	1611.068726	26.494724
791.458191	971.647400	2887.635986	1652.028076	35.510685
791.769104	1055.841675	2844.401123	1638.375000	32.569973
792.079895	1051.290649	2855.778564	1604.242188	30.643127
792.390686	1069.494751	2821.645752	1533.701050	26.493509
792.701416	1080.872437	2714.696289	1601.966675	31.894150
793.012085	1085.423462	2691.941162	1645.201538	34.844189
793.322693	1026.259888	2655.532715	1588.313477	34.497204
793.633240	1058.117188	2591.818115	1526.874512	30.563803
793.943787	1046.739624	2616.848877	1586.037964	34.347824
794.254272	1080.872437	2616.848877	1561.007324	31.259262
794.564636	1083.147949	2519.001465	1545.078613	32.171154
794.875000	1064.943726	2519.001465	1556.456177	33.802814
795.185303	1101.352051	2582.716064	1620.170776	35.023041
795.495544	953.443237	2610.022461	1538.252075	35.302197
795.805786	1049.015137	2582.716064	1513.221313	30.267059
796.115906	1042.188477	2685.114502	1615.619751	34.903049
796.426025	1096.801025	2548.583252	1592.864502	34.169277
796.736023	1112.729614	2721.522949	1513.221313	24.893919
797.045959	1046.739624	2748.829102	1579.211426	31.283421
797.355896	1101.352051	2801.166016	1679.334351	34.002678
797.665833	1060.392700	2757.931152	1595.140137	31.501345
797.975708	1074.045776	2728.349365	1615.619751	32.737278
798.285461	1060.392700	2664.634766	1592.864502	33.191486
798.595154	1058.117188	2767.033203	1567.833862	29.826900
798.904846	1069.494751	2696.492188	1567.833862	30.629374
799.214478	1069.494751	2714.696289	1652.028076	35.408024
799.524109	1133.209351	2607.746826	1558.731689	28.858021
799.833557	1023.984375	2503.072998	1485.915039	31.230762
800.143005	1080.872437	2541.756836	1510.945801	29.439247
800.452393	1026.259888	2646.430664	1529.150024	31.039330
800.761780	1071.770264	2468.940186	1526.874512	32.573292
801.071106	1092.250000	2487.144287	1472.261963	27.243065
801.380371	1121.831787	2534.930176	1558.731689	30.917868
801.689575	1058.117188	2523.552490	1451.782227	26.863352
801.998718	1062.668213	2380.194824	1479.088501	31.606215
802.307800	1105.903076	2539.481201	1533.701050	29.841274
802.616882	1071.770264	2475.766602	1526.874512	32.414917
802.925903	1071.770264	2505.348389	1515.496826	30.952381
803.234863	1092.250000	2471.215576	1515.496826	30.693068
803.543701	1064.943726	2475.766602	1529.150024	32.903229
803.852539	1074.045776	2557.685303	1588.313477	34.662579
804.161316	1076.321289	2427.980713	1483.639526	30.134680
804.470032	1046.739624	2459.837891	1538.252075	34.782608
804.778809	1053.566162	2425.705078	1506.394775	33.001659
805.087341	1069.494751	2455.286865	1481.364014	29.720856
805.395935	1117.280762	2459.837891	1535.976563	31.186441
805.704468	1151.413574	2400.674561	1495.017212	27.504553
806.012939	1046.739624	2473.491211	1472.261963	29.824556
806.321350	1099.076538	2441.633789	1572.384888	35.254238
806.629761	1037.637451	2475.766602	1558.731689	36.234177
806.938049	1019.433350	2430.256104	1554.180664	37.903225
807.246277	1069.494751	2553.134277	1531.425537	31.134974
807.554504	1023.984375	2466.664551	1588.313477	39.116714
807.862671	1014.882263	2491.695313	1617.895264	40.832050
808.170715	1080.872437	2516.726074	1561.007324	33.438984
808.478821	1092.250000	2557.685303	1488.190552	27.018631
808.786804	1042.188477	2448.460449	1624.721802	41.423946
809.094727	1035.361938	2430.256104	1497.292725	33.115829
809.402649	1128.658325	2316.480225	1463.159912	28.160921
809.710510	1005.780212	2412.052002	1488.190552	34.304207
810.018311	1069.494751	2382.470215	1488.190552	31.889080
810.326050	1112.729614	2339.235352	1570.109375	37.291286
810.633667	1023.984375	2446.184814	1481.364014	32.160000
810.941345	1119.556274	2330.133301	1535.976563	34.398495
811.248901	1105.903076	2336.959961	1481.364014	30.499073
811.556396	1096.801025	2334.684326	1579.211426	38.970589
811.863892	1128.658325	2339.235352	1479.088501	28.947367
812.171326	1080.872437	2293.724854	1513.221313	35.647278
812.478699	1023.984375	2321.031250	1442.680176	32.280701
812.786011	1078.596802	2223.183838	1515.496826	38.170975
813.093262	1137.760376	2225.459229	1467.710938	30.334734
813.400391	1101.352051	2307.378174	1426.751587	26.981134
813.707642	1044.463989	2259.592041	1549.629639	41.573040
814.014709	1055.841675	2289.173828	1490.466064	35.239849
814.321716	1026.259888	2220.908203	1463.159912	36.571434
814.628723	1060.392700	2211.806152	1401.720825	29.644272
814.935669	994.402588	2232.285889	1435.853638	35.661766
815.242554	1083.147949	2259.592041	1440.404663	30.367504
815.549438	1010.331238	2234.561523	1463.159912	36.988850
815.856201	1058.117188	2275.520752	1474.537476	34.205608
816.162964	1067.219238	2377.919189	1492.741699	32.465282
816.469604	1030.810913	2214.081787	1463.159912	36.538464
816.776184	1101.352051	2243.663574	1501.843750	35.059761
817.082825	1074.045776	2261.867676	1513.221313	36.973179
817.389343	1130.933838	2282.347412	1401.720825	23.517786
817.695801	1062.668213	2318.755615	1385.792114	25.724636
818.002197	1076.321289	2239.112549	1447.231201	31.898237
818.308533	987.576050	2377.919189	1497.292725	36.661213
818.614868	1074.045776	2275.520752	1488.190552	34.469696
818.921143	1051.290649	2318.755615	1506.394775	35.906643
819.227356	1044.463989	2339.235352	1517.772339	36.555363
819.533447	1014.882263	2309.653564	1490.466064	36.731106
819.839539	1003.504700	2462.113525	1483.639526	32.917313
820.145569	1035.361938	2402.949951	1597.415649	41.098175
820.451538	1062.668213	2598.644775	1656.579102	38.666664
820.757568	1046.739624	2732.900391	1645.201538	35.492577
821.063416	1049.015137	2833.023438	1677.058838	35.204079
821.369263	1096.801025	3003.687500	1708.916138	32.100239
821.675049	1037.637451	3124.290039	1731.671387	33.260635
821.980713	1094.525513	3274.474365	1900.059814	36.951984
822.286438	1103.627563	3547.536865	1954.672363	34.823093
822.592102	1060.392700	4412.234863	2207.255127	34.215881
822.897583	1010.331238	6583.081543	2958.177002	34.953041
823.203125	1064.943726	9411.553711	3897.967041	33.942204
823.508545	1071.770264	11343.471680	4676.195313	35.090828
823.813965	1062.668213	12048.882813	4901.471680	34.942001
824.119263	1128.658325	10826.927734	4387.204102	33.599251
824.424622	1087.698975	9454.789063	3954.855225	34.267067
824.729858	1060.392700	7984.802734	3474.720215	34.866905
825.035095	1105.903076	6967.644531	3156.147461	34.976711
825.340149	1080.872437	6102.946777	2951.350586	37.245132
825.645264	1103.627563	5431.667969	2666.910400	36.119877
825.950256	1087.698975	5017.523438	2316.480225	31.268095
826.255310	1026.259888	4739.909668	2314.204590	34.681370
826.560242	1010.331238	4357.622559	2300.551514	38.545204
826.865112	1060.392700	4171.029785	2145.816162	34.893925
827.169922	1017.157776	4109.590332	2123.060791	35.761589
827.474670	1087.698975	4189.233887	2209.530762	36.170212
827.779419	1060.392700	4703.501465	2286.898438	33.666458
828.084045	1051.290649	5311.065430	2587.267090	36.057690
828.388672	1055.841675	5854.915039	2714.696289	34.566147
828.693176	1096.801025	5679.699707	2701.043213	35.004971
828.997681	1092.250000	5154.054688	2534.930176	35.518208
829.302124	1055.841675	4539.664063	2366.541748	37.622471
829.606567	1039.912964	4093.661865	2052.519775	33.159466
829.910828	1085.423462	3706.823486	2077.550537	37.847225
830.215149	1124.107300	3365.495361	1911.437500	35.126900
830.519348	1053.566162	3238.066162	1890.957764	38.333332
830.823547	1080.872437	2958.177002	1672.507813	31.515152
831.127686	1060.392700	2883.084961	1813.590088	41.323345
831.431763	1130.933838	2664.634766	1670.232300	35.163208
831.735779	1033.086426	2580.440674	1638.375000	39.117645
832.039734	1119.556274	2443.909424	1642.926025	39.518898
832.343628	1037.637451	2302.827148	1517.772339	37.949635
832.647461	1030.810913	2423.429688	1551.905151	37.418297
832.951233	1078.596802	2377.919189	1524.598877	34.325745
833.255127	1094.525513	2339.235352	1667.956787	46.069473
833.558777	1099.076538	2530.379150	1581.486938	33.704292
833.862366	1028.535400	2680.563477	1611.068726	35.261707
834.165955	1023.984375	2776.135498	1683.885376	37.662334
834.469482	1115.005249	3315.433838	1840.896362	32.988621
834.773010	1115.005249	3825.150391	1911.437500	29.387072
835.076416	1110.454102	3936.650879	1970.601074	30.434788
835.379822	1117.280762	4118.692871	2113.958740	33.206970
835.683105	1092.250000	3761.435791	1861.375977	28.815004
835.986389	1119.556274	3413.281250	1854.549438	32.043648
836.289612	1060.392700	3244.892578	1815.865601	34.583332
836.592773	1092.250000	2949.074951	1749.875488	35.416664
836.895874	1115.005249	2817.094727	1667.956787	32.486633
837.198914	1187.821899	2650.981689	1579.211426	26.749609
837.501892	1094.525513	2555.409912	1670.232300	39.408100
837.804871	1101.352051	2496.246338	1469.986450	26.427408
838.107666	1033.086426	2402.949951	1517.772339	35.382057
838.410583	1044.463989	2202.704102	1476.812988	37.328098
838.713379	1042.188477	2195.877686	1454.057739	35.700191
839.016052	1035.361938	2093.479248	1365.312500	31.182796
839.318787	960.269775	2066.172852	1415.373901	41.152260
839.621338	1069.494751	1991.080688	1431.302612	39.259266
839.923889	1023.984375	1913.713013	1435.853638	46.291561
840.226440	1087.698975	2038.866699	1426.751587	35.645935
840.528931	1035.361938	2059.346436	1388.067749	34.444447
840.831299	1069.494751	2168.571289	1399.445313	30.020708
841.133606	1069.494751	2214.081787	1460.884399	34.194836
841.435913	1074.045776	2289.173828	1454.057739	31.273409
841.738220	1083.147949	2198.153076	1535.976563	40.612244
842.040405	1026.259888	2209.530762	1492.741699	39.423080
842.342529	1053.566162	2025.213501	1458.608887	41.686188
842.644592	1080.872437	2007.009399	1369.863525	31.203926
842.946594	1008.055725	2013.835938	1340.281738	33.031670
843.248596	1012.606750	2027.489014	1360.761475	34.304935
843.550598	1028.535400	1947.845825	1374.414551	37.623760
843.852478	1064.943726	1979.703125	1383.516602	34.825867
844.154236	1092.250000	1854.549438	1351.659302	34.029842
844.455994	1028.535400	1799.937012	1326.628662	38.643070
844.757690	1115.005249	1795.385864	1272.016113	23.076916
845.059326	1096.801025	1836.345337	1349.383789	34.153839
845.360962	1080.872437	1722.569214	1292.495850	32.978725
845.662476	1083.147949	1738.497925	1322.077637	36.458336
845.963989	1130.933838	1681.609863	1265.189575	24.380167
846.265381	1119.556274	1722.569214	1267.465088	24.528299
846.566772	1060.392700	1640.650513	1196.923950	23.529411
846.868042	1012.606750	1622.446289	1251.536499	39.179119
847.169373	1039.912964	1695.262939	1203.750488	25.000004
847.470581	1074.045776	1613.344238	1219.679199	27.004234
847.771729	1096.801025	1711.191650	1267.465088	27.777779
848.072815	1115.005249	1690.711914	1283.393677	29.248997
848.373901	1058.117188	1601.966675	1267.465088	38.493721
848.674866	1126.382813	1604.242188	1272.016113	30.476183
848.975891	1058.117188	1672.507813	1233.332275	28.518517
849.276794	1074.045776	1654.303589	1240.158813	28.627453
849.577637	1046.739624	1570.109375	1203.750488	29.999989
849.878357	1060.392700	1617.895264	1219.679199	28.571438
850.179077	1080.872437	1611.068726	1162.791138	15.450637
850.479736	989.851563	1574.660400	1235.607788	42.023342
850.780396	1074.045776	1658.854614	1203.750488	22.178993
851.080994	983.024963	1515.496826	1294.771362	58.547020
851.381470	989.851563	1492.741699	1297.046875	61.085968
851.681946	1046.739624	1649.752563	1240.158813	32.075462
851.982361	987.576050	1601.966675	1249.260864	42.592579
852.282715	1080.872437	1626.997314	1217.403687	25.000006
852.583008	1053.566162	1654.303589	1251.536499	32.954552
852.883240	1069.494751	1631.548462	1231.056763	28.744942
853.183411	1051.290649	1508.670288	1144.586914	20.397993
853.483521	1051.290649	1551.905151	1217.403687	33.181828
853.783630	1076.321289	1554.180664	1221.954712	30.476210
854.083679	1080.872437	1522.323364	1194.648438	25.773193
854.383667	1078.596802	1504.119263	1242.434326	38.502674
854.683533	1089.974487	1604.242188	1267.465088	34.513271
854.983337	1096.801025	1565.558350	1167.342163	15.048541
855.283203	1049.015137	1590.588989	1192.372925	26.470589
855.582886	1062.668213	1556.456177	1215.128052	30.875568
855.882629	1089.974487	1481.364014	1292.495850	51.744194
856.182312	1094.525513	1506.394775	1233.332275	33.701656
856.481873	1046.739624	1576.935913	1240.158813	36.480675
856.781372	1105.903076	1661.130127	1310.699951	36.885246
857.080872	971.647400	1538.252075	1210.577026	42.168663
857.380310	1058.117188	1595.140137	1212.852539	28.813545
857.679688	1099.076538	1567.833862	1251.536499	32.524284
857.979004	1074.045776	1551.905151	1274.291626	41.904766
858.278259	989.851563	1492.741699	1190.097412	39.819004
858.577454	1035.361938	1479.088501	1206.026001	38.461540
858.876648	1080.872437	1576.935913	1185.546387	21.100918
859.175720	1064.943726	1517.772339	1174.168701	24.120600
859.474792	1019.433350	1535.976563	1244.709839	43.612324
859.773743	1042.188477	1540.527588	1219.679199	35.616455
860.072693	1055.841675	1458.608887	1235.607788	44.632759
860.371521	1105.903076	1549.629639	1187.821899	18.461555
860.670349	1080.872437	1574.660400	1187.821899	21.658985
860.969116	1046.739624	1572.384888	1171.893188	23.809511
861.267883	1094.525513	1510.945801	1224.230225	31.147549
861.566589	1074.045776	1526.874512	1219.679199	32.160816
861.865112	1105.903076	1415.373901	1171.893188	21.323532
862.163635	1092.250000	1510.945801	1221.954712	30.978270
862.462158	1030.810913	1522.323364	1140.035889	22.222219
862.760620	1042.188477	1606.517700	1262.914063	39.112911
863.059021	1035.361938	1526.874512	1153.689087	24.074083
863.357361	1110.454102	1463.159912	1199.199463	25.161299
863.655640	1039.912964	1581.486938	1267.465088	42.016811
863.953857	1124.107300	1469.986450	1210.577026	24.999983
864.251953	1067.219238	1631.548462	1221.954712	27.419363
864.550110	1092.250000	1467.710938	1196.923950	27.878786
864.848206	1067.219238	1488.190552	1119.556274	12.432447
865.146179	1108.178589	1574.660400	1187.821899	17.073187
865.444092	1044.463989	1542.803101	1221.954712	35.616455
865.741943	1042.188477	1451.782227	1240.158813	48.333340
866.039795	1014.882263	1426.751587	1144.586914	31.491699
866.337646	1064.943726	1522.323364	1219.679199	33.830860
866.635376	1083.147949	1515.496826	1208.301514	28.947355
866.933044	1019.433350	1535.976563	1199.199463	34.801758
867.230652	1140.035889	1510.945801	1206.026001	17.791412
867.528198	1067.219238	1531.425537	1162.791138	20.588238
867.825745	1089.974487	1495.017212	1169.617676	19.662910
868.123230	1087.698975	1522.323364	1185.546387	22.513098
868.420593	1089.974487	1513.221313	1249.260864	37.634396
868.717896	1003.504700	1554.180664	1201.474976	35.950413
869.015198	1010.331238	1538.252075	1246.985352	44.827576
869.312439	1069.494751	1529.150024	1240.158813	37.128708
869.609619	1105.903076	1474.537476	1140.035889	9.259258
869.906738	1099.076538	1565.558350	1165.066650	14.146342
870.203796	1099.076538	1554.180664	1183.270874	18.500015
870.500854	1078.596802	1588.313477	1185.546387	20.982162
870.797791	1089.974487	1563.282837	1092.250000	0.480767
871.094666	1128.658325	1531.425537	1221.954712	23.163849
871.391602	1051.290649	1458.608887	1165.066650	27.932951
871.688293	1094.525513	1538.252075	1212.852539	26.666655
871.985107	1108.178589	1454.057739	1169.617676	17.763166
872.281738	1140.035889	1472.261963	1244.709839	31.506844
872.578369	1014.882263	1485.915039	1160.515625	30.917883
872.874939	1083.147949	1456.333252	1130.933838	12.804869
873.171509	1085.423462	1545.078613	1253.812012	36.633671
873.467957	1051.290649	1497.292725	1274.291626	49.999985
873.764343	1103.627563	1495.017212	1169.617676	16.860464
874.060669	1037.637451	1538.252075	1176.444214	27.727268
874.356995	1049.015137	1522.323364	1233.332275	38.942307
874.653198	992.127075	1501.843750	1237.883301	48.214279
874.949463	1128.658325	1526.874512	1183.270874	13.714296
875.245544	1103.627563	1520.047852	1190.097412	20.765041
875.541626	1035.361938	1517.772339	1208.301514	35.849056
875.837646	1094.525513	1490.466064	1256.087524	40.804615
876.133606	1089.974487	1599.691162	1171.893188	16.071419
876.429565	1080.872437	1533.701050	1185.546387	23.115578
876.725403	1101.352051	1515.496826	1233.332275	31.868137
877.021179	1049.015137	1520.047852	1231.056763	38.647343
877.316956	1062.668213	1485.915039	1155.964600	22.043020
877.612610	1069.494751	1529.150024	1190.097412	26.237633
877.908203	1151.413574	1483.639526	1235.607788	25.342455
878.203857	1037.637451	1535.976563	1192.372925	31.050236
878.499390	1060.392700	1481.364014	1183.270874	29.189203
878.794800	1042.188477	1513.221313	1278.842651	50.241547
879.090271	1026.259888	1561.007324	1228.781250	37.872337
879.385559	1037.637451	1626.997314	1199.199463	27.413134
879.680847	1046.739624	1595.140137	1201.474976	28.215755
879.976196	1076.321289	1636.099487	1360.761475	50.813015
880.271301	1094.525513	1608.793213	1272.016113	34.513271
880.566467	1080.872437	1736.222412	1310.699951	35.069431
880.861572	1062.668213	1849.998413	1326.628662	33.526016
881.156555	1067.219238	1954.672363	1333.455200	30.000002
881.451477	1017.157776	2236.836914	1535.976563	42.537315
881.746460	1078.596802	2978.656738	1747.599976	35.209583
882.041321	1080.872437	3652.210938	2002.458252	35.840706
882.336121	1083.147949	4519.184082	2307.378174	35.629143
882.630798	1067.219238	5158.605469	2546.307861	36.151283
882.925537	1039.912964	5361.126953	2553.134277	35.018433
883.220215	1103.627563	5151.779297	2509.899414	34.738613
883.514771	1060.392700	4464.571777	2311.929199	36.764706
883.809326	1105.903076	4189.233887	2200.428711	35.498158
884.103760	1049.015137	3866.109863	2084.376953	36.752823
884.398132	1044.463989	3572.567627	1931.917114	35.103512
884.692505	1055.841675	3401.903564	1900.059814	35.984478
884.986816	1092.250000	3206.208740	1822.692139	34.553284
885.281067	1051.290649	3065.126465	1761.253052	35.254234
885.575256	1158.240112	2814.819336	1626.997314	28.296698
885.869385	1019.433350	2662.359375	1592.864502	34.903042
886.163452	1062.668213	2434.807373	1524.598877	33.665001
886.457458	1076.321289	2200.428711	1431.302612	31.578951
886.751465	1069.494751	2082.101563	1485.915039	41.123592
887.045410	1142.311401	2002.458252	1353.934937	24.603188
887.339233	1155.964600	1870.478149	1328.904175	24.203821
887.632996	1062.668213	1872.753662	1312.975464	30.898870
887.926758	1089.974487	1765.804199	1242.434326	22.558914
888.220398	1130.933838	1731.671387	1267.465088	22.727270
888.514099	1080.872437	1670.232300	1310.699951	38.996124
888.807678	1105.903076	1595.140137	1267.465088	33.023258
889.101196	1055.841675	1606.517700	1256.087524	36.363640
889.394653	1078.596802	1606.517700	1260.638550	34.482769
889.688049	1087.698975	1563.282837	1224.230225	28.708134
889.981384	1039.912964	1531.425537	1240.158813	40.740738
890.274719	1119.556274	1504.119263	1265.189575	37.869816
890.567932	1085.423462	1545.078613	1219.679199	29.207926
>>>>>End Processed Spectral Data<<<<<
