Jaz Data File
++++++++++++++++++++++++++++++++++++
Date: Wed Feb 07 06:49:04 2024
User: jaz
Dark Spectrum Present: Yes
Reference Spectrum Present: Yes
Processed Spectrum Present: Yes
Spectrometers: JAZA3692
Integration Time (usec): 40000 (JAZA3692)
Spectra Averaged: 1 (JAZA3692)
Boxcar Smoothing: 0 (JAZA3692)
Correct for Electrical Dark: No (JAZA3692)
Strobe/Lamp Enabled: Yes (JAZA3692)
Correct for Detector Non-linearity: No (JAZA3692)
Correct for Stray Light: No (JAZA3692)
Number of Pixels in Processed Spectrum: 2048
>>>>>Begin Processed Spectral Data<<<<<
W	D	R	S	P
190.244385	0.000000	0.000000	0.000000	0.000000
190.627136	0.000000	0.000000	0.000000	0.000000
191.009842	971.647400	973.922913	1005.780212	1500.005371
191.392532	1005.780212	971.647400	923.861450	240.000031
191.775177	1010.331238	1008.055725	976.198425	1500.005371
192.157791	998.953613	969.371887	1001.229126	-7.692292
192.540390	1026.259888	987.576050	957.994263	176.470657
192.922943	1017.157776	1030.810913	1021.708862	33.333630
193.305481	1058.117188	939.790100	980.749451	65.384636
193.687958	1105.903076	1035.361938	1039.912964	93.548409
194.070419	1085.423462	1010.331238	1044.463989	54.545559
194.452866	1103.627563	1171.893188	1003.504700	-146.666595
194.835251	1012.606750	998.953613	985.300537	199.999557
195.217621	1055.841675	1064.943726	1030.810913	-275.001343
195.599960	1071.770264	1035.361938	917.034912	424.999908
195.982254	1076.321289	1089.974487	1017.157776	-433.330811
196.364517	1028.535400	1039.912964	1055.841675	240.001068
196.746750	1033.086426	1076.321289	1039.912964	15.789429
197.128952	1021.708862	1035.361938	1078.596802	416.667572
197.511139	1051.290649	1074.045776	973.922913	-340.001343
197.893280	983.024963	1087.698975	1089.974487	102.173904
198.275391	1042.188477	1035.361938	1028.535400	200.000000
198.657471	1089.974487	1037.637451	1064.943726	47.826096
199.039520	1046.739624	1069.494751	926.136963	-530.002136
199.421539	1017.157776	1064.943726	1080.872437	133.333466
199.803513	1083.147949	973.922913	1021.708862	56.250004
200.185471	1008.055725	1012.606750	1019.433350	250.001343
200.567383	1033.086426	1071.770264	957.994263	-194.117661
200.949265	1030.810913	1005.780212	1089.974487	-236.364029
201.331131	1012.606750	1083.147949	1049.015137	51.612938
201.712967	1026.259888	1044.463989	980.749451	-250.001007
202.094742	1012.606750	1035.361938	1060.392700	210.000244
202.476517	1058.117188	1046.739624	1042.188477	140.001068
202.858231	1039.912964	1005.780212	1030.810913	26.666618
203.239944	996.678101	1021.708862	1014.882263	72.727165
203.621582	998.953613	1021.708862	969.371887	-129.999573
204.003235	1076.321289	1033.086426	946.616638	300.000153
204.384827	1049.015137	1033.086426	1010.331238	242.856430
204.766388	1096.801025	985.300537	976.198425	108.163292
205.147934	992.127075	1042.188477	985.300537	-13.636331
205.529449	1026.259888	1035.361938	1030.810913	50.000000
205.910904	1028.535400	1001.229126	1051.290649	-83.333405
206.292343	1001.229126	1005.780212	998.953613	-49.999329
206.673767	1021.708862	1003.504700	942.065613	437.500214
207.055115	1044.463989	1094.525513	985.300537	-118.181488
207.436462	1023.984375	1005.780212	1039.912964	-87.499710
207.817780	1028.535400	1051.290649	1067.219238	169.999619
208.199051	1037.637451	1055.841675	1069.494751	174.999496
208.580307	1053.566162	1026.259888	978.473938	274.999878
208.961517	983.024963	1012.606750	1019.433350	123.077034
209.342712	1026.259888	1058.117188	1014.882263	-35.714340
209.723846	1001.229126	1030.810913	946.616638	-184.615234
210.104965	1078.596802	1055.841675	951.167725	560.001587
210.486069	998.953613	1094.525513	994.402588	-4.761887
210.867111	1008.055725	1069.494751	1060.392700	85.185226
211.248123	992.127075	1055.841675	1051.290649	92.857170
211.629120	1003.504700	1019.433350	987.576050	-100.000000
212.010071	1026.259888	1053.566162	1067.219238	149.999771
212.390991	1001.229126	1099.076538	1003.504700	2.325635
212.771881	1012.606750	1026.259888	1001.229126	-83.333405
213.152756	1012.606750	1044.463989	980.749451	-100.000191
213.533569	969.371887	1044.463989	1001.229126	42.424221
213.914368	1003.504700	1051.290649	948.892151	-114.285789
214.295135	1051.290649	1099.076538	1033.086426	-38.095398
214.675858	1033.086426	980.749451	1030.810913	4.347811
215.056549	1019.433350	964.820801	996.678101	41.666702
215.437225	996.678101	1046.739624	985.300537	-22.727161
215.817841	937.514587	1019.433350	1053.566162	141.666656
216.198441	921.585938	1074.045776	992.127075	46.268669
216.579025	964.820801	1049.015137	1001.229126	43.243198
216.959549	1019.433350	1042.188477	983.024963	-160.000809
217.340057	1033.086426	987.576050	992.127075	90.000031
217.720535	996.678101	1021.708862	1012.606750	63.636295
218.100967	957.994263	1069.494751	1033.086426	67.346939
218.481369	1035.361938	1069.494751	994.402588	-119.999931
218.861740	1133.209351	1042.188477	951.167725	199.999863
219.242065	1010.331238	1112.729614	1060.392700	48.888924
219.622391	1051.290649	1089.974487	1060.392700	23.529337
220.002670	1060.392700	1115.005249	996.678101	-116.666595
220.382919	1001.229126	1153.689087	1030.810913	19.402987
220.763123	1096.801025	1039.912964	1021.708862	131.999863
221.143295	1028.535400	1096.801025	1012.606750	-23.333340
221.523453	1060.392700	1099.076538	1039.912964	-52.941326
221.903549	1008.055725	1101.352051	1026.259888	19.512197
222.283630	1051.290649	1026.259888	989.851563	245.454330
222.663696	1010.331238	1046.739624	1021.708862	31.250010
223.043701	989.851563	1039.912964	1003.504700	27.272783
223.423676	967.096313	1044.463989	969.371887	2.941246
223.803635	1051.290649	1067.219238	1058.117188	42.857143
224.183548	1010.331238	1135.484863	978.473938	-25.454556
224.563431	1049.015137	1062.668213	1005.780212	-316.667999
224.943283	1071.770264	1035.361938	1010.331238	168.749939
225.323105	1010.331238	1078.596802	1001.229126	-13.333387
225.702881	994.402588	973.922913	1039.912964	-222.222153
226.082642	1014.882263	1046.739624	1019.433350	14.285824
226.462357	1026.259888	1028.535400	992.127075	-1500.005371
226.842041	1026.259888	1083.147949	1046.739624	36.000061
227.221695	1035.361938	1089.974487	994.402588	-74.999886
227.601318	1010.331238	1087.698975	994.402588	-20.588232
227.980911	969.371887	1105.903076	1010.331238	29.999996
228.360474	996.678101	1078.596802	1069.494751	88.888924
228.739990	1042.188477	1085.423462	969.371887	-168.420532
229.119476	998.953613	1183.270874	1069.494751	38.271584
229.498932	1044.463989	1178.719727	1051.290649	5.084818
229.878372	1060.392700	1096.801025	1019.433350	-112.499962
230.257736	969.371887	1294.771362	996.678101	8.391597
230.637115	978.473938	1217.403687	992.127075	5.714289
231.016449	930.687988	1267.465088	987.576050	16.891903
231.395737	976.198425	1176.444214	1028.535400	26.136368
231.774994	1037.637451	1215.128052	1042.188477	2.564094
232.154221	987.576050	1190.097412	978.473938	-4.494396
232.533417	1008.055725	1242.434326	1058.117188	21.359230
232.912582	1037.637451	1192.372925	1014.882263	-14.705864
233.291702	1033.086426	1180.995239	1035.361938	1.538456
233.670792	989.851563	1153.689087	976.198425	-8.333340
234.049866	1026.259888	1124.107300	939.790100	-88.372078
234.428894	1014.882263	1105.903076	960.269775	-60.000000
234.807892	992.127075	1187.821899	1026.259888	17.441858
235.186874	1008.055725	1155.964600	1058.117188	33.846153
235.565781	1044.463989	1262.914063	985.300537	-27.083282
235.944687	985.300537	1240.158813	1044.463989	23.214256
236.323547	992.127075	1160.515625	983.024963	-5.405422
236.702377	1026.259888	1215.128052	1046.739624	10.843403
237.081177	1062.668213	1224.230225	1076.321289	8.450672
237.459946	1028.535400	1187.821899	1005.780212	-14.285698
237.838669	1003.504700	1269.740601	1060.392700	21.367517
238.217361	1035.361938	1176.444214	1017.157776	-12.903224
238.596039	1017.157776	1224.230225	1035.361938	8.791204
238.974670	1053.566162	1176.444214	1017.157776	-29.629690
239.353271	1028.535400	1190.097412	1067.219238	23.943647
239.731842	1128.658325	1265.189575	1028.535400	-73.333336
240.110367	1058.117188	1285.669312	1021.708862	-15.999993
240.488876	1023.984375	1290.220337	1096.801025	27.350418
240.867340	1035.361938	1283.393677	1083.147949	19.266087
241.245789	955.718750	1335.730713	1030.810913	19.760473
241.624176	930.687988	1374.414551	1033.086426	23.076923
242.002548	1026.259888	1353.934937	1010.331238	-4.861112
242.380890	1026.259888	1415.373901	1008.055725	-4.678362
242.759186	948.892151	1501.843750	1035.361938	15.637858
243.137451	1049.015137	1501.843750	1105.903076	12.562797
243.515686	1044.463989	1581.486938	1062.668213	3.389841
243.893890	998.953613	1686.160889	994.402588	-0.662249
244.272049	1094.525513	1561.007324	1035.361938	-12.682933
244.650192	1014.882263	1474.537476	1099.076538	18.316832
245.028290	1112.729614	1483.639526	1014.882263	-26.380354
245.406357	951.167725	1501.843750	1094.525513	26.033054
245.784393	985.300537	1451.782227	1014.882263	6.341455
246.162384	1026.259888	1481.364014	992.127075	-7.500000
246.540359	1087.698975	1504.119263	1078.596802	-2.185814
246.918289	1037.637451	1649.752563	1062.668213	4.089225
247.296204	1033.086426	1713.467163	1110.454102	11.371233
247.674057	992.127075	1954.672363	1092.250000	10.401893
248.051895	955.718750	2175.397949	1060.392700	8.582088
248.429703	1012.606750	2120.785400	1115.005249	9.240252
248.807465	985.300537	2104.856689	1133.209351	13.211380
249.185196	1067.219238	2034.315552	1094.525513	2.823532
249.562897	1033.086426	1827.243164	1105.903076	9.169053
249.940567	998.953613	1774.906250	1149.138062	19.354847
250.318192	1076.321289	1681.609863	1140.035889	10.526318
250.695801	1085.423462	1674.783325	1080.872437	-0.772198
251.073349	1014.882263	1558.731689	1069.494751	10.041840
251.450882	1044.463989	1611.068726	1117.280762	12.851423
251.828400	1053.566162	1492.741699	1033.086426	-4.663223
252.205872	1051.290649	1540.527588	1108.178589	11.627892
252.583313	1067.219238	1638.375000	1117.280762	8.764951
252.960693	1014.882263	1729.395752	1108.178589	13.057322
253.338074	1005.780212	1733.946899	1121.831787	15.937501
253.715408	1023.984375	1820.416626	1119.556274	12.000004
254.092682	1074.045776	1679.334351	1064.943726	-1.503754
254.469955	1051.290649	1592.864502	1101.352051	9.243689
254.847198	1001.229126	1601.966675	1096.801025	15.909094
255.224365	1035.361938	1517.772339	1071.770264	7.547168
255.601563	1133.209351	1483.639526	1076.321289	-16.233780
255.978683	928.412476	1595.140137	1085.423462	23.549494
256.355743	1062.668213	1567.833862	1014.882263	-9.459461
256.732819	1049.015137	1547.354126	1064.943726	3.196336
257.109894	996.678101	1510.945801	1074.045776	15.044242
257.486877	957.994263	1565.558350	1108.178589	24.719091
257.863831	976.198425	1636.099487	1149.138062	26.206903
258.240753	1060.392700	1704.365112	1146.862427	13.427551
258.617645	989.851563	1638.375000	1126.382813	21.052631
258.994507	996.678101	1731.671387	1087.698975	12.383905
259.371307	1053.566162	1724.844727	1149.138062	14.237293
259.748108	1001.229126	1915.988525	1108.178589	11.691540
260.124878	1008.055725	2100.305664	1208.301514	18.333330
260.501617	1001.229126	2336.959961	1201.474976	14.991482
260.878296	1074.045776	2564.511963	1194.648438	8.091607
261.254944	1074.045776	2650.981689	1180.995239	6.782106
261.631561	976.198425	2519.001465	1278.842651	19.616518
262.008179	1023.984375	2323.306641	1103.627563	6.129595
262.384735	1028.535400	2095.754639	1174.168701	13.646052
262.761261	987.576050	1952.396851	1133.209351	15.094337
263.137695	1033.086426	1865.927002	1162.791138	15.573774
263.514191	1067.219238	1843.171875	1128.658325	7.917892
263.890594	1083.147949	1831.794189	1076.321289	-0.911867
264.267029	1030.810913	1831.794189	1087.698975	7.102278
264.643341	973.922913	1925.090576	1121.831787	15.550242
265.019653	1023.984375	1845.447388	1076.321289	6.371183
265.395935	1044.463989	1692.987427	1058.117188	2.105274
265.772217	1085.423462	1777.181763	998.953613	-12.500009
266.148407	989.851563	1829.518677	1071.770264	9.756093
266.524597	1033.086426	1806.763550	1142.311401	14.117643
266.900726	1026.259888	1888.682251	1051.290649	2.902379
267.276855	1008.055725	1906.886475	1128.658325	13.417721
267.652924	1110.454102	2079.825928	1108.178589	-0.234741
268.028992	1019.433350	2020.662476	1144.586914	12.499992
268.404999	983.024963	2050.244141	1142.311401	14.925372
268.781006	1044.463989	2077.550537	1176.444214	12.775331
269.156921	1067.219238	2104.856689	1103.627563	3.508771
269.532837	996.678101	2034.315552	1137.760376	13.596490
269.908661	989.851563	2072.999512	1126.382813	12.605042
270.284546	1051.290649	1993.356201	1092.250000	4.347824
270.660339	1033.086426	2025.213501	1124.107300	9.174316
271.036133	1003.504700	2168.571289	1128.658325	10.742186
271.411835	1026.259888	2143.540527	1089.974487	5.702650
271.787537	967.096313	2305.102539	1049.015137	6.122455
272.163239	1014.882263	2402.949951	1133.209351	8.524590
272.538849	973.922913	2484.868652	1158.240112	12.198796
272.914459	1019.433350	2564.511963	1162.791138	9.278349
273.290070	1067.219238	2282.347412	1146.862427	6.554304
273.665588	973.922913	2191.326416	1162.791138	15.514019
274.041046	1019.433350	2280.071777	1103.627563	6.678697
274.416565	971.647400	2211.806152	1117.280762	11.743123
274.791962	996.678101	2302.827148	1128.658325	10.104530
275.167389	1064.943726	2157.193604	1121.831787	5.208338
275.542755	1014.882263	2198.153076	1119.556274	8.846159
275.918060	1017.157776	2175.397949	1124.107300	9.233794
276.293365	1035.361938	2161.744873	1099.076538	5.656567
276.668640	1103.627563	2202.704102	1192.372925	8.074539
277.043854	987.576050	2366.541748	1158.240112	12.376237
277.419037	1037.637451	2311.929199	1153.689087	9.107148
277.794189	1021.708862	2252.765625	1089.974487	5.545287
278.169312	1017.157776	2348.337402	1167.342163	11.282052
278.544373	1028.535400	2323.306641	1224.230225	15.114240
278.919464	1010.331238	2348.337402	1212.852539	15.136052
279.294464	960.269775	2311.929199	1160.515625	14.814816
279.669464	1026.259888	2259.592041	1144.586914	9.594092
280.044403	989.851563	2202.704102	1144.586914	12.757969
280.419312	1046.739624	2293.724854	1094.525513	3.832114
280.794189	1014.882263	2400.674561	1224.230225	15.106735
281.169037	1074.045776	2348.337402	1174.168701	7.857144
281.543854	1037.637451	2407.500977	1237.883301	14.617942
281.918671	1017.157776	2434.807373	1208.301514	13.483144
282.293365	992.127075	2557.685303	1226.505737	14.970932
282.668091	1021.708862	2632.777588	1242.434326	13.700562
283.042786	1028.535400	2767.033203	1215.128052	10.732982
283.417419	1021.708862	2676.012451	1262.914063	14.580467
283.792053	1142.311401	2707.869873	1144.586914	0.145348
284.166595	1023.984375	2632.777588	1162.791138	8.628005
284.541138	1060.392700	2580.440674	1237.883301	11.676644
284.915619	1069.494751	2484.868652	1206.026001	9.646302
285.290100	980.749451	2589.542725	1206.026001	14.002829
285.664520	1064.943726	2739.727051	1196.923950	7.880436
286.038940	1140.035889	2830.747803	1290.220337	8.882912
286.413300	942.065613	2958.177002	1249.260864	15.237019
286.787628	1035.361938	2871.707275	1324.353149	15.737302
287.161896	1046.739624	2905.840088	1342.557251	15.911869
287.536194	1037.637451	2974.105713	1333.455200	15.276148
287.910400	1005.780212	2885.360352	1324.353149	16.949154
288.284607	1005.780212	2716.971924	1278.842651	15.957443
288.658752	1003.504700	2516.726074	1262.914063	17.142855
289.032867	976.198425	2569.062988	1251.536499	17.285719
289.406921	985.300537	2641.879639	1265.189575	16.895603
289.781006	1039.912964	2705.594238	1317.526489	16.666666
290.154999	1126.382813	2710.145264	1319.802124	12.212646
290.529022	1008.055725	2719.247314	1338.006226	19.281914
290.902954	989.851563	2930.870850	1376.690063	19.929657
291.276825	1064.943726	2965.003662	1401.720825	17.724552
291.650757	1014.882263	3060.575439	1424.476074	20.022251
292.024597	1071.770264	3037.820313	1410.822876	17.245371
292.398407	996.678101	2978.656738	1426.751587	21.699200
292.772156	1023.984375	2903.564453	1424.476074	21.307508
293.145905	1017.157776	2819.370361	1388.067749	20.580811
293.519592	1001.229126	2691.941162	1353.934937	20.861378
293.893280	937.514587	2687.390137	1363.036987	24.317295
294.266907	967.096313	2801.166016	1442.680176	25.930523
294.640533	1030.810913	2871.707275	1419.924927	21.137203
295.014069	978.473938	3069.677490	1479.088501	23.939064
295.387604	955.718750	3249.443604	1531.425537	25.099209
295.761078	973.922913	3151.596191	1538.252075	25.914316
296.134552	1014.882263	3062.851074	1565.558350	26.888891
296.507996	1001.229126	3172.075928	1469.986450	21.593294
296.881378	1010.331238	3178.902588	1517.772339	23.399788
297.254730	1010.331238	3383.699463	1558.731689	23.106422
297.628021	962.545288	3545.261475	1579.211426	23.876650
298.001282	937.514587	3684.068115	1640.650513	25.600664
298.374573	1046.739624	3579.394287	1640.650513	23.450132
298.747803	1037.637451	3458.791504	1608.793213	23.590227
299.121002	1060.392700	3401.903564	1667.956787	25.947525
299.494141	973.922913	3185.729004	1517.772339	24.588476
299.867188	1010.331238	3074.228516	1481.364014	22.822493
300.240265	983.024963	3281.301025	1531.425537	23.861387
300.613312	1005.780212	3076.504150	1444.955688	21.208790
300.986328	985.300537	2990.034424	1483.639526	24.858112
301.359314	1023.984375	2889.911377	1495.017212	25.243904
301.732239	1026.259888	2965.003662	1538.252075	26.408451
302.105103	1039.912964	2999.136475	1456.333252	21.254353
302.477997	1026.259888	2896.738037	1463.159912	23.357666
302.850830	1053.566162	3021.891602	1449.506714	20.115604
303.223602	1017.157776	2801.166016	1549.629639	29.846939
303.596375	994.402588	2917.217773	1479.088501	25.207098
303.969116	1005.780212	2710.145264	1438.129150	25.367157
304.341766	978.473938	2805.717041	1465.435425	26.650064
304.714478	998.953613	2839.849854	1454.057739	24.721878
305.087067	1039.912964	2748.829102	1415.373901	21.970705
305.459656	1010.331238	2848.952148	1485.915039	25.866333
305.832214	1021.708862	2710.145264	1469.986450	26.549866
306.204681	1058.117188	2794.339600	1433.578125	21.625164
306.577148	980.749451	2723.798340	1365.312500	22.062666
306.949646	1003.504700	2864.880615	1515.496826	27.506109
307.322021	1021.708862	2812.543701	1410.822876	21.728079
307.694397	978.473938	2801.166016	1469.986450	26.966293
308.066742	1010.331238	2830.747803	1388.067749	20.750004
308.439026	948.892151	2903.564453	1447.231201	25.494761
308.811279	1067.219238	3015.064941	1413.098389	17.757010
309.183502	967.096313	3033.269287	1547.354126	28.083702
309.555695	985.300537	3065.126465	1561.007324	27.680527
309.927887	962.545288	3081.055176	1520.047852	26.315788
310.299988	1012.606750	3078.779541	1465.435425	21.916302
310.672058	1080.872437	3231.239502	1554.180664	22.010576
311.044128	1094.525513	3224.413086	1497.292725	18.910255
311.416168	1087.698975	3265.372314	1629.272949	24.869385
311.788147	951.167725	3106.085938	1556.456177	28.088697
312.160065	992.127075	3215.310791	1545.078613	24.872059
312.531982	1042.188477	3206.208740	1558.731689	23.869610
312.903870	1019.433350	3147.045166	1597.415649	27.165777
313.275696	1037.637451	3062.851074	1510.945801	23.370787
313.647491	1060.392700	3035.544678	1549.629639	24.769585
314.019318	1051.290649	3092.432861	1565.558350	25.195093
314.391022	946.616638	2969.554688	1419.924927	23.397074
314.762726	967.096313	3181.177979	1499.568237	24.049337
315.134369	1030.810913	3231.239502	1497.292725	21.199587
315.505981	980.749451	3304.056152	1599.691162	26.640553
315.877594	1046.739624	3358.668701	1556.456177	22.047239
316.249146	1019.433350	3242.617188	1467.710938	20.163767
316.620636	1014.882263	3071.953125	1497.292725	23.451330
316.992157	1019.433350	3135.667725	1458.608887	20.752689
317.363586	1028.535400	2955.901611	1456.333252	22.195982
317.735016	1049.015137	2792.063965	1460.884399	23.629244
318.106354	1028.535400	2958.177002	1429.027100	20.754719
318.477722	1051.290649	2951.350586	1463.159912	21.676645
318.849060	1008.055725	2996.860840	1454.057739	22.425627
319.220306	1026.259888	2978.656738	1442.680176	21.328671
319.591522	976.198425	3110.636963	1469.986450	23.134329
319.962738	987.576050	3142.494141	1419.924927	20.063356
320.333923	1028.535400	3096.983887	1447.231201	20.242022
320.705017	1051.290649	3081.055176	1479.088501	21.076231
321.076111	1053.566162	3037.820313	1458.608887	20.412846
321.447144	1026.259888	3017.340576	1488.190552	23.199997
321.818176	976.198425	2835.298828	1419.924927	23.867807
322.189178	994.402588	2953.625977	1492.741699	25.435543
322.560120	1023.984375	2880.809326	1520.047852	26.715683
322.931030	944.341125	2996.860840	1424.476074	23.392464
323.301910	983.024963	3040.095703	1467.710938	23.561949
323.672729	1012.606750	3119.739014	1517.772339	23.974079
324.043549	989.851563	3269.923340	1435.853638	19.560879
324.414337	1010.331238	3486.097900	1501.843750	19.852942
324.785095	1058.117188	3554.363525	1601.966675	21.786692
325.155792	948.892151	3672.690674	1636.099487	25.229742
325.526428	1010.331238	3661.312988	1567.833862	21.030045
325.897034	1080.872437	3447.414063	1558.731689	20.192305
326.267670	1012.606750	3436.036377	1501.843750	20.187794
326.638184	962.545288	3451.965088	1492.741699	21.297991
327.008728	1028.535400	3631.731201	1588.313477	21.503494
327.379211	1067.219238	3429.209961	1588.313477	22.061655
327.749634	980.749451	3547.536865	1510.945801	20.656029
328.120026	1060.392700	3392.801514	1563.282837	21.560978
328.490417	996.678101	3438.312012	1563.282837	23.205967
328.860748	992.127075	3379.148438	1508.670288	21.639654
329.231079	996.678101	3317.709229	1456.333252	19.803919
329.601318	1042.188477	3383.699463	1497.292725	19.436350
329.971558	971.647400	3304.056152	1456.333252	20.780485
330.341736	1023.984375	3290.403076	1565.558350	23.895584
330.711914	1014.882263	3317.709229	1531.425537	22.430834
331.082062	948.892151	3351.842041	1515.496826	23.579546
331.452148	998.953613	3299.505127	1533.701050	23.244314
331.822174	1080.872437	3351.842041	1506.394775	18.737473
332.192200	998.953613	3354.117676	1531.425537	22.608698
332.562134	1028.535400	3465.618164	1442.680176	16.993464
332.932129	992.127075	3581.669678	1508.670288	19.947277
333.302063	976.198425	3615.802490	1535.976563	21.206898
333.671906	1067.219238	3811.497314	1490.466064	15.422884
334.041718	1033.086426	3827.426025	1588.313477	19.869705
334.411499	983.024963	3740.956299	1586.037964	21.864685
334.781281	1042.188477	3779.640137	1586.037964	19.866999
335.151001	1078.596802	3843.354736	1649.752563	20.658438
335.520721	1028.535400	3581.669678	1545.078613	20.231730
335.890350	1008.055725	3513.404053	1567.833862	22.343325
336.259979	1028.535400	3663.588379	1572.384888	20.639034
336.629547	1019.433350	3659.037354	1540.527588	19.741379
336.999084	1017.157776	3784.191162	1574.660400	20.148026
337.368622	944.341125	3722.751953	1563.282837	22.276825
337.738098	978.473938	3754.609375	1620.170776	23.114752
338.107513	987.576050	3816.048340	1513.221313	18.584070
338.476898	1058.117188	3743.231689	1576.935913	19.322033
338.846252	932.963501	3795.568604	1563.282837	22.019081
339.215576	1001.229126	3754.609375	1613.344238	22.231403
339.584869	1074.045776	3834.252441	1592.864502	18.796373
339.954132	1033.086426	3745.507324	1604.242188	21.057047
340.323334	1039.912964	3747.782715	1565.558350	19.411768
340.692505	1046.739624	3624.904541	1570.109375	20.300087
341.061646	967.096313	3520.230713	1492.741699	20.588240
341.430786	1026.259888	3706.823486	1515.496826	18.251272
341.799896	992.127075	3661.312988	1608.793213	23.103153
342.168915	1053.566162	3784.191162	1533.701050	17.583334
342.537903	1080.872437	3957.130615	1588.313477	17.642401
342.906830	983.024963	3973.059326	1663.405762	22.754950
343.275757	985.300537	4004.916504	1674.783325	22.833460
343.644684	978.473938	4109.590332	1645.201538	21.293606
344.013550	1030.810913	4139.172363	1633.823975	19.399710
344.382355	973.922913	4227.917480	1663.405762	21.188814
344.751129	960.269775	4357.622559	1681.609863	21.232416
345.119873	1035.361938	4516.908691	1749.875488	20.522877
345.488586	1008.055725	4687.572754	1702.089600	18.862091
345.857269	1028.535400	4896.920898	1756.702026	18.823528
346.225891	1014.882263	4974.288574	1768.079712	19.022989
346.594482	1044.463989	4876.440918	1786.283813	19.358671
346.963043	1049.015137	4940.155762	1765.804199	18.421053
347.331543	983.024963	4539.664063	1784.008301	22.520792
347.700043	1017.157776	4646.613281	1665.681274	17.868341
348.068512	1005.780212	4455.469727	1727.120239	20.910288
348.436951	1039.912964	4218.815430	1704.365112	20.901936
348.805328	1053.566162	4264.326172	1663.405762	18.993622
349.173645	1089.974487	4314.387207	1583.762451	15.314044
349.541931	1078.596802	4232.468750	1649.752563	18.109669
349.910217	1083.147949	4323.489746	1654.303589	17.626402
350.278473	1076.321289	4466.847168	1738.497925	19.530205
350.646667	1049.015137	4523.735352	1715.742676	19.187948
351.014801	996.678101	4514.633301	1713.467163	20.375162
351.382935	1035.361938	4619.307129	1647.477051	17.079365
351.751007	1001.229126	4489.602539	1695.262939	19.895628
352.119049	1094.525513	4573.796875	1683.885376	16.939175
352.487091	1053.566162	4519.184082	1642.926025	17.005911
352.855072	1115.005249	4632.960449	1681.609863	16.106079
353.222992	1001.229126	4737.634277	1756.702026	20.219244
353.590881	955.718750	4785.420410	1774.906250	21.390373
353.958740	996.678101	4976.563965	1781.732788	19.725559
354.326599	1087.698975	5008.421387	1720.293701	16.134647
354.694397	1026.259888	5122.197266	1831.794189	19.666664
355.062134	992.127075	5295.136719	1845.447388	19.830778
355.429840	1046.739624	5297.412598	1813.590088	18.040684
355.797516	948.892151	5402.086426	1772.630737	18.497702
356.165192	1071.770264	5399.811035	1890.957764	18.927443
356.532776	1026.259888	5681.975586	1936.468262	19.550343
356.900360	992.127075	5777.547363	2004.733887	21.160248
357.267883	1010.331238	5977.792969	1970.601074	19.331196
357.635376	1119.556274	6180.314453	2047.968750	18.345324
358.002808	1008.055725	6542.122070	2068.448486	19.161186
358.370270	1046.739624	6769.674316	2104.856689	18.489065
358.737640	1026.259888	6815.184570	2082.101563	18.238995
359.105011	1019.433350	6526.193848	2152.642578	20.578508
359.472321	1030.810913	6271.335449	1956.947876	17.672602
359.839569	1051.290649	6241.753418	2079.825928	19.815868
360.206787	1069.494751	6214.447266	2102.581299	20.079613
360.574005	964.820801	6435.172852	2116.234375	21.048254
360.941193	1021.708862	6888.001465	2148.091553	19.200930
361.308319	994.402588	7156.512695	2202.704102	19.608566
361.675415	983.024963	7732.219727	2177.673340	17.700607
362.042450	1049.015137	8323.855469	2359.715088	18.016890
362.409424	1014.882263	8644.703125	2475.766602	19.147032
362.776428	1010.331238	8606.019531	2448.460449	18.933493
363.143402	980.749451	8287.446289	2380.194824	19.152914
363.510284	994.402588	8014.384277	2348.337402	19.286871
363.877136	1042.188477	7217.952148	2234.561523	19.307297
364.243988	1064.943726	6578.530762	2091.203613	18.613289
364.610779	969.371887	6378.284668	2113.958740	21.161127
364.977539	1021.708862	6262.233398	1991.080688	18.497612
365.344269	1074.045776	6112.048828	1959.223389	17.570009
365.710938	969.371887	6166.661133	1961.498901	19.089317
366.077576	946.616638	5911.803223	1979.703125	20.806599
366.444183	973.922913	5768.445313	1915.988525	19.648788
366.810760	1033.086426	5761.618652	1906.886475	18.479309
367.177277	1046.739624	5918.629395	1911.437500	17.748716
367.543823	1003.504700	5891.323242	1984.254150	20.065178
367.910248	1019.433350	5898.149902	1909.161987	18.236940
368.276642	976.198425	5893.598633	1900.059814	18.787598
368.643036	1001.229126	5659.220215	1897.784302	19.247679
369.009399	1023.984375	5575.025879	1838.620850	17.900002
369.375671	994.402588	5818.506836	1859.100464	17.924526
369.741974	983.024963	5741.139160	1845.447388	18.125299
370.108215	1037.637451	5693.353027	1881.855713	18.132942
370.474396	983.024963	5770.720703	1956.947876	20.342205
370.840546	1039.912964	5859.465820	1861.375977	17.044382
371.206665	930.687988	5893.598633	1952.396851	20.586887
371.572784	994.402588	5823.057617	1981.978638	20.452404
371.938843	1092.250000	6218.998535	2018.386963	18.064802
372.304840	1028.535400	6027.854492	1938.743774	18.206646
372.670807	1105.903076	5875.394531	1966.049927	18.034353
373.036713	957.994263	6021.027832	2011.560425	20.808990
373.402649	969.371887	5752.516602	1984.254150	21.217888
373.768524	955.718750	5795.751465	2009.284912	21.767748
374.134308	985.300537	5909.527344	1979.703125	20.194086
374.500122	1014.882263	6057.436523	2011.560425	19.765343
374.865875	998.953613	6180.314453	2020.662476	19.718929
375.231567	1096.801025	6100.671387	1963.774414	17.326057
375.597260	1003.504700	6153.008301	2070.723877	20.724703
375.962891	1012.606750	6376.009277	2057.070801	19.473909
376.328461	971.647400	6649.071777	2084.376953	19.599195
376.694031	1035.361938	6735.541504	2027.489014	17.405190
377.059540	1026.259888	6983.573242	2175.397949	19.289536
377.425049	1026.259888	7365.860840	2118.509766	17.229000
377.790497	1035.361938	7591.137207	2184.500000	17.528637
378.155945	1003.504700	7739.046387	2250.489990	18.513514
378.521301	1037.637451	7625.270020	2157.193604	16.994818
378.886597	1099.076538	7493.290039	2047.968750	14.839858
379.251892	1051.290649	7181.543457	2022.937988	15.850037
379.617157	1026.259888	6958.542480	2086.652588	17.874952
379.982422	1039.912964	6769.674316	1952.396851	15.925339
380.347595	1026.259888	6619.490234	1947.845825	16.476810
380.712738	1028.535400	6660.449219	2007.009399	17.373737
381.077820	1008.055725	6710.510742	2054.795166	18.355946
381.442902	1060.392700	6626.316406	1993.356201	16.762060
381.807953	994.402588	6662.725098	1972.876587	17.262144
382.172974	1012.606750	6956.267090	2034.315552	17.189892
382.537933	1028.535400	6585.357422	1936.468262	16.339066
382.902832	955.718750	6637.694336	1938.743774	17.300760
383.267700	1142.311401	6853.868652	1997.907227	14.980080
383.632538	980.749451	7006.328613	2086.652588	18.353474
383.997345	1044.463989	7083.696289	2002.458252	15.862848
384.362152	1021.708862	7279.391113	2104.856689	17.309090
384.726898	1044.463989	7197.472168	2104.856689	17.233728
385.091553	1044.463989	7429.575195	2052.519775	15.787600
385.456238	1023.984375	7334.003418	2175.397949	18.247387
385.820862	976.198425	7420.473145	2100.305664	17.443501
386.185425	955.718750	7504.667480	2125.336426	17.859625
386.549988	998.953613	7459.157227	2113.958740	17.259598
386.914490	976.198425	7770.903320	2077.550537	16.208975
387.278961	1019.433350	7636.647949	2059.346436	15.715268
387.643372	878.351013	8000.730957	2216.357178	18.785942
388.007782	998.953613	7859.648926	2225.459229	17.877279
388.372101	992.127075	7843.720215	2127.612061	16.572569
388.736450	985.300537	7775.454590	2200.428711	17.895443
389.100739	980.749451	7734.495117	2063.897461	16.037737
389.464966	1019.433350	7629.821289	2107.132324	16.454390
389.829163	1046.739624	7825.516113	2032.040039	14.535078
390.193329	1055.841675	7588.861816	2063.897461	15.430165
390.557495	1028.535400	7909.710449	2041.142212	14.715610
390.921570	1076.321289	7850.546875	2068.448486	14.645617
391.285614	1023.984375	8068.996582	2177.673340	16.375969
391.649597	1021.708862	8405.773438	2132.163086	15.038523
392.013550	989.851563	8951.898438	2179.948975	14.947129
392.377502	1012.606750	9054.296875	2195.877686	14.714209
392.741455	973.922913	9017.888672	2193.602051	15.162661
393.105316	1067.219238	9038.368164	2211.806152	14.359121
393.469086	951.167725	8904.113281	2177.673340	15.422030
393.832886	1064.943726	8578.713867	2088.927979	13.628102
394.196655	1017.157776	9006.511719	2102.581299	13.585875
394.560333	980.749451	8997.409180	2120.785400	14.220835
394.924042	1051.290649	9086.154297	2095.754639	12.999150
395.287659	1053.566162	9052.021484	2136.714111	13.541965
395.651245	1042.188477	9020.164063	2100.305664	13.262979
396.014771	951.167725	8744.826172	2077.550537	14.452556
396.378296	1060.392700	8437.630859	2000.182739	12.739050
396.741791	946.616638	8278.344727	2043.417725	14.959652
397.105255	989.851563	8082.649902	1909.161987	12.961181
397.468628	1042.188477	7998.455566	1986.529663	13.575401
397.832001	1019.433350	7966.598145	1911.437500	12.839829
398.195313	992.127075	8253.313477	1984.254150	13.663429
398.558624	1030.810913	7927.914551	1938.743774	13.163973
398.921844	1067.219238	8094.027344	2009.284912	13.406737
399.285095	1042.188477	8207.803711	1995.631714	13.305811
399.648254	1089.974487	8191.875000	2011.560425	12.976610
400.011383	976.198425	8162.292969	1890.957764	12.729575
400.374451	955.718750	8194.150391	1906.886475	13.140522
400.737549	1030.810913	8280.620117	1972.876587	12.994351
401.100586	976.198425	8121.333984	1906.886475	13.025477
401.463562	994.402588	8155.466797	1918.264038	12.901175
401.826508	896.555176	8458.110352	1911.437500	13.421608
402.189392	1005.780212	8062.170410	1859.100464	12.092873
402.552246	1026.259888	8330.681641	1950.121338	12.647975
402.915070	1010.331238	8373.916992	1936.468262	12.577255
403.277893	1010.331238	8380.743164	1991.080688	13.306576
403.640656	1014.882263	8662.907227	2036.591064	13.359119
404.003326	1062.668213	9029.266602	2020.662476	12.025135
404.366028	1046.739624	9038.368164	1956.947876	11.389522
404.728699	994.402588	9240.889648	2045.693237	12.748345
405.091248	951.167725	9561.738281	2127.612061	13.662792
405.453857	926.136963	9445.686523	1993.356201	12.526710
405.816345	967.096313	9520.779297	2002.458252	12.104282
406.178833	1019.433350	9432.034180	2070.723877	12.496617
406.541260	1005.780212	9468.442383	2027.489014	12.073137
406.903687	985.300537	9309.155273	1977.427612	11.919083
407.266052	1051.290649	9236.338867	1954.672363	11.036975
407.628387	989.851563	9049.746094	2002.458252	12.563523
407.990662	1035.361938	8981.480469	1938.743774	11.368844
408.352905	1023.984375	8999.684570	1959.223389	11.726106
408.715118	962.545288	8924.592773	1909.161987	11.889112
409.077332	994.402588	8933.694336	1972.876587	12.324450
409.439484	932.963501	8772.132813	1950.121338	12.975327
409.801575	1046.739624	9174.899414	1859.100464	9.994401
410.163605	1028.535400	9304.604492	1763.528564	8.880945
410.525635	1012.606750	9427.482422	1849.998413	9.951325
410.887604	987.576050	9520.779297	1913.713013	10.853333
411.249573	1037.637451	9743.780273	1886.406738	9.749085
411.611481	1089.974487	9507.125977	1881.855713	9.407948
411.973328	1010.331238	9559.462891	1790.834839	9.129624
412.335144	1078.596802	9650.483398	1836.345337	8.839927
412.696930	1099.076538	9300.053711	1861.375977	9.295226
413.058685	1083.147949	9231.788086	1893.233276	9.941356
413.420410	1051.290649	9363.768555	1827.243164	9.334792
413.782104	1087.698975	9427.482422	1806.763550	8.622102
414.143707	980.749451	9434.309570	1809.039063	9.798116
414.505310	1092.250000	9407.002930	1772.630737	8.182814
414.866852	1019.433350	9736.953125	1706.640625	7.883060
415.228394	1003.504700	9661.861328	1636.099487	7.306176
415.589874	1033.086426	10003.189453	1779.457275	8.320649
415.951324	937.514587	10157.924805	1704.365112	8.316881
416.312683	1080.872437	10415.058594	1779.457275	7.484153
416.674072	985.300537	10469.670898	1765.804199	8.229367
417.035370	978.473938	10924.775391	1763.528564	7.892930
417.396667	1003.504700	10961.183594	1900.059814	9.003655
417.757935	1064.943726	10970.286133	1786.283813	7.282333
418.119141	1055.841675	11334.369141	1829.518677	7.527119
418.480286	1049.015137	11703.003906	1888.682251	7.881247
418.841400	1058.117188	12522.191406	1913.713013	7.463279
419.202484	1021.708862	12820.284180	1902.335449	7.463839
419.563568	1033.086426	13027.356445	1854.549438	6.848796
419.924591	1014.882263	13803.309570	1981.978638	7.562277
420.285553	1030.810913	14037.687500	1956.947876	7.120364
420.646484	1042.188477	14913.763672	2018.386963	7.037402
421.007355	1051.290649	15462.164063	2016.111450	6.695089
421.368225	1026.259888	16101.584961	2143.540527	7.411320
421.729065	1089.974487	16479.322266	2107.132324	6.609493
422.089874	987.576050	17364.500000	2184.500000	7.308600
422.450592	983.024963	17084.609375	2125.336426	7.094405
422.811279	996.678101	16911.669922	2143.540527	7.206176
423.171936	976.198425	16624.955078	2102.581299	7.197906
423.532593	969.371887	16363.270508	2127.612061	7.524022
423.893127	939.790100	16736.455078	2148.091553	7.649093
424.253723	1010.331238	16975.384766	2195.877686	7.425884
424.614197	1003.504700	16904.843750	2214.081787	7.613052
424.974670	1001.229126	17860.562500	2143.540527	6.775543
425.335052	1037.637451	17762.714844	2168.571289	6.761905
425.695496	1055.841675	16866.160156	2068.448486	6.404721
426.055817	1076.321289	17130.121094	2166.295898	6.789512
426.416168	967.096313	16818.375000	2150.367188	7.464829
426.776398	930.687988	16001.461914	2057.070801	7.473955
427.136627	1055.841675	15282.397461	1975.152100	6.461933
427.496826	1053.566162	15086.703125	2059.346436	7.167181
427.856995	1060.392700	14579.261719	2082.101563	7.557651
428.217102	905.657288	14019.483398	1913.713013	7.686969
428.577179	985.300537	13898.880859	1881.855713	6.942731
428.937195	1055.841675	13616.716797	1915.988525	6.847826
429.297180	987.576050	13204.847656	1941.019287	7.804060
429.657135	969.371887	13293.592773	1970.601074	8.124077
430.017059	887.453125	13091.071289	1986.529663	9.006153
430.376984	1026.259888	13015.978516	1966.049927	7.838299
430.736786	1017.157776	12997.774414	1856.824951	7.008547
431.096588	1014.882263	12745.192383	1975.152100	8.186227
431.456360	989.851563	12899.927734	1879.580200	7.470386
431.816071	957.994263	12488.058594	1927.366089	8.407341
432.175781	1026.259888	12676.926758	1918.264038	7.656250
432.535400	944.341125	12747.467773	1849.998413	7.673028
432.895020	1005.780212	12640.517578	1829.518677	7.079992
433.254578	1012.606750	12833.937500	1975.152100	8.142445
433.614105	1108.178589	12959.090820	2000.182739	7.526882
433.973602	1008.055725	13345.929688	1893.233276	7.174474
434.333038	1096.801025	13480.185547	1938.743774	6.798971
434.692444	1028.535400	13648.574219	1993.356201	7.645149
435.051819	1062.668213	13755.523438	1981.978638	7.242739
435.411133	1001.229126	13762.349609	2036.591064	8.113410
435.770416	1008.055725	12706.507813	1890.957764	7.547170
436.129669	1019.433350	13646.297852	1956.947876	7.424761
436.488861	1055.841675	13582.583984	1834.069824	6.212534
436.848083	951.167725	13154.786133	1870.478149	7.533097
437.207184	985.300537	13409.644531	1868.202637	7.106227
437.566254	1051.290649	13618.992188	1804.488037	5.993120
437.925293	962.545288	13618.992188	1818.141113	6.760158
438.284363	989.851563	13593.960938	1831.794189	6.679906
438.643311	1046.739624	13871.575195	1804.488037	5.908445
439.002258	978.473938	13905.708008	1913.713013	7.234642
439.361145	1005.780212	14258.413086	1849.998413	6.370193
439.719971	1055.841675	15034.366211	1897.784302	6.023115
440.078827	998.953613	15066.223633	1838.620850	5.968943
440.437592	962.545288	15662.410156	1861.375977	6.114551
440.796295	1067.219238	15687.440430	1865.927002	5.463035
441.155029	1105.903076	16645.435547	1902.335449	5.125202
441.513672	1044.463989	17287.130859	1890.957764	5.211544
441.872253	1069.494751	16870.710938	1888.682251	5.184332
442.230865	1003.504700	16558.964844	1925.090576	5.924517
442.589386	1028.535400	16499.800781	1831.794189	5.191940
442.947876	1062.668213	16085.656250	1915.988525	5.680097
443.306335	1023.984375	15837.625000	1881.855713	5.791090
443.664764	980.749451	15243.713867	1881.855713	6.317805
444.023102	1026.259888	15676.062500	1802.212524	5.296676
444.381500	1039.912964	15284.672852	1779.457275	5.191694
444.739777	1023.984375	15735.226563	1761.253052	5.011600
445.098022	1003.504700	15892.237305	1781.732788	5.226960
445.456238	1094.525513	15849.001953	1815.865601	4.888958
445.814423	1003.504700	16201.708008	1834.069824	5.464890
446.172577	989.851563	17237.070313	1911.437500	5.672269
446.530701	935.239075	17180.181641	1929.641602	6.121305
446.888733	1035.361938	17885.593750	1941.019287	5.374747
447.246765	998.953613	18686.576172	2052.519775	5.956516
447.604736	1010.331238	18008.470703	1952.396851	5.542169
447.962677	1014.882263	18183.687500	2036.591064	5.950961
448.320587	1005.780212	18363.453125	2022.937988	5.859989
448.678436	1049.015137	18151.830078	2045.693237	5.827568
449.036255	1005.780212	17771.818359	1997.907227	5.917480
449.394043	1003.504700	16533.933594	1927.366089	5.948718
449.751770	1028.535400	17109.640625	2098.030273	6.650630
450.109467	1003.504700	16483.873047	1981.978638	6.320741
450.467163	1044.463989	16372.372070	1961.498901	5.982779
450.824768	1010.331238	16017.390625	2057.070801	6.974981
451.182343	1035.361938	16267.698242	2045.693237	6.632806
451.539886	1033.086426	15546.358398	2052.519775	7.024146
451.897369	1035.361938	15771.634766	2052.519775	6.902409
452.254822	942.065613	15396.173828	2088.927979	7.934507
452.612274	985.300537	16006.013672	2113.958740	7.514012
452.969635	1035.361938	15689.715820	2209.530762	8.012424
453.326965	980.749451	15764.808594	2202.704102	8.265352
453.684326	1019.433350	15425.755859	2193.602051	8.150371
454.041534	967.096313	15271.020508	2252.765625	8.988228
454.398773	983.024963	15034.366211	2193.602051	8.615385
454.755951	1021.708862	14340.332031	2284.622803	9.482316
455.113098	1042.188477	14087.749023	2259.592041	9.331938
455.470215	1019.433350	14294.821289	2409.776611	10.473090
455.827240	1046.739624	14085.473633	2389.296875	10.296684
456.184265	980.749451	13801.033203	2423.429688	11.253106
456.541260	1046.739624	14060.443359	2514.450439	11.278194
456.898193	1039.912964	14140.085938	2557.685303	11.585896
457.255096	987.576050	14360.811523	2666.910400	12.557427
457.611969	1014.882263	14078.647461	2689.665527	12.820065
457.968781	1005.780212	13919.360352	2614.573486	12.458150
458.325531	1078.596802	14208.351563	2994.585449	14.592722
458.682312	1080.872437	15170.897461	2980.932129	13.485140
459.039001	1039.912964	15614.624023	3176.626953	14.660420
459.395630	1014.882263	16395.126953	3226.688477	14.380825
459.752289	1064.943726	17840.083984	3572.567627	14.948453
460.108856	998.953613	18936.884766	3936.650879	16.377012
460.465363	1023.984375	19926.736328	4034.498291	15.926326
460.821899	980.749451	19778.826172	4157.376465	16.898682
461.178345	1035.361938	19248.630859	4182.407227	17.278860
461.534760	1003.504700	19164.435547	4139.172363	17.266006
461.891144	1017.157776	17958.410156	4168.753906	18.603088
462.247467	1030.810913	17052.751953	4029.947266	18.718931
462.603760	1074.045776	16872.986328	4007.192139	18.565464
462.960052	1021.708862	16085.656250	3941.202148	19.380665
463.316254	1008.055725	15343.836914	4084.559814	21.460318
463.672424	1012.606750	15186.826172	4143.723145	22.090221
464.028564	996.678101	14640.701172	3909.344727	21.347563
464.384644	923.861450	14861.426758	3991.263428	22.008162
464.740723	987.576050	15020.712891	4123.243652	22.344736
465.096741	996.678101	14931.967773	4246.121582	23.318089
465.452698	1005.780212	14850.048828	4223.366699	23.241289
465.808655	1014.882263	15086.703125	4211.988770	22.719919
466.164520	932.963501	14636.149414	4271.152344	24.360678
466.520355	1044.463989	15742.052734	4562.419434	23.935596
466.876190	1014.882263	15742.052734	4576.072266	24.181087
467.231964	969.371887	15614.624023	4594.276367	24.751398
467.587677	1105.903076	16049.248047	4799.073242	24.714481
467.943390	976.198425	16326.861328	5022.074219	26.356358
468.299011	1001.229126	15671.511719	4860.512207	26.306810
468.654633	1046.739624	15391.623047	4956.084473	27.252537
469.010223	1051.290649	15471.265625	4817.277344	26.116459
469.365723	1012.606750	15095.804688	4703.501465	26.207788
469.721191	1019.433350	15318.805664	4958.359863	27.546150
470.076660	980.749451	14638.425781	4812.726563	28.057312
470.432068	987.576050	14952.447266	4867.338867	27.782303
470.787445	973.922913	14738.547852	4908.298340	28.583239
471.142792	973.922913	14952.447266	4924.227051	28.259808
471.498016	1008.055725	15013.886719	5042.554199	28.805849
471.853271	1003.504700	15129.937500	5015.248047	28.398844
472.208496	1060.392700	14802.262695	5185.912109	30.021528
472.563660	998.953613	15143.590820	5103.993164	29.021881
472.918762	1117.280762	15389.347656	5270.105957	29.097574
473.273865	1042.188477	15598.695313	5490.831543	30.561199
473.628876	1060.392700	15946.849609	5666.046875	30.938553
473.983917	1012.606750	16167.575195	5681.975586	30.810810
474.338837	1083.147949	16049.248047	5652.393555	30.530638
474.693787	987.576050	16224.462891	5543.168457	29.898445
475.048645	1101.352051	15926.370117	5572.750488	30.161167
475.403503	1069.494751	16169.850586	5707.006348	30.711275
475.758270	980.749451	16495.250000	5838.986328	31.314167
476.113037	1110.454102	16547.587891	5934.558105	31.249998
476.467773	976.198425	16408.781250	6039.232422	32.807430
476.822418	1058.117188	17676.246094	6437.448242	32.370258
477.177063	1062.668213	17132.396484	6376.009277	33.064285
477.531647	980.749451	17414.560547	6346.427734	32.650238
477.886200	1008.055725	18201.890625	6589.908203	32.464268
478.240723	1005.780212	18295.187500	6735.541504	33.140297
478.595184	985.300537	19080.242188	7004.053223	33.262074
478.949585	1037.637451	18961.914063	7085.971680	33.743809
479.303986	1051.290649	19321.447266	7186.094727	33.578281
479.658325	1042.188477	19337.375000	7145.135254	33.358208
480.012634	1035.361938	19423.845703	7170.166016	33.362206
480.366913	996.678101	20224.828125	7481.912598	33.727810
480.721130	1046.739624	20661.728516	7648.025391	33.654293
481.075317	1069.494751	21223.783203	7816.414063	33.476345
481.429474	1115.005249	22045.246094	8442.182617	35.007610
481.783569	989.851563	23123.841797	8833.571289	35.437443
482.137604	1071.770264	24163.755859	9022.440430	34.430428
482.491669	1030.810913	26459.755859	9871.208984	34.765102
482.845612	1030.810913	29160.798828	11115.918945	35.851803
483.199554	1074.045776	33149.785156	12417.516602	35.364643
483.553436	998.953613	38524.566406	14799.987305	36.777634
483.907318	1003.504700	45344.304688	17312.162109	36.780251
484.261139	983.024963	51326.648438	19492.111328	36.765499
484.614899	1026.259888	54510.101563	20855.148438	37.074543
484.968628	973.922913	54027.691406	21330.732422	38.370144
485.322357	1039.912964	50866.992188	19546.724609	37.142078
485.675964	971.647400	47758.628906	18138.175781	36.690826
486.029572	1023.984375	43282.679688	16624.955078	36.917778
486.383148	1010.331238	40351.808594	15596.419922	37.075600
486.736694	1049.015137	38822.660156	15041.192383	37.042171
487.090149	1012.606750	38583.730469	15045.743164	37.350857
487.443604	1028.535400	39628.195313	15560.011719	37.646645
487.796997	1035.361938	41382.621094	16445.189453	38.192997
488.150360	1023.984375	42925.425781	16636.332031	37.259689
488.503693	1030.810913	43594.425781	17029.998047	37.588886
488.856964	1023.984375	42408.882813	16563.515625	37.548798
489.210175	983.024963	40272.167969	15778.460938	37.657822
489.563416	983.024963	38008.023438	15107.182617	38.147621
489.916565	1037.637451	35844.003906	13969.421875	37.153503
490.269653	1062.668213	33297.695313	13436.950195	38.387688
490.622772	1001.229126	32132.628906	12954.540039	38.396317
490.975769	1060.392700	32842.589844	12997.774414	37.559963
491.328735	1010.331238	33934.839844	13596.236328	38.226555
491.681732	978.473938	36201.261719	14401.771484	38.109695
492.034607	1003.504700	37976.167969	15239.163086	38.503197
492.387482	973.922913	39063.867188	15491.746094	38.114582
492.740326	1001.229126	37571.125000	15230.060547	38.908592
493.093079	985.300537	36239.945313	14545.128906	38.462528
493.445862	1028.535400	32954.093750	13409.644531	38.781181
493.798523	932.963501	30325.865234	12410.690430	39.049313
494.151215	1039.912964	28327.958984	11441.318359	38.117073
494.503815	964.820801	26236.753906	10626.682617	38.231586
494.856384	1023.984375	24600.656250	10244.394531	39.108192
495.208923	1067.219238	23574.394531	9736.953125	38.519867
495.561432	930.687988	22859.882813	9534.432617	39.234200
495.913879	1051.290649	22625.503906	9249.992188	38.002319
496.266296	1021.708862	22684.666016	9548.084961	39.359241
496.618683	1023.984375	22680.115234	9559.462891	39.413681
496.970978	980.749451	23408.283203	9866.658203	39.620537
497.323273	992.127075	24020.398438	9839.351563	38.418968
497.675507	994.402588	24147.826172	9853.004883	38.260445
498.027710	983.024963	23888.417969	9798.392578	38.485989
498.379852	1046.739624	23572.119141	9841.627930	39.044353
498.731995	985.300537	23344.568359	9680.065430	38.886627
499.084076	948.892151	22862.158203	9677.790039	39.833851
499.436096	971.647400	22666.462891	9648.208008	39.993702
499.788086	1008.055725	22391.125000	9372.870117	39.118870
500.140106	1051.290649	21822.244141	9275.022461	39.592461
500.491943	1023.984375	20848.322266	9090.706055	40.691002
500.843842	1021.708862	21160.068359	8833.571289	38.790958
501.195679	944.341125	20466.033203	8703.867188	39.748226
501.547455	976.198425	20277.166016	8624.223633	39.625088
501.899231	1051.290649	20197.523438	8540.029297	39.113380
502.250885	1028.535400	19947.214844	8380.743164	38.862164
502.602600	1051.290649	19785.654297	8360.263672	39.013725
502.954193	1033.086426	19669.601563	8419.426758	39.633698
503.305786	1014.882263	19894.878906	8417.151367	39.206940
503.657379	1042.188477	19983.623047	8512.723633	39.440178
504.008820	1037.637451	19753.796875	8483.141602	39.781151
504.360291	1087.698975	20277.166016	8542.304688	38.847382
504.711700	1049.015137	20147.460938	8592.366211	39.497200
505.063080	1071.770264	20190.695313	8603.744141	39.395382
505.414368	1055.841675	20272.615234	8687.938477	39.715809
505.765656	1089.974487	20070.093750	8560.508789	39.359787
506.116943	989.851563	20126.982422	8428.529297	38.870392
506.468109	1060.392700	20024.583984	8439.906250	38.912884
506.819305	1023.984375	19694.632813	8501.345703	40.048752
507.170410	1030.810913	19929.011719	8492.243164	39.482235
507.521484	964.820801	19719.664063	8738.000000	41.446247
507.872559	1033.086426	19860.746094	8530.927734	39.823544
508.223480	978.473938	19835.714844	8444.458008	39.592133
508.574493	1085.423462	20527.472656	8667.458984	38.998131
508.925385	1083.147949	20538.851563	8722.071289	39.263157
509.276245	1053.566162	20773.228516	8869.980469	39.637669
509.627045	1033.086426	21519.599609	8951.898438	38.653782
509.977814	1028.535400	21519.599609	9001.959961	38.911716
510.328613	1092.250000	21722.121094	9081.603516	38.727112
510.679260	1008.055725	21576.488281	9252.267578	40.081871
511.029999	1008.055725	21788.111328	9256.818359	39.695576
511.380585	1014.882263	22104.408203	9279.574219	39.188614
511.731140	1019.433350	22202.255859	9434.309570	39.724998
512.081726	1017.157776	22482.146484	9386.523438	38.990776
512.432129	1085.423462	22673.289063	9488.921875	38.926952
512.782654	996.678101	22486.697266	9441.135742	39.294788
513.133057	951.167725	23032.822266	9620.902344	39.262161
513.483398	1060.392700	22814.371094	9928.097656	40.763603
513.833801	1008.055725	22716.523438	9550.360352	39.350105
514.183960	1028.535400	22448.013672	9732.402344	40.635288
514.534302	998.953613	22070.275391	9395.625000	39.848812
514.884460	1012.606750	22083.929688	9366.043945	39.643631
515.234619	992.127075	22045.246094	9124.838867	38.629486
515.584717	1014.882263	21797.212891	9404.727539	40.370090
515.934753	1128.658325	21990.632813	9313.707031	39.234295
516.284851	1008.055725	22450.289063	9286.400391	38.607662
516.634766	1055.841675	22218.185547	9609.524414	40.419353
516.984741	957.994263	22566.339844	9718.749023	40.543385
517.334595	1062.668213	23658.589844	9880.311523	39.023163
517.684448	1008.055725	24029.500000	10235.292969	40.081055
518.034363	998.953613	24994.320313	10751.835938	40.644859
518.384094	962.545288	26125.253906	11040.827148	40.052452
518.733826	978.473938	27258.462891	11505.033203	40.055420
519.083496	1005.780212	27786.384766	11834.983398	40.436737
519.433167	983.024963	28391.673828	11823.606445	39.551682
519.782776	980.749451	28018.488281	11700.727539	39.648209
520.132324	1055.841675	27406.373047	11266.103516	38.747841
520.481873	996.678101	27067.320313	11425.389648	40.001743
520.831299	973.922913	26332.326172	10979.387695	39.456211
521.180786	928.412476	25538.169922	10767.764648	39.981510
521.530151	1033.086426	25333.373047	10644.886719	39.554268
521.879517	1019.433350	24898.748047	10524.284180	39.803699
522.228882	978.473938	24682.574219	10747.285156	41.211487
522.578064	978.473938	24318.490234	10321.762695	40.031204
522.927307	1044.463989	24666.644531	10321.762695	39.273678
523.276489	976.198425	24539.216797	10380.925781	39.913086
523.625610	978.473938	24946.535156	10542.488281	39.903164
523.974792	1064.943726	25497.210938	10615.304688	39.089130
524.323792	1001.229126	25706.558594	10879.264648	39.983418
524.672852	994.402588	26275.439453	11152.327148	40.180016
525.021790	978.473938	27524.699219	11505.033203	39.653698
525.370728	1035.361938	28537.306641	12089.841797	40.195263
525.719604	985.300537	29777.464844	12565.425781	40.219711
526.068420	1108.178589	31479.554688	13159.336914	39.679329
526.417297	992.127075	32901.753906	13659.951172	39.699066
526.765991	944.341125	33887.054688	14003.554688	39.642189
527.114746	1060.392700	35222.785156	14424.526367	39.119434
527.463379	1055.841675	36053.351563	14952.447266	39.707409
527.812012	1001.229126	38438.097656	15969.605469	39.982983
528.160706	1053.566162	41387.171875	17114.191406	39.819462
528.509155	985.300537	46315.949219	19498.937500	40.841324
528.857727	1039.912964	50969.390625	21210.128906	40.397411
529.206177	1005.780212	54070.925781	22960.005859	41.372215
529.554565	1012.606750	54073.199219	22998.689453	41.435802
529.902893	998.953613	52443.929688	22186.328125	41.184536
530.251221	1017.157776	50188.886719	20425.074219	39.469662
530.599548	1017.157776	45942.765625	19091.619141	40.231976
530.947876	1062.668213	42509.003906	17576.123047	39.842979
531.296021	1076.321289	39357.406250	16142.544922	39.356834
531.644165	1035.361938	36788.343750	15002.508789	39.065685
531.992249	1042.188477	35086.253906	14363.086914	39.128399
532.340454	1083.147949	34189.699219	14149.188477	39.466633
532.688354	1017.157776	34521.925781	14287.995117	39.608799
533.036438	1014.882263	35602.796875	14483.689453	38.940792
533.384338	1039.912964	37878.320313	15546.358398	39.378590
533.732239	1037.637451	39521.246094	16308.657227	39.681881
534.080139	1039.912964	39537.175781	16463.392578	40.063835
534.427917	978.473938	39336.929688	16472.494141	40.392712
534.775757	976.198425	37361.777344	15341.561523	39.480927
535.123474	998.953613	35639.207031	14711.242188	39.584839
535.471191	955.718750	33807.414063	14133.259766	40.112209
535.818848	1003.504700	32505.814453	13225.327148	38.796589
536.166382	1055.841675	31814.056641	13068.316406	39.054523
536.513977	1017.157776	31666.148438	13302.694336	40.084637
536.861511	1001.229126	31868.667969	13452.878906	40.339108
537.208984	1030.810913	32446.650391	13482.460938	39.634945
537.556396	1126.382813	31916.455078	13350.480469	39.701427
537.903809	1023.984375	31263.380859	12911.304688	39.310707
538.251160	1012.606750	30733.183594	12697.406250	39.315521
538.598389	1046.739624	29076.605469	12576.803711	41.134926
538.945740	973.922913	28252.867188	12044.332031	40.582253
539.292969	1023.984375	27486.015625	11948.759766	41.284721
539.640137	1026.259888	27957.048828	11671.146484	39.526829
539.987244	980.749451	27761.353516	12044.332031	41.311924
540.334351	932.963501	28810.369141	12349.250977	40.951756
540.681458	1021.708862	30639.886719	13334.551758	41.571911
541.028442	1039.912964	33350.031250	14711.242188	42.312840
541.375366	1055.841675	36401.507813	16292.728516	43.108215
541.722290	1039.912964	39264.113281	17862.837891	44.011192
542.069153	1055.841675	41400.824219	18329.320313	42.814438
542.416016	996.678101	40779.609375	18083.564453	42.950298
542.762756	1019.433350	40019.585938	17699.000000	42.767952
543.109558	1019.433350	38931.886719	17002.691406	42.158333
543.456299	1026.259888	36640.437500	16397.402344	43.160179
543.802917	1119.556274	35011.164063	15744.328125	43.151600
544.149536	985.300537	33793.757813	14904.661133	42.426136
544.496094	1023.984375	31297.513672	14092.300781	43.167469
544.842651	1071.770264	30237.121094	13384.613281	42.217365
545.189148	987.576050	28630.603516	12833.937500	42.854790
545.535583	1096.801025	27784.109375	12890.825195	44.193382
545.882019	1035.361938	26901.207031	12913.580078	45.922401
546.228333	1071.770264	26491.613281	13079.693359	47.238380
546.574707	1014.882263	26751.023438	13270.836914	47.621574
546.920898	942.065613	26657.726563	12924.958008	46.597649
547.267212	1023.984375	26755.574219	12781.600586	45.693314
547.613342	1049.015137	26541.673828	12506.262695	44.943325
547.959473	1035.361938	26193.519531	12171.760742	44.265556
548.305664	1008.055725	25442.597656	11921.453125	44.663811
548.651611	1035.361938	24455.021484	10986.214844	42.489311
548.997742	1028.535400	23385.527344	10669.916992	43.124683
549.343689	1064.943726	22402.501953	10244.394531	43.020157
549.689575	1049.015137	21763.080078	9582.217773	41.195213
550.035522	1049.015137	20896.107422	9272.747070	41.435452
550.381287	1001.229126	20322.675781	9102.083008	41.926746
550.727173	1026.259888	19974.521484	8792.612305	40.987152
551.072876	1062.668213	19280.488281	8551.407227	41.106670
551.418640	1021.708862	19439.773438	8291.998047	39.473686
551.764282	932.963501	19207.671875	8383.018555	40.767025
552.109863	973.922913	19280.488281	8200.976563	39.477936
552.455505	969.371887	19421.570313	8182.772949	39.092365
552.801025	1083.147949	20122.429688	8462.662109	38.759415
553.146545	1026.259888	20270.339844	8383.018555	38.228683
553.491943	948.892151	20111.052734	8367.089844	38.712742
553.837341	935.239075	20309.023438	8435.355469	38.712704
554.182800	957.994263	19999.552734	8132.711426	37.679253
554.528015	983.024963	19578.580078	8253.313477	39.096916
554.873352	1089.974487	19385.162109	7993.904785	37.736317
555.218628	1076.321289	19194.017578	7770.903320	36.950516
555.563721	1060.392700	18736.638672	7716.291016	37.654480
555.908875	1089.974487	18420.341797	7497.840820	36.974785
556.254028	1033.086426	17931.103516	7334.003418	37.287907
556.599121	1017.157776	17849.185547	7256.635742	37.069080
556.944031	985.300537	17860.562500	7117.829102	36.340343
557.289063	1033.086426	17730.857422	7070.042969	36.154266
557.633972	964.820801	17719.480469	7083.696289	36.520439
557.978882	1069.494751	17601.154297	7029.083984	36.049553
558.323792	973.922913	17553.367188	7092.798340	36.906399
558.668518	1012.606750	17373.601563	6778.776367	35.243389
559.013306	987.576050	17098.263672	6940.338379	36.949150
559.358032	1010.331238	17109.640625	6719.612793	35.462898
559.702637	969.371887	17095.988281	6826.562500	36.320023
560.047363	1019.433350	17102.814453	6803.807129	35.964912
560.391846	917.034912	17191.560547	6844.766602	36.423374
560.736450	1030.810913	17118.742188	6837.939941	36.096180
561.080933	1021.708862	16977.660156	7013.155273	37.549915
561.425354	1021.708862	17328.091797	6842.491211	35.696342
561.769775	1049.015137	17312.162109	6942.613770	36.238983
562.114136	989.851563	17692.173828	6951.715820	35.694824
562.458496	1030.810913	17416.835938	6913.032227	35.897793
562.802673	1026.259888	17412.285156	6787.878418	35.161781
563.146912	1108.178589	17093.712891	6981.297852	36.740211
563.491150	1053.566162	17059.580078	6633.143066	34.859257
563.835266	1101.352051	16948.078125	6692.306641	35.281448
564.179443	1058.117188	17239.345703	6737.816895	35.100548
564.523438	1103.627563	17091.437500	6792.429688	35.582123
564.867493	980.749451	17114.191406	6849.317383	36.375175
565.211426	1042.188477	17678.521484	6715.062012	34.099304
565.555359	983.024963	17692.173828	6787.878418	34.740570
565.899231	976.198425	18320.218750	7056.390137	35.056419
566.243042	983.024963	18700.230469	7104.175781	34.549191
566.586914	1060.392700	18768.496094	7190.645508	34.618347
566.930603	1023.984375	19339.650391	7445.503906	35.060257
567.274292	969.371887	19325.998047	7520.596191	35.688606
567.617981	998.953613	18879.996094	7422.749023	35.925171
567.961609	1014.882263	19139.406250	7347.656738	34.940365
568.305237	1012.606750	18536.392578	7217.952148	35.410988
568.648682	1044.463989	18340.697266	7183.819336	35.495335
568.992188	1064.943726	17919.726563	7076.869629	35.668961
569.335632	978.473938	17937.929688	6794.705078	34.294918
569.679016	971.647400	17994.818359	6710.510742	33.712067
570.022461	1058.117188	17733.132813	6767.398926	34.238541
570.365662	978.473938	17981.166016	6553.500000	32.789078
570.708984	987.576050	17746.787109	6940.338379	35.519348
571.052185	971.647400	18099.492188	6819.735840	34.143749
571.395386	1019.433350	18449.921875	6883.450195	33.642296
571.738525	1021.708862	18738.914063	7040.461426	33.971230
572.081604	1044.463989	19025.628906	6892.552734	32.523415
572.424683	957.994263	19378.335938	7320.350586	34.539841
572.767578	1046.739624	19817.509766	7236.156250	32.973698
573.110596	1046.739624	19407.916016	7108.727051	33.015247
573.453552	1053.566162	19733.316406	7049.563477	32.098915
573.796387	1019.433350	19287.314453	7049.563477	33.009464
574.139282	1051.290649	18823.107422	6883.450195	32.816902
574.481995	1101.352051	18606.933594	6910.756836	33.186012
574.824768	1003.504700	18488.607422	6824.287109	33.289951
575.167480	1028.535400	18643.341797	6760.572266	32.541016
575.510132	998.953613	18522.740234	6733.266113	32.723022
575.852722	1008.055725	18372.554688	6774.225586	33.206661
576.195251	1023.984375	18468.126953	6674.102539	32.389774
576.537842	1060.392700	18079.013672	6610.387695	32.611309
576.880188	960.269775	17767.265625	6414.693359	32.453293
577.222717	1017.157776	17673.970703	6378.284668	32.185791
577.565063	1035.361938	17168.804688	6380.560547	33.131172
577.907410	996.678101	16872.986328	6073.365234	31.976496
578.249756	951.167725	16279.076172	6207.620605	34.293350
578.591919	980.749451	16035.594727	6068.813965	33.796856
578.934204	994.402588	15771.634766	5886.772461	33.107487
579.276306	1001.229126	15484.918945	5729.761230	32.647289
579.618469	998.953613	15143.590820	5777.547363	33.783787
579.960571	1026.259888	15214.131836	5791.200684	33.584606
580.302551	971.647400	14713.517578	5513.586914	33.051830
580.644531	942.065613	14836.395508	5559.097168	33.229610
580.986511	1030.810913	14563.333008	5547.719727	33.378174
581.328369	1060.392700	14451.833008	5297.412598	31.639763
581.670227	1023.984375	14410.873047	5468.076660	33.197350
582.012024	1017.157776	14306.199219	5220.044922	31.626715
582.353821	1008.055725	14240.208984	5370.229004	32.966465
582.695496	951.167725	14176.494141	5213.218262	32.226433
583.037231	962.545288	14121.881836	5140.401367	31.748226
583.378845	1030.810913	14183.321289	5113.095215	31.038059
583.720398	1005.780212	13846.543945	5181.360840	32.518166
584.062012	994.402588	13942.116211	5290.585938	33.181019
584.403442	985.300537	13917.084961	5106.268555	31.866970
584.744934	1008.055725	13853.371094	4972.013184	30.859169
585.086365	1058.117188	13757.798828	5008.421387	31.105537
585.427734	1012.606750	13748.696289	5008.421387	31.373951
585.768982	1094.525513	13810.135742	5010.696777	30.798140
586.110291	1023.984375	13591.685547	4869.614746	30.599314
586.451599	1021.708862	13703.186523	4990.217285	31.293737
586.792725	1060.392700	13728.216797	4985.666016	30.986170
587.133850	1023.984375	13766.900391	4919.675781	30.571428
587.474915	1037.637451	13628.093750	4887.818848	30.580158
587.815979	992.127075	13646.297852	4819.553223	30.246361
588.157043	937.514587	13705.461914	4819.553223	30.404564
588.497925	978.473938	13894.330078	4894.645020	30.320646
588.838867	1067.219238	13568.930664	4778.593750	29.686934
589.179749	989.851563	13976.249023	4919.675781	30.261080
589.520569	1042.188477	13732.767578	4874.165527	30.195446
589.861450	1021.708862	14237.933594	4908.298340	29.407713
590.202087	957.994263	14044.514648	4917.400391	30.255608
590.542847	955.718750	14504.169922	4931.053711	29.341619
590.883484	1021.708862	14133.259766	4928.777832	29.798677
591.224121	1099.076538	14397.219727	4769.491699	27.600958
591.564636	1021.708862	14085.473633	4710.328125	28.235498
591.905151	1035.361938	14039.962891	4742.185547	28.503941
592.245667	1019.433350	13867.023438	4644.337891	28.214666
592.585999	1033.086426	13928.462891	4712.603516	28.533613
592.926453	1080.872437	13746.420898	4592.000977	27.721882
593.266724	1044.463989	13719.115234	4637.511230	28.348293
593.607056	955.718750	13707.737305	4596.552246	28.551037
593.947388	980.749451	13898.880859	4657.991211	28.465738
594.287476	1003.504700	14074.095703	4644.337891	27.855154
594.627686	1067.219238	14406.322266	4655.715332	26.902079
594.967773	1064.943726	14235.658203	4723.980957	27.781614
595.307861	1030.810913	14349.434570	4719.430176	27.695196
595.647888	1030.810913	14388.118164	4721.705566	27.632025
595.987854	962.545288	14731.721680	4751.287598	27.516113
596.327820	1033.086426	14972.926758	4733.083496	26.542608
596.667725	1069.494751	15480.368164	4703.501465	25.217117
597.007568	1096.801025	15842.175781	4928.777832	25.987652
597.347351	1037.637451	15912.716797	5081.237793	27.183723
597.687073	960.269775	16834.302734	5103.993164	26.103786
598.026794	1119.556274	16295.004883	4985.666016	25.476084
598.366455	1019.433350	15691.991211	4842.308105	26.054590
598.706116	998.953613	15669.236328	4826.379395	26.089651
599.045654	1121.831787	14975.202148	4642.062500	25.410645
599.385193	1028.535400	14322.127930	4496.429199	26.086956
599.724731	1083.147949	14010.381836	4264.326172	24.608343
600.064087	960.269775	13609.889648	4405.408203	27.235113
600.403564	1080.872437	13289.041016	4296.183105	26.337370
600.742920	1017.157776	13282.214844	4064.080078	24.842302
601.082153	1019.433350	13243.531250	4064.080078	24.906923
601.421387	1089.974487	13184.367188	4089.110840	24.797741
601.760620	973.922913	12961.366211	3954.855225	24.867125
602.099854	1051.290649	13034.183594	4102.764160	25.465250
602.438843	1008.055725	13145.683594	3998.090088	24.634422
602.778015	1130.933838	13473.358398	3952.579590	22.861357
603.117065	994.402588	13805.584961	4150.549805	24.635878
603.456055	1064.943726	14126.433594	4182.407227	23.867594
603.794983	1033.086426	14367.638672	4282.530273	24.368601
604.133850	1055.841675	15048.019531	4425.888184	24.085217
604.472778	1094.525513	15348.387695	4434.990234	23.435507
604.811584	1099.076538	15901.339844	4635.235840	23.889313
605.150330	1017.157776	16470.218750	4680.746094	23.707850
605.489075	994.402588	16515.730469	4726.256836	24.043396
605.827698	998.953613	16563.515625	4578.347656	22.997074
606.166382	1010.331238	16112.962891	4507.806641	23.158052
606.504883	1035.361938	15646.481445	4469.123047	23.501015
606.843445	967.096313	15063.947266	4380.377441	24.213078
607.181946	978.473938	14679.384766	4161.927734	23.235344
607.520386	980.749451	14192.422852	4250.672852	24.750257
607.858826	996.678101	13828.339844	4061.804688	23.887213
608.197083	967.096313	13905.708008	3909.344727	22.740065
608.535461	1021.708862	13275.388672	3909.344727	23.565458
608.873718	1033.086426	13669.053711	3945.753174	23.050604
609.211914	973.922913	14046.790039	4050.427002	23.533506
609.550171	983.024963	14451.833008	4027.671875	22.605171
609.888245	992.127075	14631.598633	4064.080078	22.522522
610.226318	987.576050	14956.998047	4298.458984	23.700930
610.564392	1021.708862	14897.834961	4318.938477	23.761889
610.902344	1021.708862	14622.497070	4234.744141	23.623890
611.240295	1049.015137	14636.149414	4237.019531	23.463404
611.578247	1064.943726	14258.413086	4211.988770	23.853050
611.916138	1042.188477	13910.258789	4086.835449	23.660479
612.253845	1051.290649	13443.777344	3918.446777	23.136248
612.591675	1058.117188	13416.470703	3809.221924	22.261095
612.929382	957.994263	12934.060547	3738.680664	23.218697
613.267090	1046.739624	12488.058594	3763.711426	23.747013
613.604736	1028.535400	12372.006836	3620.353516	22.848543
613.942261	1017.157776	12112.597656	3634.006836	23.584908
614.279785	1039.912964	11860.014648	3552.087891	23.217665
614.617310	1005.780212	12042.055664	3504.302002	22.639175
614.954712	953.443237	11885.044922	3511.128662	23.397171
615.292175	1026.259888	11737.136719	3570.292236	23.751858
615.629517	948.892151	11630.186523	3401.903564	22.965490
615.966797	1001.229126	11527.788086	3381.423828	22.611330
616.304138	1028.535400	11693.901367	3322.260254	21.506292
616.641296	987.576050	11602.880859	3385.974854	22.593782
616.978516	996.678101	11516.411133	3315.433838	22.041964
617.315552	1005.780212	11798.575195	3310.882813	21.357790
617.652771	1062.668213	11573.298828	3297.229736	21.260014
617.989685	921.585938	11616.534180	3342.739990	22.638296
618.326721	1021.708862	11552.819336	3438.312012	22.947277
618.663696	987.576050	11834.983398	3397.352539	22.215229
619.000549	1060.392700	11637.013672	3345.015625	21.600689
619.337463	1012.606750	11807.677734	3426.934326	22.365091
619.674194	946.616638	11466.349609	3281.301025	22.193378
620.010986	1001.229126	11600.605469	3238.066162	21.103477
620.347778	957.994263	11459.522461	3315.433838	22.448536
620.684387	1071.770264	11509.583984	3354.117676	21.866144
621.020996	1096.801025	11350.297852	3267.647949	21.171770
621.357605	1037.637451	11329.818359	3190.280273	20.915323
621.694214	1062.668213	11236.521484	3251.719238	21.516439
622.030579	1074.045776	10881.540039	3147.045166	21.136892
622.367065	998.953613	11088.613281	3226.688477	22.079384
622.703430	912.483826	11081.786133	3201.657715	22.510628
623.039795	1064.943726	11034.000000	3201.657715	21.433460
623.376160	1035.361938	10913.397461	3213.035400	22.045612
623.712402	1042.188477	11024.898438	3169.800537	21.312971
624.048645	1003.504700	11022.623047	3210.759766	22.030434
624.384766	939.790100	10933.877930	3190.280273	22.518215
624.720886	1014.882263	11220.592773	3174.351563	21.159420
625.057007	1046.739624	11140.950195	3297.229736	22.294861
625.392944	983.024963	11095.439453	3156.147461	21.489653
625.729004	1039.912964	11034.000000	3240.341553	22.017305
626.064941	1033.086426	11325.266602	3215.310791	21.202744
626.400818	1037.637451	11498.207031	3333.637939	21.949097
626.736633	994.402588	11855.462891	3392.801514	22.082548
627.072449	1005.780212	11951.035156	3333.637939	21.268190
627.408264	1026.259888	12112.597656	3476.995850	22.105909
627.743896	987.576050	12048.882813	3404.179199	21.847357
628.079590	973.922913	12069.362305	3436.036377	22.190321
628.415161	957.994263	12035.229492	3424.658691	22.267872
628.750793	1012.606750	11803.125977	3285.852051	21.067060
629.086365	1049.015137	11607.431641	3222.137451	20.581898
629.421753	1055.841675	11475.451172	3228.964111	20.856085
629.757263	973.922913	11261.552734	3153.871826	21.190002
630.092651	1053.566162	10892.917969	3194.831299	21.762259
630.427917	1017.157776	10949.805664	3131.116699	21.282936
630.763184	1051.290649	10649.437500	3053.749023	20.862970
631.098511	1083.147949	10704.049805	3094.708252	20.908230
631.433716	1042.188477	10478.773438	3137.943115	22.208824
631.768799	978.473938	10617.580078	2990.034424	20.868746
632.103943	955.718750	10476.498047	2992.309814	21.391012
632.438965	1030.810913	10244.394531	2949.074951	20.819956
632.773987	1053.566162	10330.864258	2955.901611	20.505276
633.109070	1044.463989	10333.139648	2846.676514	19.402254
633.443848	969.371887	10146.546875	2949.074951	21.572033
633.778870	1058.117188	10203.435547	3003.687500	21.273949
634.113708	1058.117188	10194.333008	3053.749023	21.843090
634.448425	1039.912964	10264.874023	2869.431641	19.832264
634.783264	1001.229126	10155.649414	2978.656738	21.600796
635.117859	1021.708862	10110.138672	2910.391113	20.781172
635.452576	994.402588	10096.485352	2976.381104	21.775000
635.787170	962.545288	10130.618164	3024.167236	22.486973
636.121704	985.300537	9994.086914	2919.493164	21.470070
636.456177	1014.882263	9859.832031	2842.125488	20.658604
636.790588	1042.188477	9843.903320	2942.248291	21.587381
637.125122	1014.882263	9577.666992	2853.503174	21.472229
637.459412	1028.535400	9525.330078	2760.206787	20.380289
637.793762	985.300537	9320.533203	2826.196777	22.085722
638.128052	1008.055725	9450.238281	2769.308838	20.862534
638.462280	1071.770264	9445.686523	2739.727051	19.918480
638.796509	1064.943726	9313.707031	2641.879639	19.117239
639.130615	996.678101	9161.247070	2726.073975	21.181717
639.464722	1012.606750	9138.491211	2719.247314	21.002522
639.798767	1046.739624	9152.144531	2616.848877	19.371140
640.132751	1030.810913	8701.591797	2682.839111	21.536636
640.466736	1037.637451	8819.918945	2689.665527	21.228069
640.800598	953.443237	8667.458984	2728.349365	23.008848
641.134521	978.473938	8669.734375	2621.399902	21.360947
641.468262	1008.055725	8635.601563	2614.573486	21.062054
641.802063	1035.361938	8717.520508	2621.399902	20.645733
642.135803	1012.606750	8615.122070	2673.737061	21.849747
642.469421	1042.188477	8519.549805	2673.737061	21.819843
642.803101	1019.433350	8471.763672	2596.369141	21.160305
643.136658	971.647400	8444.458008	2571.338623	21.406820
643.470215	1035.361938	8376.192383	2489.419678	19.807810
643.803711	1026.259888	8540.029297	2400.674561	18.291946
644.137085	1046.739624	8387.569336	2641.879639	21.729696
644.470581	1058.117188	8403.498047	2628.226563	21.375465
644.803833	980.749451	8398.947266	2580.440674	21.564419
645.137207	957.994263	8237.385742	2605.471436	22.632072
645.470459	1005.780212	8335.232422	2505.348389	20.459484
645.803589	983.024963	8173.670898	2505.348389	21.170887
646.136780	928.412476	8376.192383	2603.195801	22.487015
646.469849	971.647400	8373.916992	2505.348389	20.719334
646.802979	998.953613	8376.192383	2635.052979	22.177666
647.135986	980.749451	8553.682617	2530.379150	20.462740
647.468994	1083.147949	8446.733398	2500.797363	19.252163
647.801941	1037.637451	8362.539063	2639.604248	21.870148
648.134766	1023.984375	8357.988281	2546.307861	20.757059
648.467651	1042.188477	8403.498047	2557.685303	20.587326
648.800354	964.820801	8298.824219	2546.307861	21.563763
649.133179	1021.708862	8344.334961	2503.072998	20.229958
649.465881	1035.361938	8348.885742	2512.175049	20.192907
649.798462	1012.606750	8442.182617	2628.226563	21.745789
650.131104	1083.147949	8251.038086	2457.562500	19.174604
650.463623	1069.494751	8323.855469	2562.236328	20.577162
650.796143	1092.250000	8467.212891	2498.521729	19.068188
651.128662	1033.086426	8385.293945	2555.409912	20.705666
651.461060	1042.188477	8287.446289	2484.868652	19.912062
651.793396	1003.504700	8301.099609	2525.828125	20.860620
652.125732	976.198425	8371.640625	2519.001465	20.861538
652.458008	1033.086426	8428.529297	2539.481201	20.369230
652.790222	1019.433350	8419.426758	2571.338623	20.971712
653.122437	1030.810913	8269.242188	2509.899414	20.433826
653.454529	1051.290649	8401.222656	2564.511963	20.588236
653.786621	1012.606750	8291.998047	2521.277100	20.725227
654.118713	951.167725	8191.875000	2557.685303	22.187302
654.450623	983.024963	8198.701172	2639.604248	22.958061
654.782654	1010.331238	8139.538086	2512.175049	21.066071
655.114502	1012.606750	8100.854004	2418.878662	19.839489
655.446350	1012.606750	7843.720215	2441.633789	20.919388
655.778198	1023.984375	7959.771973	2532.654541	21.751966
656.109863	1101.352051	8071.272461	2409.776611	18.772446
656.441650	1051.290649	8034.863770	2480.317627	20.462690
656.773254	1092.250000	7814.138672	2519.001465	21.225454
657.104919	1012.606750	8175.946289	2453.011475	20.108007
657.436462	1046.739624	8105.405273	2534.930176	21.083172
657.767944	998.953613	7989.353516	2566.787354	22.428385
658.099548	1023.984375	8228.283203	2594.093750	21.794062
658.430908	1064.943726	8326.130859	2637.328613	21.654654
658.762268	1046.739624	8417.151367	2689.665527	22.290831
659.093628	1012.606750	8549.131836	2653.257324	21.769325
659.424927	907.932800	8892.735352	2714.696289	22.627527
659.756226	967.096313	9320.533203	2746.553711	21.302099
660.087341	1030.810913	9304.604492	2730.625000	20.544554
660.418518	1033.086426	9334.186523	2833.023438	21.683115
660.749573	1087.698975	9213.583984	2782.961914	20.862503
661.080627	992.127075	9229.512695	2798.890625	21.933701
661.411621	1044.463989	9020.164063	2682.839111	20.542086
661.742554	1005.780212	8890.459961	2573.614014	19.884558
662.073547	1035.361938	8540.029297	2632.777588	21.285629
662.404297	1051.290649	8542.304688	2639.604248	21.202919
662.735229	1051.290649	8230.558594	2632.777588	22.028526
663.065979	994.402588	8089.476563	2487.144287	21.039127
663.396667	1053.566162	7984.802734	2598.644775	22.291531
663.727417	1017.157776	7841.444824	2519.001465	22.007336
664.057922	978.473938	7643.474609	2541.756836	23.455107
664.388611	1035.361938	7557.004395	2391.572266	20.795532
664.719116	1017.157776	7591.137207	2514.450439	22.776049
665.049622	1001.229126	7450.055176	2493.970703	23.147493
665.380005	1019.433350	7488.738770	2484.868652	22.652126
665.710388	1021.708862	7374.962891	2425.705078	22.098852
666.040771	1001.229126	7379.514160	2268.694336	19.871567
666.371033	1010.331238	7406.820313	2421.154053	22.056204
666.701294	1021.708862	7256.635742	2334.684326	21.058393
667.031555	1008.055725	7131.482422	2434.807373	23.299891
667.361633	1010.331238	7188.370117	2466.664551	23.572742
667.691772	1030.810913	7074.594238	2427.980713	23.117470
668.021790	1053.566162	7095.073730	2343.786377	21.355930
668.351807	1080.872437	7286.217773	2453.011475	22.112211
668.681763	1005.780212	7204.298828	2446.184814	23.237885
669.011719	1110.454102	7281.666504	2478.042236	22.160769
669.341614	1042.188477	7240.707031	2387.021240	21.696035
669.671387	1067.219238	7327.176758	2398.398926	21.264996
670.001221	1039.912964	7329.452637	2464.388916	22.648335
670.330933	1064.943726	7402.269043	2505.348389	22.728905
670.660583	971.647400	7361.309570	2373.368164	21.937321
670.990173	967.096313	7334.003418	2532.654541	24.588991
671.319763	985.300537	7190.645508	2425.705078	23.212320
671.649292	1089.974487	7238.431641	2434.807373	21.872688
671.978821	1008.055725	7042.736816	2471.215576	24.245853
672.308289	932.963501	6976.746582	2480.317627	25.602409
672.637695	1055.841675	6812.909180	2414.327637	23.596840
672.966980	1019.433350	7004.053223	2275.520752	20.988590
673.296326	1030.810913	6858.419922	2398.398926	23.467396
673.625610	996.678101	6885.726074	2400.674561	23.840805
673.954773	983.024963	6849.317383	2355.164063	23.390228
674.283936	998.953613	6969.920410	2434.807373	24.047258
674.613037	1030.810913	6883.450195	2309.653564	21.850700
674.942078	989.851563	6960.818359	2371.092773	23.132622
675.271118	1005.780212	6685.479980	2305.102539	22.876602
675.600098	964.820801	6705.959961	2421.154053	25.366625
675.928955	1028.535400	6726.439453	2432.531738	24.640574
676.257813	951.167725	6756.021484	2298.276123	23.206587
676.586670	969.371887	6680.929199	2350.613037	24.183270
676.915466	962.545288	6803.807129	2309.653564	23.061939
677.244141	985.300537	6756.021484	2268.694336	22.239750
677.572876	1085.423462	6815.184570	2284.622803	20.929308
677.901489	1017.157776	6665.000488	2350.613037	23.609993
678.230042	1005.780212	6717.337402	2257.316650	21.912350
678.558594	1012.606750	6603.561523	2409.776611	24.989828
678.887085	1060.392700	6703.684082	2416.603027	24.032257
679.215515	1019.433350	6906.205566	2341.510986	22.458447
679.543945	1124.107300	6944.889648	2396.123291	21.853008
679.872253	1010.331238	6837.939941	2453.011475	24.755955
680.200562	1014.882263	7017.706055	2491.695313	24.601971
680.528809	951.167725	7170.166016	2439.358398	23.929750
680.856995	1005.780212	7265.737793	2509.899414	24.027626
681.185120	1064.943726	7393.166992	2507.624023	22.797558
681.513306	1076.321289	7500.116699	2537.205811	22.741766
681.841309	1049.015137	7208.850098	2484.868652	23.309935
682.169373	1042.188477	7283.941895	2532.654541	23.878963
682.497314	1108.178589	7195.196777	2487.144287	22.654207
682.825134	971.647400	7390.891602	2612.297852	25.558311
683.153076	1023.984375	6965.369141	2505.348389	24.932976
683.480896	967.096313	7042.736816	2409.776611	23.745319
683.808655	994.402588	6922.134277	2473.491211	24.952019
684.136414	985.300537	6851.593262	2311.929199	22.614429
684.464050	1028.535400	6701.408691	2455.286865	25.150421
684.791626	992.127075	6660.449219	2402.949951	24.889603
685.119263	946.616638	6430.621582	2327.857666	25.186720
685.446838	1026.259888	6533.020020	2343.786377	23.925619
685.774292	994.402588	6448.826172	2352.888428	24.906130
686.101685	1014.882263	6346.427734	2305.102539	24.199741
686.429077	998.953613	6407.866699	2373.368164	25.410179
686.756348	978.473938	6168.937012	2343.786377	26.304253
687.083679	1021.708862	6335.049805	2366.541748	25.310495
687.410950	994.402588	6314.570313	2346.062012	25.406330
687.738159	967.096313	6410.142090	2339.235352	25.209030
688.065308	1017.157776	6298.641602	2257.316650	23.481260
688.392395	998.953613	6432.897461	2423.429688	26.214405
688.719421	944.341125	6453.376953	2373.368164	25.939695
689.046448	1001.229126	6278.162109	2336.959961	25.312635
689.373413	983.024963	6412.417480	2405.225586	26.194471
689.700317	989.851563	6319.121094	2323.306641	25.021349
690.027100	1046.739624	6259.957520	2291.449463	23.876038
690.353943	1028.535400	6080.191406	2343.786377	26.036036
690.680725	1067.219238	6178.039063	2302.827148	24.176315
691.007446	996.678101	6030.129883	2261.867676	25.135626
691.334106	960.269775	5961.864258	2355.164063	27.888990
691.660645	1005.780212	5832.159668	2282.347412	26.449789
691.987244	1146.862427	5898.149902	2234.561523	22.892723
692.313721	994.402588	5713.832520	2152.642578	24.541948
692.640259	1030.810913	5563.648438	2136.714111	24.397593
692.966675	1099.076538	5677.424316	2209.530762	24.254477
693.293030	967.096313	5513.586914	2125.336426	25.475475
693.619324	978.473938	5625.087402	2095.754639	24.045055
693.945618	1010.331238	5620.536621	2168.571289	25.123392
694.271851	978.473938	5586.403809	2202.704102	26.567902
694.598083	1003.504700	5497.658203	2152.642578	25.569620
694.924194	1003.504700	5372.504395	2216.357178	27.760418
695.250244	1033.086426	5304.238770	2148.091553	26.105488
695.576294	1049.015137	5356.576172	2138.989502	25.303747
695.902283	1083.147949	5688.802246	2182.224365	23.863632
696.228210	1010.331238	5372.504395	2230.010498	27.960356
696.554138	1026.259888	5556.821777	2154.918213	24.912104
696.879944	1049.015137	5627.362793	2141.265137	23.856861
697.205750	989.851563	5629.638672	2145.816162	24.914173
697.531433	976.198425	5729.761230	2250.489990	26.807081
697.857178	996.678101	5843.537598	2198.153076	24.788733
698.182739	1005.780212	6009.650391	2282.347412	25.511597
698.508423	992.127075	6041.507813	2280.071777	25.506983
698.833984	1012.606750	6410.142090	2439.358398	26.433393
699.159485	1014.882263	6635.418457	2421.154053	25.020243
699.484924	1028.535400	6787.878418	2503.072998	25.602531
699.810303	1012.606750	6942.613770	2503.072998	25.134310
700.135681	989.851563	6958.542480	2512.175049	25.505148
700.460999	1019.433350	6963.093750	2466.664551	24.349157
700.786255	1030.810913	6610.387695	2453.011475	25.489399
701.111450	1001.229126	6451.101563	2555.409912	28.517746
701.436646	1035.361938	6232.651367	2341.510986	25.131350
701.761719	1014.882263	6109.773438	2373.368164	26.663687
702.086792	989.851563	5959.588867	2305.102539	26.465200
702.411865	1105.903076	5809.404785	2282.347412	25.012094
702.736816	1053.566162	5524.964355	2202.704102	25.699743
703.061646	978.473938	5356.576172	2161.744873	27.027031
703.386536	967.096313	5292.861328	2095.754639	26.091530
703.711365	1067.219238	5101.717773	2091.203613	25.380711
704.036194	1003.504700	5158.605469	2168.571289	28.039433
704.360901	1060.392700	5110.819824	2020.662476	23.707865
704.685547	989.851563	4933.329102	2043.417725	26.716677
705.010132	1014.882263	4967.461914	1945.570313	23.546345
705.334717	1030.810913	4815.001953	1966.049927	24.714373
705.659302	960.269775	4883.267578	2118.509766	29.524361
705.983765	1060.392700	4867.338867	2034.315552	25.582785
706.308228	1026.259888	4837.757324	1979.703125	25.014925
706.632568	1019.433350	4867.338867	1991.080688	25.251331
706.956909	1021.708862	4746.736328	1993.356201	26.084301
707.281189	978.473938	4778.593750	1925.090576	24.910179
707.605408	1035.361938	4737.634277	1986.529663	25.691456
707.929626	1033.086426	4780.869141	2013.835938	26.168793
708.253784	1003.504700	4792.246582	2068.448486	28.108112
708.577820	1058.117188	4835.481934	2002.458252	24.999996
708.901855	1058.117188	4830.930664	2029.764526	25.753920
709.225830	1033.086426	4871.890137	1966.049927	24.303495
709.549805	1053.566162	4851.410156	2059.346436	26.482927
709.873718	994.402588	4885.542969	2118.509766	28.888887
710.197510	930.687988	4981.115234	2045.693237	27.528090
710.521362	996.678101	4924.227051	2093.479248	27.925844
710.845093	987.576050	4851.410156	2084.376953	28.386335
711.168701	996.678101	5058.482910	1993.356201	24.537815
711.492432	1026.259888	5083.513672	2075.274902	25.855297
711.816040	1030.810913	5008.421387	2166.295898	28.546913
712.139587	1055.841675	5311.065430	2123.060791	25.080212
712.463074	1003.504700	5235.973145	2164.020264	27.419357
712.786499	1003.504700	5270.105957	2043.417725	24.373337
713.109924	980.749451	5138.125977	2166.295898	28.516695
713.433350	1030.810913	5017.523438	2034.315552	25.171232
713.756592	989.851563	4906.022949	2057.070801	27.251596
714.079834	1085.423462	4919.675781	2063.897461	25.519291
714.403015	1035.361938	4965.186523	2000.182739	24.551243
714.726196	1019.433350	4915.125000	2000.182739	25.175232
715.049255	969.371887	4924.227051	2007.009399	26.237053
715.372375	1049.015137	4883.267578	1961.498901	23.798218
715.695435	1021.708862	4801.349121	1938.743774	24.262493
716.018311	1001.229126	4906.022949	1981.978638	25.116550
716.341248	1014.882263	4801.349121	2041.142212	27.103367
716.664063	957.994263	4749.011719	1959.223389	26.410564
716.987000	1026.259888	4935.604492	1947.845825	23.573923
717.309692	983.024963	4774.042480	1915.988525	24.609846
717.632385	1001.229126	4730.807617	1975.152100	26.113485
717.955078	996.678101	4667.093262	1906.886475	24.798513
718.277649	1117.280762	4637.511230	1877.304688	21.590176
718.600220	1044.463989	4450.918457	1927.366089	25.918505
718.922791	951.167725	4485.051270	1920.539551	27.430780
719.245300	1076.321289	4455.469727	1929.641602	25.252525
719.567688	951.167725	4339.417969	1888.682251	27.669577
719.890015	983.024963	4305.285156	1884.131226	27.123289
720.212341	1062.668213	4255.224121	1925.090576	27.013540
720.534607	1103.627563	4141.447754	1897.784302	26.142321
720.856873	987.576050	4264.326172	1786.283813	24.374998
721.179016	1010.331238	3998.090088	1754.426514	24.904797
721.501160	985.300537	3973.059326	1809.039063	27.570450
721.823242	998.953613	3945.753174	1861.375977	29.266407
722.145264	1035.361938	3941.202148	1827.243164	27.251368
722.467224	969.371887	4114.141602	1658.854614	21.924744
722.789185	996.678101	4059.529053	1745.324463	24.442793
723.111023	946.616638	3959.406250	1711.191650	25.377644
723.432861	1060.392700	3925.273438	1865.927002	28.117550
723.754578	1003.504700	3857.007813	1738.497925	25.757576
724.076294	1003.504700	3834.252441	1711.191650	25.000000
724.397949	973.922913	3877.487549	1790.834839	28.134794
724.719666	983.024963	3793.293213	1763.528564	27.773277
725.041260	1017.157776	3882.038574	1649.752563	22.081015
725.362732	1053.566162	3900.242676	1738.497925	24.060751
725.684265	998.953613	3918.446777	1713.467163	24.473890
726.005676	1035.361938	3866.109863	1765.804199	25.803860
726.327087	967.096313	4016.294189	1722.569214	24.776121
726.648438	1017.157776	3938.926514	1733.946899	24.532711
726.969666	980.749451	4089.110840	1743.048950	24.524160
727.290894	980.749451	3925.273438	1831.794189	28.902626
727.612061	1074.045776	3918.446777	1818.141113	26.160002
727.933228	1028.535400	4048.151611	1777.181763	24.792765
728.254395	1019.433350	4171.029785	1777.181763	24.043320
728.575378	955.718750	4109.590332	1770.355225	25.829729
728.896301	1060.392700	4091.386475	1797.661377	24.324322
729.217285	1014.882263	4082.284424	1763.528564	24.406527
729.538147	998.953613	4175.580566	1799.937012	25.214903
729.858948	1071.770264	4141.447754	1763.528564	22.535212
730.179810	1058.117188	4111.866211	1777.181763	23.546944
730.500549	1021.708862	4168.753906	1772.630737	23.861174
730.821228	969.371887	4125.519043	1859.100464	28.190338
731.141846	1058.117188	4050.427002	1740.773438	22.813688
731.462402	937.514587	4175.580566	1822.692139	27.336613
731.782898	1042.188477	4193.784668	1729.395752	21.805056
732.103455	1058.117188	4200.611328	1733.946899	21.506157
732.423889	1074.045776	4259.774902	1786.283813	22.357145
732.744263	992.127075	4312.111816	1845.447388	25.702536
733.064636	960.269775	4177.855957	1870.478149	28.288548
733.384888	987.576050	4239.295410	1902.335449	28.131561
733.705200	980.749451	4321.213867	1865.927002	26.498638
734.025330	1078.596802	4241.570801	1834.069824	23.884893
734.345520	1105.903076	4216.540039	1868.202637	24.506220
734.665527	1039.912964	4252.948242	1727.120239	21.388103
734.985596	1021.708862	4111.866211	1897.784302	28.350513
735.305542	1076.321289	4086.835449	1809.039063	24.338625
735.625549	1035.361938	3968.508301	1790.834839	25.756399
735.945435	1026.259888	3907.069336	1738.497925	24.723537
736.265259	1153.689087	3948.028564	1692.987427	19.299673
736.585083	1017.157776	3973.059326	1820.416626	27.174749
736.904785	1069.494751	3761.435791	1779.457275	26.373629
737.224426	1105.903076	3829.701416	1790.834839	25.146200
737.544128	1039.912964	3759.160400	1636.099487	21.924686
737.863708	1005.780212	3868.385254	1670.232300	23.211449
738.183289	1035.361938	3706.823486	1683.885376	24.275980
738.502808	1012.606750	3897.967041	1713.467163	24.290222
738.822205	1017.157776	3772.813477	1724.844727	25.681253
739.141541	1010.331238	3811.497314	1790.834839	27.863525
739.460938	1033.086426	3902.518066	1777.181763	25.931803
739.780212	985.300537	4043.600586	1797.661377	26.562496
740.099426	992.127075	3970.783691	1754.426514	25.592054
740.418640	1017.157776	3952.579590	1793.110352	26.434107
740.737793	1003.504700	3927.548828	1772.630737	26.303503
741.056885	1003.504700	3838.803711	1779.457275	27.367575
741.375977	987.576050	3752.333740	1722.569214	26.584360
741.694946	1030.810913	3779.640137	1724.844727	25.248344
742.013855	1037.637451	3804.670898	1647.477051	22.039473
742.332703	1046.739624	3677.241699	1738.497925	26.297579
742.651550	957.994263	3618.078125	1713.467163	28.400341
742.970398	919.310425	3752.333740	1654.303589	25.943773
743.289124	1019.433350	3556.638916	1683.885376	26.188341
743.607788	957.994263	3704.547852	1722.569214	27.837612
743.926453	1026.259888	3479.271240	1645.201538	25.231913
744.245056	1049.015137	3699.996826	1642.926025	22.403433
744.563599	1026.259888	3536.159424	1622.446289	23.753399
744.882141	1033.086426	3486.097900	1592.864502	22.820034
745.200500	1023.984375	3486.097900	1645.201538	25.231052
745.518860	1069.494751	3426.934326	1768.079712	29.633209
745.837219	1019.433350	3565.741211	1681.609863	26.005360
746.155518	1010.331238	3436.036377	1695.262939	28.236397
746.473755	1008.055725	3395.077148	1624.721802	25.834124
746.791992	1028.535400	3476.995850	1615.619751	23.977694
747.110107	1049.015137	3424.658691	1656.579102	25.574711
747.428162	1005.780212	3413.281250	1677.058838	27.882797
747.746216	964.820801	3463.342773	1674.783325	28.415300
748.064148	951.167725	3267.647949	1595.140137	27.799608
748.382080	978.473938	3486.097900	1604.242188	24.954628
748.700073	992.127075	3340.464600	1654.303589	28.197674
749.017822	976.198425	3429.209961	1647.477051	27.365490
749.335632	987.576050	3306.331787	1652.028076	28.655540
749.653320	987.576050	3447.414063	1747.599976	30.897318
749.971008	1017.157776	3465.618164	1638.375000	25.371748
750.288696	985.300537	3467.893799	1606.517700	25.022913
750.606262	1019.433350	3317.709229	1658.854614	27.821781
750.923828	983.024963	3335.913574	1590.588989	25.822048
751.241272	1039.912964	3431.485352	1617.895264	24.167461
751.558716	1005.780212	3379.148438	1638.375000	26.653883
751.876038	1005.780212	3249.443604	1581.486938	25.659229
752.193481	1023.984375	3258.545898	1670.232300	28.920570
752.510681	1019.433350	3247.168213	1636.099487	27.681307
752.827942	1055.841675	3181.177979	1579.211426	24.625267
753.145081	983.024963	3445.138428	1647.477051	26.987061
753.462219	1012.606750	3310.882813	1542.803101	23.069305
753.779297	996.678101	3360.944336	1581.486938	24.735323
754.096375	1033.086426	3397.352539	1642.926025	25.794033
754.413330	1053.566162	3267.647949	1667.956787	27.749229
754.730286	1026.259888	3292.678711	1579.211426	24.397587
755.047119	1037.637451	3222.137451	1656.579102	28.333332
755.363892	971.647400	3345.015625	1611.068726	26.941515
755.680725	1074.045776	3324.535889	1561.007324	21.638021
755.997498	1101.352051	3331.362549	1558.731689	20.510201
756.314148	1017.157776	3233.515137	1636.099487	27.926079
756.630737	1058.117188	3244.892578	1617.895264	25.598335
756.947327	980.749451	3197.106689	1606.517700	28.234089
757.263855	953.443237	3190.280273	1592.864502	28.585958
757.580261	1060.392700	3315.433838	1638.375000	25.630678
757.896729	1028.535400	3226.688477	1617.895264	26.811594
758.213074	1037.637451	3390.525879	1529.150024	20.889753
758.529419	1030.810913	3319.984863	1711.191650	29.721672
758.845642	994.402588	3304.056152	1667.956787	29.162563
759.161865	1003.504700	3306.331787	1688.436401	29.743078
759.478149	1089.974487	3356.393066	1642.926025	24.397593
759.794189	1039.912964	3370.046387	1640.650513	25.781252
760.110229	964.820801	3422.383301	1647.477051	27.777779
760.426270	992.127075	3397.352539	1647.477051	27.246923
760.742249	1067.219238	3319.984863	1620.170776	24.545454
761.058105	994.402588	3265.372314	1561.007324	24.949903
761.374023	1064.943726	3367.770752	1727.120239	28.754938
761.689819	1023.984375	3372.321777	1670.232300	27.519381
762.005554	1078.596802	3208.484375	1663.405762	27.457268
762.321289	1051.290649	3406.454590	1654.303589	25.603861
762.636902	1026.259888	3472.444824	1677.058838	26.604649
762.952515	1028.535400	3531.608398	1715.742676	27.454544
763.268127	980.749451	3527.057129	1597.415649	24.218056
763.583618	1035.361938	3563.465576	1788.559326	29.792980
763.899048	978.473938	4007.192139	1799.937012	27.122465
764.214478	1039.912964	4339.417969	1856.824951	24.758623
764.529785	973.922913	4603.378418	1968.325439	27.398119
764.845093	976.198425	4842.308105	2002.458252	26.545025
765.160400	1051.290649	4746.736328	2011.560425	25.985222
765.475586	1060.392700	4612.480469	2045.693237	27.738630
765.790771	1037.637451	4480.500488	2000.182739	27.957699
766.105835	985.300537	4211.988770	1895.508789	28.208744
766.420837	989.851563	4061.804688	1795.385864	26.222219
766.735840	1010.331238	3938.926514	1809.039063	27.272728
767.050842	1026.259888	3659.037354	1711.191650	26.015560
767.365662	1044.463989	3583.945313	1690.711914	25.448027
767.680542	917.034912	3577.118652	1702.089600	29.512405
767.995300	989.851563	3499.750977	1831.794189	33.544876
768.309998	1026.259888	3451.965088	1720.293701	28.611631
768.624817	1019.433350	3395.077148	1606.517700	24.712643
768.939392	985.300537	3390.525879	1636.099487	27.057713
769.254028	1035.361938	3137.943115	1633.823975	28.463209
769.568481	1019.433350	3301.780762	1558.731689	23.629108
769.882935	1067.219238	3185.729004	1586.037964	24.489796
770.197388	1053.566162	3199.382324	1631.548462	26.935312
770.511841	1074.045776	3194.831299	1611.068726	25.321888
770.826172	1039.912964	3137.943115	1652.028076	29.175705
771.140442	1005.780212	3140.218750	1604.242188	28.038380
771.454651	967.096313	3015.064941	1617.895264	31.777779
771.768860	1064.943726	3046.922363	1517.772339	22.847300
772.082886	1026.259888	2960.452637	1567.833862	28.000000
772.397034	980.749451	3078.779541	1638.375000	31.344906
772.711060	928.412476	2983.207764	1524.598877	29.014393
773.025024	987.576050	2928.595215	1699.814087	36.694023
773.338928	1035.361938	3090.157227	1579.211426	26.467331
773.652771	1023.984375	3017.340576	1549.629639	26.369862
773.966614	1076.321289	2894.462402	1579.211426	27.659576
774.280457	1044.463989	2771.584229	1540.527588	28.722008
774.594116	1014.882263	2969.554688	1474.537476	23.515717
774.907776	1026.259888	2873.982666	1520.047852	26.724136
775.221375	996.678101	2885.360352	1597.415649	31.807232
775.534912	985.300537	2810.268311	1504.119263	28.428925
775.848450	1058.117188	2762.482178	1554.180664	29.105473
776.161926	983.024963	2757.931152	1592.864502	34.358971
776.475342	1051.290649	2842.125488	1490.466064	24.523502
776.788696	1051.290649	2867.156250	1449.506714	21.929821
777.101990	1039.912964	2885.360352	1467.710938	23.181261
777.415283	971.647400	2696.492188	1540.527588	32.981529
777.728516	994.402588	2755.655762	1479.088501	27.519377
778.041626	1035.361938	2753.380127	1465.435425	25.033115
778.354736	1001.229126	2696.492188	1460.884399	27.114098
778.667725	1046.739624	2682.839111	1424.476074	23.087622
778.980774	1019.433350	2646.430664	1381.241089	22.237759
779.293640	1023.984375	2732.900391	1444.955688	24.633821
779.606567	1005.780212	2671.461426	1469.986450	27.868853
779.919434	928.412476	2737.451416	1467.710938	29.811323
780.232239	1014.882263	2696.492188	1513.221313	29.634642
780.544983	1026.259888	2732.900391	1463.159912	25.600004
780.857666	1039.912964	2662.359375	1408.547363	22.720898
781.170227	1035.361938	2687.390137	1506.394775	28.512398
781.482849	980.749451	2614.573486	1358.485962	23.119780
781.795410	1039.912964	2719.247314	1460.884399	25.067757
782.107910	1071.770264	2691.941162	1449.506714	23.314606
782.420288	1067.219238	2703.318604	1372.139038	18.636997
782.732666	1019.433350	2757.931152	1413.098389	22.643976
783.044983	1044.463989	2548.583252	1465.435425	27.987904
783.357300	962.545288	2632.777588	1463.159912	29.972754
783.669495	980.749451	2653.257324	1344.832764	21.768705
783.981689	964.820801	2655.532715	1372.139038	24.091522
784.293762	1008.055725	2594.093750	1394.894287	24.390244
784.605835	1067.219238	2550.858887	1435.853638	24.846626
784.917908	944.341125	2484.868652	1388.067749	28.803549
785.229858	1076.321289	2534.930176	1385.792114	21.216848
785.541748	969.371887	2405.225586	1388.067749	29.160063
785.853577	1037.637451	2484.868652	1399.445313	25.000004
786.165405	1010.331238	2448.460449	1390.343262	26.424053
786.477173	1001.229126	2507.624023	1342.557251	22.658609
786.788879	1060.392700	2425.705078	1422.200562	26.500006
787.100525	1003.504700	2437.082764	1417.649414	28.888884
787.412109	1112.729614	2471.215576	1388.067749	20.268015
787.723694	1001.229126	2462.113525	1506.394775	34.579441
788.035156	1067.219238	2478.042236	1435.853638	26.129032
788.346558	1005.780212	2466.664551	1374.414551	25.233644
788.658081	1023.984375	2632.777588	1349.383789	20.226305
788.969360	1069.494751	2623.675537	1388.067749	20.497808
789.280640	1026.259888	2748.829102	1524.598877	28.929983
789.591919	1033.086426	2739.727051	1488.190552	26.666664
789.903076	1033.086426	2753.380127	1524.598877	28.571426
790.214172	1012.606750	2753.380127	1506.394775	28.366013
790.525269	1019.433350	2607.746826	1415.373901	24.928364
790.836365	948.892151	2607.746826	1372.139038	25.514402
791.147339	1067.219238	2534.930176	1408.547363	23.255814
791.458191	998.953613	2498.521729	1356.210449	23.823982
791.769104	1076.321289	2489.419678	1342.557251	18.840582
792.079895	1001.229126	2466.664551	1406.271851	27.639753
792.390686	1033.086426	2336.959961	1431.302612	30.541014
792.701416	1074.045776	2382.470215	1419.924927	26.434782
793.012085	1026.259888	2352.888428	1328.904175	22.813040
793.322693	1035.361938	2393.847900	1426.751587	28.810724
793.633240	1033.086426	2373.368164	1415.373901	28.522919
793.943787	1014.882263	2373.368164	1415.373901	29.480738
794.254272	1078.596802	2366.541748	1347.108276	20.848055
794.564636	1042.188477	2307.378174	1331.179688	22.841730
794.875000	1051.290649	2332.408936	1312.975464	20.426281
795.185303	1017.157776	2318.755615	1390.343262	28.671335
795.495544	983.024963	2389.296875	1324.353149	24.271847
795.805786	1001.229126	2332.408936	1344.832764	25.811962
796.115906	1053.566162	2393.847900	1390.343262	25.127337
796.426025	971.647400	2446.184814	1390.343262	28.395067
796.736023	955.718750	2393.847900	1335.730713	26.424049
797.045959	1003.504700	2478.042236	1490.466064	33.024681
797.355896	1037.637451	2455.286865	1474.537476	30.818623
797.665833	1028.535400	2498.521729	1451.782227	28.792568
797.975708	1039.912964	2441.633789	1388.067749	24.837669
798.285461	983.024963	2409.776611	1413.098389	30.143538
798.595154	978.473938	2321.031250	1392.618774	30.847460
798.904846	996.678101	2393.847900	1349.383789	25.244297
799.214478	983.024963	2446.184814	1429.027100	30.482119
799.524109	1001.229126	2309.653564	1322.077637	24.521746
799.833557	973.922913	2293.724854	1290.220337	23.965521
800.143005	1055.841675	2409.776611	1312.975464	18.991590
800.452393	1003.504700	2227.734863	1369.863525	29.925648
800.761780	1021.708862	2257.316650	1374.414551	28.545116
801.071106	1023.984375	2252.765625	1415.373901	31.851847
801.380371	1005.780212	2204.979736	1385.792114	31.688799
801.689575	1019.433350	2200.428711	1383.516602	30.828508
801.998718	1014.882263	2252.765625	1301.597900	23.161766
802.307800	1019.433350	2257.316650	1312.975464	23.713230
802.616882	1055.841675	2075.274902	1317.526489	25.669638
802.925903	960.269775	2293.724854	1299.322388	25.426624
803.234863	1055.841675	2204.979736	1317.526489	22.772270
803.543701	1005.780212	2173.122314	1326.628662	27.485384
803.852539	1035.361938	2161.744873	1301.597900	23.636364
804.161316	1049.015137	2152.642578	1360.761475	28.247425
804.470032	967.096313	2043.417725	1276.567139	28.752640
804.778809	989.851563	2175.397949	1306.148926	26.679459
805.087341	1069.494751	2179.948975	1228.781250	14.344265
805.395935	1087.698975	2145.816162	1378.965576	27.526876
805.704468	1019.433350	2150.367188	1253.812012	20.724348
806.012939	1035.361938	2241.387939	1349.383789	26.037735
806.321350	1064.943726	2309.653564	1397.169800	26.691046
806.629761	1055.841675	2216.357178	1292.495850	20.392160
806.938049	1028.535400	2225.459229	1301.597900	22.813690
807.246277	996.678101	2234.561523	1397.169800	32.352940
807.554504	1046.739624	2318.755615	1333.455200	22.540249
807.862671	1010.331238	2170.846924	1401.720825	33.725491
808.170715	1010.331238	2298.276123	1326.628662	24.558306
808.478821	1035.361938	2264.143311	1274.291626	19.444443
808.786804	1001.229126	2259.592041	1312.975464	24.773960
809.094727	980.749451	2193.602051	1356.210449	30.956854
809.402649	1001.229126	2202.704102	1303.873413	25.189396
809.710510	1039.912964	2068.448486	1347.108276	29.867254
810.018311	1055.841675	2198.153076	1322.077637	23.306776
810.326050	1030.810913	2077.550537	1326.628662	28.260872
810.633667	1021.708862	2079.825928	1367.588013	32.688175
810.941345	983.024963	2134.438477	1283.393677	26.086952
811.248901	957.994263	2164.020264	1312.975464	29.433960
811.556396	994.402588	2138.989502	1276.567139	24.652086
811.863892	1005.780212	2025.213501	1246.985352	23.660709
812.171326	1042.188477	2013.835938	1315.250977	28.103043
812.478699	980.749451	2020.662476	1256.087524	26.477028
812.786011	1003.504700	2000.182739	1253.812012	25.114159
813.093262	1046.739624	2045.693237	1310.699951	26.423681
813.400391	1003.504700	1984.254150	1183.270874	18.329470
813.707642	1001.229126	1995.631714	1287.944824	28.832960
814.014709	923.861450	1966.049927	1231.056763	29.475985
814.321716	1046.739624	2007.009399	1308.424438	27.251177
814.628723	1037.637451	2059.346436	1338.006226	29.398663
814.935669	1010.331238	1988.805176	1269.740601	26.511627
815.242554	1046.739624	1972.876587	1274.291626	24.570017
815.549438	1028.535400	1918.264038	1265.189575	26.598467
815.856201	1074.045776	2013.835938	1281.118164	22.033895
816.162964	1010.331238	2002.458252	1233.332275	22.477066
816.469604	1023.984375	1902.335449	1340.281738	36.010357
816.776184	969.371887	2029.764526	1328.904175	33.905582
817.082825	998.953613	2143.540527	1290.220337	25.447323
817.389343	1053.566162	2029.764526	1308.424438	26.107222
817.695801	1033.086426	2032.040039	1210.577026	17.767653
818.002197	987.576050	2072.999512	1242.434326	23.480078
818.308533	1062.668213	2047.968750	1331.179688	27.251734
818.614868	1010.331238	2027.489014	1267.465088	25.279642
818.921143	1010.331238	2088.927979	1372.139038	33.544308
819.227356	1023.984375	2009.284912	1297.046875	27.713625
819.533447	962.545288	2136.714111	1315.250977	30.038754
819.839539	1003.504700	2111.683350	1272.016113	24.229975
820.145569	989.851563	2211.806152	1347.108276	29.236496
820.451538	1096.801025	2282.347412	1372.139038	23.224567
820.757568	1033.086426	2525.828125	1342.557251	20.731707
821.063416	1012.606750	2559.960938	1424.476074	26.617649
821.369263	1021.708862	2685.114502	1510.945801	29.411764
821.675049	969.371887	2726.073975	1492.741699	29.792746
821.980713	983.024963	2899.013428	1531.425537	28.622332
822.286438	996.678101	3147.045166	1667.956787	31.216932
822.592102	1019.433350	3998.090088	1890.957764	29.258974
822.897583	1001.229126	5727.485840	2357.439453	28.695230
823.203125	948.892151	8037.139648	2978.656738	28.635633
823.508545	989.851563	9859.832031	3542.985840	28.783989
823.813965	1035.361938	10299.006836	3593.047363	27.609928
824.119263	994.402588	9279.574219	3331.362549	28.206535
824.424622	992.127075	8003.006836	2960.452637	28.075300
824.729858	994.402588	6696.857910	2689.665527	29.728651
825.035095	1030.810913	5934.558105	2302.827148	25.939678
825.340149	1010.331238	5281.483887	2259.592041	29.248795
825.645264	1042.188477	4799.073242	2072.999512	27.437920
825.950256	1019.433350	4325.765137	1931.917114	27.598070
826.255310	1030.810913	4004.916504	1811.314575	26.243309
826.560242	1044.463989	3913.895752	1818.141113	26.962730
826.865112	983.024963	3613.527100	1758.977539	29.498268
827.169922	1019.433350	3413.281250	1711.191650	28.897337
827.474670	1026.259888	3725.027588	1809.039063	29.005060
827.779419	1062.668213	4011.743164	1904.610962	28.549385
828.084045	1049.015137	4632.960449	2047.968750	27.873014
828.388672	1026.259888	4844.583984	2138.989502	29.141832
828.693176	1051.290649	4969.737305	2100.305664	26.771194
828.997681	939.790100	4291.632324	1843.171875	26.951797
829.302124	1067.219238	3982.161377	1886.406738	28.103045
829.606567	983.024963	3506.577637	1713.467163	28.944994
829.910828	1028.535400	3188.004639	1551.905151	24.236036
830.215149	1019.433350	3085.606201	1581.486938	27.202641
830.519348	1101.352051	2908.115479	1604.242188	27.833757
830.823547	967.096313	2650.981689	1513.221313	32.432434
831.127686	1010.331238	2541.756836	1469.986450	30.014858
831.431763	978.473938	2293.724854	1419.924927	33.564011
831.735779	1053.566162	2268.694336	1399.445313	28.464417
832.039734	1021.708862	2223.183838	1328.904175	25.568182
832.343628	1044.463989	2132.163086	1351.659302	28.242674
832.647461	969.371887	2173.122314	1358.485962	32.325142
832.951233	923.861450	2164.020264	1333.455200	33.027523
833.255127	1039.912964	2145.816162	1394.894287	32.098770
833.558777	1030.810913	2280.071777	1429.027100	31.876144
833.862366	1042.188477	2352.888428	1328.904175	21.875006
834.165955	1035.361938	2635.052979	1435.853638	25.035566
834.469482	996.678101	2962.728027	1588.313477	30.092592
834.773010	1026.259888	3233.515137	1620.170776	26.907213
835.076416	996.678101	3613.527100	1706.640625	27.130434
835.379822	1074.045776	3529.332764	1711.191650	25.949953
835.683105	1064.943726	3285.852051	1672.507813	27.356560
835.986389	1046.739624	2980.932129	1633.823975	30.352943
836.289612	1001.229126	2757.931152	1492.741699	27.979280
836.592773	964.820801	2710.145264	1522.323364	31.942631
836.895874	1042.188477	2516.726074	1504.119263	31.327162
837.198914	969.371887	2346.062012	1347.108276	27.438009
837.501892	1033.086426	2309.653564	1376.690063	26.916222
837.804871	1076.321289	2132.163086	1312.975464	22.413792
838.107666	1051.290649	2141.265137	1294.771362	22.338203
838.410583	1053.566162	1993.356201	1262.914063	22.276030
838.713379	973.922913	1920.539551	1276.567139	31.971149
839.016052	1039.912964	1877.304688	1258.363037	26.086964
839.318787	969.371887	1927.366089	1235.607788	27.790972
839.621338	1014.882263	1863.651489	1278.842651	31.099194
839.923889	978.473938	1745.324463	1212.852539	30.563791
840.226440	1010.331238	1788.559326	1208.301514	25.438593
840.528931	989.851563	1854.549438	1378.965576	44.999996
840.831299	1017.157776	1968.325439	1237.883301	23.205744
841.133606	1039.912964	2082.101563	1310.699951	25.982533
841.435913	1058.117188	2104.856689	1276.567139	20.869562
841.738220	1055.841675	2077.550537	1265.189575	20.489977
842.040405	1037.637451	1966.049927	1301.597900	28.431377
842.342529	1058.117188	1909.161987	1208.301514	17.647053
842.644592	998.953613	1806.763550	1312.975464	38.873234
842.946594	1014.882263	1809.039063	1272.016113	32.378223
843.248596	994.402588	1811.314575	1217.403687	27.298058
843.550598	973.922913	1818.141113	1221.954712	29.380058
843.852478	1069.494751	1738.497925	1283.393677	31.972782
844.154236	1039.912964	1681.609863	1224.230225	28.723415
844.455994	1012.606750	1704.365112	1201.474976	27.302629
844.757690	996.678101	1622.446289	1187.821899	30.545464
845.059326	1019.433350	1538.252075	1224.230225	39.473686
845.360962	1028.535400	1581.486938	1096.801025	12.345679
845.662476	998.953613	1663.405762	1112.729614	17.123280
845.963989	1080.872437	1492.741699	1190.097412	26.519331
846.265381	1049.015137	1472.261963	1203.750488	36.559128
846.566772	1005.780212	1460.884399	1115.005249	24.000008
846.868042	1033.086426	1572.384888	1190.097412	29.113932
847.169373	1051.290649	1526.874512	1210.577026	33.492805
847.470581	1014.882263	1572.384888	1194.648438	32.244904
847.771729	1049.015137	1538.252075	1101.352051	10.697662
848.072815	969.371887	1492.741699	1183.270874	40.869568
848.373901	1001.229126	1522.323364	1144.586914	27.510914
848.674866	1064.943726	1419.924927	1196.923950	37.179497
848.975891	998.953613	1488.190552	1165.066650	33.953495
849.276794	937.514587	1463.159912	1130.933838	36.796532
849.577637	1105.903076	1479.088501	1160.515625	14.634159
849.878357	1008.055725	1481.364014	1137.760376	27.403841
850.179077	1001.229126	1442.680176	1089.974487	20.103104
850.479736	978.473938	1510.945801	1128.658325	28.205132
850.780396	978.473938	1472.261963	1115.005249	27.649782
851.080994	1046.739624	1426.751587	1171.893188	32.934113
851.381470	1005.780212	1422.200562	1115.005249	26.229515
851.681946	992.127075	1488.190552	1126.382813	27.064226
851.982361	1028.535400	1438.129150	1206.026001	43.333328
852.282715	1005.780212	1429.027100	1201.474976	46.236549
852.583008	998.953613	1520.047852	1217.403687	41.921413
852.883240	1037.637451	1515.496826	1121.831787	17.619061
853.183411	985.300537	1474.537476	1092.250000	21.860464
853.483521	1008.055725	1422.200562	1105.903076	23.626360
853.783630	985.300537	1360.761475	1126.382813	37.575752
854.083679	1033.086426	1360.761475	1133.209351	30.555553
854.383667	1069.494751	1504.119263	1087.698975	4.188495
854.683533	1028.535400	1449.506714	1064.943726	8.648647
854.983337	989.851563	1415.373901	1142.311401	35.828869
855.283203	985.300537	1397.169800	1092.250000	25.966846
855.582886	1001.229126	1419.924927	1160.515625	38.043491
855.882629	1028.535400	1392.618774	1115.005249	23.750013
856.182312	989.851563	1360.761475	1105.903076	31.288328
856.481873	964.820801	1317.526489	1128.658325	46.451626
856.781372	1021.708862	1363.036987	1094.525513	21.333328
857.080872	1005.780212	1429.027100	1194.648438	44.623653
857.380310	1060.392700	1449.506714	1119.556274	15.204689
857.679688	987.576050	1397.169800	1128.658325	34.444439
857.979004	1039.912964	1426.751587	1085.423462	11.764725
858.278259	1023.984375	1388.067749	1028.535400	1.249995
858.577454	1055.841675	1472.261963	1110.454102	13.114738
858.876648	973.922913	1431.302612	1133.209351	34.825867
859.175720	1099.076538	1369.863525	1083.147949	-5.882332
859.474792	1030.810913	1474.537476	1078.596802	10.769219
859.773743	1001.229126	1442.680176	1085.423462	19.072180
860.072693	1030.810913	1388.067749	1142.311401	31.210176
860.371521	935.239075	1438.129150	1149.138062	42.533943
860.670349	1053.566162	1449.506714	1151.413574	24.712652
860.969116	1058.117188	1415.373901	1069.494751	3.184702
861.267883	1033.086426	1429.027100	1026.259888	-1.724132
861.566589	1014.882263	1403.996338	1080.872437	16.959082
861.865112	1046.739624	1442.680176	1130.933838	21.264357
862.163635	1008.055725	1358.485962	1076.321289	19.480501
862.462158	1046.739624	1401.720825	1105.903076	16.666643
862.760620	1023.984375	1349.383789	1064.943726	12.587408
863.059021	1010.331238	1378.965576	1119.556274	29.629642
863.357361	996.678101	1422.200562	1119.556274	28.877012
863.655640	1076.321289	1440.404663	1171.893188	26.250004
863.953857	1005.780212	1367.588013	1087.698975	22.641514
864.251953	987.576050	1397.169800	1087.698975	24.444447
864.550110	1135.484863	1401.720825	1067.219238	-25.641024
864.848206	1069.494751	1440.404663	1062.668213	-1.840484
865.146179	989.851563	1390.343262	1067.219238	19.318172
865.444092	1030.810913	1385.792114	1096.801025	18.589748
865.741943	1042.188477	1442.680176	1149.138062	26.704569
866.039795	998.953613	1433.578125	1115.005249	26.701586
866.337646	1046.739624	1390.343262	1128.658325	23.841045
866.635376	985.300537	1429.027100	1121.831787	30.769230
866.933044	1094.525513	1413.098389	1130.933838	11.428571
867.230652	1046.739624	1456.333252	1062.668213	3.888876
867.528198	1033.086426	1390.343262	1112.729614	22.292978
867.825745	960.269775	1474.537476	1126.382813	32.300888
868.123230	980.749451	1378.965576	1080.872437	25.142876
868.420593	1053.566162	1419.924927	1055.841675	0.621116
868.717896	1017.157776	1376.690063	1074.045776	15.822780
869.015198	1019.433350	1319.802124	1078.596802	19.696938
869.312439	1014.882263	1413.098389	1110.454102	23.999992
869.609619	1037.637451	1281.118164	1137.760376	41.121502
869.906738	985.300537	1456.333252	1030.810913	9.661829
870.203796	939.790100	1349.383789	1080.872437	34.444462
870.500854	987.576050	1406.271851	1044.463989	13.586938
870.797791	1058.117188	1363.036987	1121.831787	20.895527
871.094666	996.678101	1415.373901	1058.117188	14.673920
871.391602	1008.055725	1340.281738	1067.219238	17.808212
871.688293	1042.188477	1449.506714	1094.525513	12.849175
871.985107	992.127075	1360.761475	1108.178589	31.481466
872.281738	1001.229126	1429.027100	1149.138062	34.574482
872.578369	1042.188477	1376.690063	1121.831787	23.809546
872.874939	1017.157776	1356.210449	1103.627563	25.503349
873.171509	1030.810913	1394.894287	1096.801025	18.125000
873.467957	1023.984375	1429.027100	1153.689087	32.022476
873.764343	944.341125	1381.241089	1105.903076	36.979164
874.060669	1019.433350	1385.792114	1083.147949	17.391314
874.356995	1008.055725	1369.863525	1146.862427	38.364761
874.653198	1053.566162	1358.485962	1117.280762	20.895527
874.949463	1005.780212	1481.364014	1137.760376	27.751190
875.245544	1055.841675	1424.476074	1064.943726	2.469127
875.541626	1001.229126	1401.720825	1055.841675	13.636374
875.837646	1055.841675	1401.720825	1087.698975	9.210529
876.133606	1021.708862	1401.720825	1112.729614	23.952076
876.429565	1019.433350	1401.720825	1071.770264	13.690460
876.725403	1069.494751	1401.720825	1105.903076	10.958900
877.021179	1046.739624	1369.863525	1101.352051	16.901388
877.316956	1030.810913	1390.343262	1051.290649	5.696215
877.612610	1062.668213	1381.241089	1121.831787	18.571442
877.908203	1108.178589	1363.036987	1144.586914	14.285707
878.203857	1014.882263	1374.414551	1039.912964	6.962018
878.499390	1005.780212	1417.649414	1151.413574	35.359127
878.794800	1003.504700	1401.720825	1117.280762	28.571436
879.090271	1014.882263	1390.343262	1158.240112	38.181820
879.385559	1017.157776	1474.537476	1105.903076	19.402983
879.680847	923.861450	1422.200562	1099.076538	35.159809
879.976196	1035.361938	1451.782227	1217.403687	43.715870
880.271301	1001.229126	1520.047852	1117.280762	22.368437
880.566467	1017.157776	1572.384888	1142.311401	22.540979
880.861572	1046.739624	1658.854614	1149.138062	16.728628
881.156555	1028.535400	1802.212524	1258.363037	29.705885
881.451477	1062.668213	2072.999512	1278.842651	21.396391
881.746460	1030.810913	2596.369141	1413.098389	24.418604
882.041321	998.953613	3365.495361	1663.405762	28.076925
882.336121	1010.331238	4086.835449	1820.416626	26.331360
882.630798	971.647400	4460.020996	2027.489014	30.267445
882.925537	1030.810913	4496.429199	2018.386963	28.496389
883.220215	985.300537	4305.285156	1900.059814	27.553118
883.514771	1026.259888	3970.783691	1838.620850	27.588873
883.809326	1005.780212	3718.200928	1731.671387	26.761747
884.103760	1021.708862	3324.535889	1633.823975	26.581028
884.398132	1037.637451	3149.320801	1624.721802	27.801723
884.692505	1087.698975	2987.758789	1533.701050	23.473055
884.986816	983.024963	2842.125488	1510.945801	28.396572
885.281067	967.096313	2676.012451	1413.098389	26.098536
885.575256	978.473938	2421.154053	1415.373901	30.283911
885.869385	1060.392700	2350.613037	1383.516602	25.044086
886.163452	1058.117188	2198.153076	1328.904175	23.752497
886.457458	1021.708862	1977.427612	1276.567139	26.666660
886.751465	994.402588	1772.630737	1228.781250	30.116961
887.045410	1062.668213	1706.640625	1171.893188	16.961126
887.339233	1110.454102	1756.702026	1162.791138	8.098600
887.632996	1071.770264	1656.579102	1199.199463	21.789890
887.926758	1037.637451	1601.966675	1149.138062	19.758078
888.220398	1026.259888	1608.793213	1110.454102	14.453115
888.514099	1067.219238	1520.047852	1130.933838	14.070356
888.807678	1099.076538	1526.874512	1137.760376	9.042548
889.101196	987.576050	1535.976563	1142.311401	28.215755
889.394653	1012.606750	1413.098389	1178.719727	41.477264
889.688049	1003.504700	1510.945801	1142.311401	27.354248
889.981384	1021.708862	1442.680176	1101.352051	18.918911
890.274719	996.678101	1460.884399	1099.076538	22.058821
890.567932	1014.882263	1385.792114	1169.617676	41.717796
>>>>>End Processed Spectral Data<<<<<
