Jaz Data File
++++++++++++++++++++++++++++++++++++
Date: Wed Feb 07 06:51:20 2024
User: jaz
Dark Spectrum Present: Yes
Reference Spectrum Present: Yes
Processed Spectrum Present: Yes
Spectrometers: JAZA3692
Integration Time (usec): 42900 (JAZA3692)
Spectra Averaged: 1 (JAZA3692)
Boxcar Smoothing: 0 (JAZA3692)
Correct for Electrical Dark: No (JAZA3692)
Strobe/Lamp Enabled: Yes (JAZA3692)
Correct for Detector Non-linearity: No (JAZA3692)
Correct for Stray Light: No (JAZA3692)
Number of Pixels in Processed Spectrum: 2048
>>>>>Begin Processed Spectral Data<<<<<
W	D	R	S	P
190.244385	0.000000	0.000000	0.000000	0.000000
190.627136	0.000000	0.000000	0.000000	0.000000
191.009842	907.932800	948.892151	944.341125	88.888924
191.392532	985.300537	1028.535400	921.585938	-147.368576
191.775177	917.034912	967.096313	985.300537	136.363785
192.157791	989.851563	903.381775	978.473938	13.157919
192.540390	992.127075	917.034912	971.647400	27.272720
192.922943	905.657288	1001.229126	946.616638	42.857132
193.305481	1003.504700	1035.361938	946.616638	-178.571854
193.687958	1010.331238	1023.984375	953.443237	-416.666138
194.070419	948.892151	1019.433350	983.024963	48.387062
194.452866	1064.943726	928.412476	998.953613	48.333340
194.835251	1030.810913	1012.606750	985.300537	249.999832
195.217621	1008.055725	976.198425	1051.290649	-135.714340
195.599960	1039.912964	1003.504700	953.443237	237.500275
195.982254	1080.872437	976.198425	1042.188477	36.956604
196.364517	1033.086426	971.647400	978.473938	88.888924
196.746750	962.545288	1003.504700	1001.229126	94.444321
197.128952	1014.882263	994.402588	1010.331238	22.222157
197.511139	1067.219238	1001.229126	960.269775	162.068924
197.893280	992.127075	1010.331238	942.065613	-275.000092
198.275391	998.953613	935.239075	1014.882263	-25.000025
198.657471	1001.229126	1003.504700	1030.810913	1299.970459
199.039520	1049.015137	967.096313	971.647400	94.444397
199.421539	948.892151	1037.637451	957.994263	10.256444
199.803513	967.096313	973.922913	1023.984375	833.329468
200.185471	1001.229126	948.892151	1017.157776	-30.434793
200.567383	1010.331238	1010.331238	1001.229126	0.000000
200.949265	989.851563	989.851563	992.127075	0.000000
201.331131	930.687988	1044.463989	1071.770264	124.000031
201.712967	946.616638	1037.637451	989.851563	47.500042
202.094742	976.198425	1030.810913	1046.739624	129.166794
202.476517	980.749451	1026.259888	1039.912964	129.999878
202.858231	957.994263	1055.841675	978.473938	20.930216
203.239944	969.371887	994.402588	960.269775	-36.363792
203.621582	955.718750	935.239075	917.034912	188.888916
204.003235	937.514587	969.371887	973.922913	114.285660
204.384827	935.239075	1019.433350	1026.259888	108.108078
204.766388	937.514587	1017.157776	989.851563	65.714317
205.147934	985.300537	1039.912964	953.443237	-58.333427
205.529449	1021.708862	953.443237	976.198425	66.666695
205.910904	976.198425	1044.463989	921.585938	-80.000053
206.292343	948.892151	1019.433350	980.749451	45.161266
206.673767	930.687988	992.127075	1003.504700	118.518547
207.055115	998.953613	980.749451	955.718750	237.499878
207.436462	1010.331238	1012.606750	1001.229126	-400.002686
207.817780	1014.882263	1069.494751	910.208313	-191.666687
208.199051	967.096313	976.198425	960.269775	-74.999496
208.580307	994.402588	983.024963	939.790100	479.999023
208.961517	928.412476	971.647400	946.616638	42.105225
209.342712	983.024963	987.576050	983.024963	0.000000
209.723846	976.198425	989.851563	937.514587	-283.332947
210.104965	1096.801025	1069.494751	946.616638	549.999573
210.486069	955.718750	1074.045776	932.963501	-19.230812
210.867111	985.300537	1044.463989	978.473938	-11.538541
211.248123	962.545288	1046.739624	980.749451	21.621599
211.629120	962.545288	998.953613	973.922913	31.250063
212.010071	994.402588	1044.463989	1014.882263	40.909115
212.390991	951.167725	1026.259888	1033.086426	109.090881
212.771881	983.024963	923.861450	989.851563	-11.538529
213.152756	962.545288	992.127075	955.718750	-23.076828
213.533569	962.545288	944.341125	957.994263	24.999916
213.914368	930.687988	960.269775	1039.912964	369.230469
214.295135	989.851563	985.300537	1017.157776	-600.001343
214.675858	989.851563	928.412476	989.851563	-0.000000
215.056549	978.473938	992.127075	923.861450	-399.999542
215.437225	1019.433350	978.473938	1030.810913	-27.777653
215.817841	978.473938	1071.770264	932.963501	-48.780525
216.198441	1010.331238	985.300537	978.473938	127.272903
216.579025	928.412476	1028.535400	973.922913	45.454563
216.959549	1053.566162	1017.157776	912.483826	387.499573
217.340057	973.922913	1012.606750	960.269775	-35.294163
217.720535	1003.504700	1008.055725	905.657288	-2150.008057
218.100967	1003.504700	1001.229126	923.861450	3499.919434
218.481369	994.402588	987.576050	944.341125	733.335999
218.861740	1003.504700	1067.219238	930.687988	-114.285866
219.242065	955.718750	978.473938	978.473938	100.000000
219.622391	969.371887	1019.433350	1008.055725	77.272690
220.002670	994.402588	1012.606750	1021.708862	150.000168
220.382919	976.198425	962.545288	946.616638	216.666595
220.763123	932.963501	996.678101	887.453125	-71.428490
221.143295	937.514587	1014.882263	973.922913	47.058834
221.523453	992.127075	1005.780212	992.127075	0.000000
221.903549	957.994263	1003.504700	971.647400	30.000013
222.283630	1046.739624	1023.984375	976.198425	309.999664
222.663696	976.198425	1035.361938	930.687988	-76.923149
223.043701	923.861450	978.473938	980.749451	104.166656
223.423676	978.473938	1033.086426	962.545288	-29.166681
223.803635	967.096313	1012.606750	967.096313	0.000000
224.183548	928.412476	996.678101	971.647400	63.333374
224.563431	962.545288	1014.882263	948.892151	-26.086983
224.943283	946.616638	1008.055725	1023.984375	125.925919
225.323105	937.514587	1058.117188	978.473938	33.962246
225.702881	1008.055725	1033.086426	939.790100	-272.727570
226.082642	919.310425	1026.259888	1010.331238	85.106377
226.462357	1017.157776	1035.361938	1003.504700	-74.999748
226.842041	998.953613	967.096313	946.616638	164.285660
227.221695	926.136963	1019.433350	957.994263	34.146339
227.601318	937.514587	1021.708862	967.096313	35.135078
227.980911	989.851563	996.678101	923.861450	-966.670227
228.360474	976.198425	1021.708862	985.300537	20.000053
228.739990	1028.535400	1135.484863	926.136963	-95.744698
229.119476	971.647400	1124.107300	978.473938	4.477596
229.498932	1005.780212	1130.933838	998.953613	-5.454576
229.878372	996.678101	1187.821899	978.473938	-9.523805
230.257736	1008.055725	1212.852539	971.647400	-17.777779
230.637115	980.749451	1203.750488	1012.606750	14.285718
231.016449	992.127075	1128.658325	994.402588	1.666661
231.395737	903.381775	1121.831787	957.994263	24.999992
231.774994	937.514587	1014.882263	957.994263	26.470583
232.154221	964.820801	1146.862427	1008.055725	23.750021
232.533417	937.514587	1146.862427	983.024963	21.739119
232.912582	917.034912	1167.342163	1001.229126	33.636345
233.291702	928.412476	1115.005249	932.963501	2.439015
233.670792	996.678101	1119.556274	996.678101	0.000000
234.049866	907.932800	1133.209351	998.953613	40.404034
234.428894	957.994263	1176.444214	923.861450	-15.625004
234.807892	973.922913	1183.270874	1005.780212	15.217392
235.186874	985.300537	1133.209351	1028.535400	29.230755
235.565781	967.096313	1212.852539	1008.055725	16.666683
235.944687	1028.535400	1185.546387	926.136963	-65.217369
236.323547	948.892151	1256.087524	980.749451	10.370371
236.702377	926.136963	1201.474976	946.616638	7.438012
237.081177	980.749451	1174.168701	957.994263	-11.764697
237.459946	980.749451	1190.097412	946.616638	-16.304344
237.838669	942.065613	1165.066650	978.473938	16.326527
238.217361	928.412476	1256.087524	951.167725	6.944456
238.596039	994.402588	1208.301514	1017.157776	10.638290
238.974670	942.065613	1208.301514	969.371887	10.256421
239.353271	957.994263	1224.230225	928.412476	-11.111116
239.731842	980.749451	1240.158813	926.136963	-21.052628
240.110367	919.310425	1158.240112	926.136963	2.857133
240.488876	928.412476	1237.883301	971.647400	13.970598
240.867340	964.820801	1253.812012	957.994263	-2.362196
241.245789	1019.433350	1258.363037	939.790100	-33.333344
241.624176	969.371887	1228.781250	964.820801	-1.754403
242.002548	957.994263	1467.710938	1044.463989	16.964273
242.380890	1023.984375	1495.017212	1021.708862	-0.483090
242.759186	1019.433350	1533.701050	980.749451	-7.522133
243.137451	932.963501	1592.864502	1112.729614	27.241377
243.515686	971.647400	1658.854614	998.953613	3.973505
243.893890	964.820801	1658.854614	964.820801	0.000000
244.272049	967.096313	1517.772339	1078.596802	20.247929
244.650192	889.728638	1606.517700	1014.882263	17.460314
245.028290	905.657288	1506.394775	1046.739624	23.484856
245.406357	960.269775	1492.741699	1008.055725	8.974360
245.784393	955.718750	1447.231201	1026.259888	14.351851
246.162384	907.932800	1501.843750	1049.015137	23.754797
246.540359	948.892151	1592.864502	1044.463989	14.840984
246.918289	955.718750	1615.619751	1069.494751	17.241375
247.296204	989.851563	1756.702026	932.963501	-7.418404
247.674057	973.922913	2066.172852	969.371887	-0.416665
248.051895	976.198425	2243.663574	1089.974487	8.976663
248.429703	948.892151	2352.888428	1144.586914	13.938410
248.807465	1010.331238	2336.959961	1167.342163	11.835334
249.185196	1019.433350	2095.754639	1094.525513	6.976742
249.562897	964.820801	1893.233276	1055.841675	9.803926
249.940567	1001.229126	1840.896362	964.820801	-4.336042
250.318192	1021.708862	1779.457275	1017.157776	-0.600607
250.695801	994.402588	1649.752563	1014.882263	3.124998
251.073349	980.749451	1579.211426	1049.015137	11.406855
251.450882	955.718750	1501.843750	1028.535400	13.333330
251.828400	1053.566162	1524.598877	1014.882263	-8.212571
252.205872	987.576050	1565.558350	1010.331238	3.937004
252.583313	926.136963	1636.099487	962.545288	5.128204
252.960693	980.749451	1722.569214	1062.668213	11.042947
253.338074	955.718750	1913.713013	978.473938	2.375295
253.715408	1019.433350	1845.447388	1028.535400	1.101924
254.092682	923.861450	1665.681274	1033.086426	14.723923
254.469955	989.851563	1654.303589	983.024963	-1.027403
254.847198	937.514587	1574.660400	953.443237	2.500001
255.224365	1017.157776	1508.670288	1074.045776	11.574070
255.601563	910.208313	1506.394775	1035.361938	20.992363
255.978683	973.922913	1547.354126	1039.912964	11.507928
256.355743	976.198425	1499.568237	1046.739624	13.478271
256.732819	930.687988	1570.109375	1035.361938	16.370104
257.109894	944.341125	1549.629639	932.963501	-1.879703
257.486877	1005.780212	1576.935913	992.127075	-2.390440
257.863831	1028.535400	1683.885376	1035.361938	1.041663
258.240753	1008.055725	1672.507813	983.024963	-3.767128
258.617645	1017.157776	1692.987427	1044.463989	4.040399
258.994507	1003.504700	1799.937012	1062.668213	7.428568
259.371307	980.749451	1836.345337	1026.259888	5.319151
259.748108	985.300537	2125.336426	1058.117188	6.387224
260.124878	998.953613	2314.204590	1115.005249	8.823535
260.501617	898.830688	2500.797363	1124.107300	14.062503
260.878296	919.310425	2803.441650	1146.862427	12.077291
261.254944	951.167725	2889.911377	1167.342163	11.150233
261.631561	989.851563	2864.880615	1219.679199	12.257284
262.008179	946.616638	2521.277100	1080.872437	8.526016
262.384735	960.269775	2168.571289	1076.321289	9.604516
262.761261	973.922913	2018.386963	1101.352051	12.200433
263.137695	926.136963	2027.489014	1103.627563	16.115702
263.514191	928.412476	1934.192627	1058.117188	12.895930
263.890594	996.678101	1970.601074	1124.107300	13.084115
264.267029	944.341125	1909.161987	1021.708862	8.018870
264.643341	978.473938	1875.029175	1115.005249	15.228433
265.019653	942.065613	1845.447388	1039.912964	10.831229
265.395935	992.127075	1831.794189	1053.566162	7.317077
265.772217	1017.157776	1863.651489	955.718750	-7.258060
266.148407	953.443237	1829.518677	992.127075	4.415583
266.524597	992.127075	1970.601074	969.371887	-2.325579
266.900726	926.136963	2029.764526	1083.147949	14.226810
267.276855	967.096313	2004.733887	1046.739624	7.675446
267.652924	967.096313	2241.387939	1074.045776	8.392857
268.028992	953.443237	2168.571289	1035.361938	6.741570
268.404999	955.718750	2118.509766	1080.872437	10.763214
268.781006	894.279663	2111.683350	953.443237	4.859816
269.156921	980.749451	2125.336426	1074.045776	8.151092
269.532837	973.922913	2170.846924	1067.219238	7.794674
269.908661	953.443237	2086.652588	1064.943726	9.839355
270.284546	892.004150	2143.540527	1035.361938	11.454544
270.660339	1023.984375	2148.091553	1035.361938	1.012142
271.036133	937.514587	2141.265137	1124.107300	15.500946
271.411835	944.341125	2364.266113	1080.872437	9.615389
271.787537	969.371887	2448.460449	1080.872437	7.538463
272.163239	967.096313	2616.848877	1064.943726	5.931036
272.538849	1035.361938	2780.686523	1112.729614	4.432853
272.914459	987.576050	2812.543701	1151.413574	8.977558
273.290070	980.749451	2632.777588	1092.250000	6.749313
273.665588	944.341125	2491.695313	1101.352051	10.147058
274.041046	996.678101	2537.205811	1089.974487	6.056132
274.416565	1010.331238	2441.633789	1087.698975	5.405408
274.791962	1005.780212	2389.296875	1101.352051	6.907892
275.167389	971.647400	2316.480225	1083.147949	8.291035
275.542755	983.024963	2402.949951	1071.770264	6.249999
275.918060	989.851563	2245.938965	1108.178589	9.420286
276.293365	1005.780212	2336.959961	1094.525513	6.666666
276.668640	976.198425	2475.766602	1028.535400	3.490137
277.043854	1023.984375	2489.419678	1033.086426	0.621116
277.419037	937.514587	2514.450439	1053.566162	7.359309
277.794189	964.820801	2439.358398	1080.872437	7.870375
278.169312	971.647400	2491.695313	1080.872437	7.185631
278.544373	976.198425	2514.450439	1110.454102	8.727808
278.919464	930.687988	2509.899414	1033.086426	6.484150
279.294464	935.239075	2330.133301	1076.321289	10.114187
279.669464	985.300537	2459.837891	1078.596802	6.327155
280.044403	1012.606750	2380.194824	1126.382813	8.319468
280.419312	944.341125	2437.082764	1108.178589	10.975607
280.794189	1019.433350	2430.256104	1062.668213	3.064514
281.169037	1037.637451	2559.960938	1126.382813	5.829599
281.543854	998.953613	2553.134277	1085.423462	5.563694
281.918671	980.749451	2589.542725	1121.831787	8.769451
282.293365	987.576050	2869.431641	1105.903076	6.287785
282.668091	926.136963	2878.533936	1176.444214	12.820510
283.042786	978.473938	3003.687500	1137.760376	7.865167
283.417419	967.096313	3005.962891	1133.209351	8.147323
283.792053	980.749451	2889.911377	1071.770264	4.767580
284.166595	973.922913	2937.697266	1119.556274	7.415992
284.541138	960.269775	2785.237549	1124.107300	8.977557
284.915619	998.953613	2939.972900	1112.729614	5.861662
285.290100	1055.841675	2921.768799	1135.484863	4.268291
285.664520	996.678101	2894.462402	1219.679199	11.750603
286.038940	930.687988	2935.421875	1215.128052	14.188420
286.413300	987.576050	3140.218750	1212.852539	10.465114
286.787628	896.555176	3165.249512	1149.138062	11.133403
287.161896	955.718750	3219.861816	1256.087524	13.266334
287.536194	1001.229126	3304.056152	1206.026001	8.893280
287.910400	987.576050	3137.943115	1303.873413	14.708993
288.284607	937.514587	3074.228516	1306.148926	17.252396
288.658752	955.718750	2935.421875	1258.363037	15.287357
289.032867	971.647400	2814.819336	1242.434326	14.691355
289.406921	1005.780212	2851.227539	1165.066650	8.631319
289.781006	912.483826	2853.503174	1180.995239	13.833527
290.154999	1008.055725	2878.533936	1240.158813	12.408756
290.529022	1003.504700	3169.800537	1256.087524	11.659664
290.902954	910.208313	3112.912354	1278.842651	16.735537
291.276825	1026.259888	3253.994629	1281.118164	11.440243
291.650757	985.300537	3331.362549	1269.740601	12.124149
292.024597	960.269775	3297.229736	1363.036987	17.234665
292.398407	962.545288	3265.372314	1394.894287	18.774704
292.772156	969.371887	3119.739014	1340.281738	17.248674
293.145905	978.473938	3115.187988	1299.322388	15.015975
293.519592	989.851563	2969.554688	1333.455200	17.356321
293.893280	1037.637451	3053.749023	1331.179688	14.559821
294.266907	917.034912	3110.636963	1340.281738	19.294603
294.640533	980.749451	3294.954102	1358.485962	16.322519
295.014069	978.473938	3249.443604	1399.445313	18.537075
295.387604	1001.229126	3547.536865	1390.343262	15.281506
295.761078	1019.433350	3588.496338	1458.608887	17.094774
296.134552	967.096313	3465.618164	1367.588013	16.029144
296.507996	967.096313	3547.536865	1338.006226	14.373899
296.881378	923.861450	3549.812500	1472.261963	20.883881
297.254730	939.790100	3729.578613	1417.649414	17.128872
297.628021	1028.535400	3988.988037	1419.924927	13.220597
298.001282	953.443237	4034.498291	1579.211426	20.310190
298.374573	1019.433350	4091.386475	1499.568237	15.629629
298.747803	1001.229126	3909.344727	1561.007324	19.248829
299.121002	998.953613	3747.782715	1417.649414	15.231788
299.494141	885.177612	3602.149414	1419.924927	19.681740
299.867188	1001.229126	3565.741211	1458.608887	17.834961
300.240265	1001.229126	3388.250488	1454.057739	18.970446
300.613312	969.371887	3367.770752	1444.955688	19.829220
300.986328	1026.259888	3345.015625	1481.364014	19.627083
301.359314	987.576050	3203.933350	1413.098389	19.199175
301.732239	951.167725	3140.218750	1454.057739	22.972969
302.105103	921.585938	3265.372314	1388.067749	19.902916
302.477997	953.443237	3188.004639	1408.547363	20.366596
302.850830	1003.504700	3367.770752	1442.680176	18.575552
303.223602	1008.055725	3135.667725	1444.955688	20.534758
303.596375	1051.290649	3208.484375	1360.761475	14.345990
303.969116	973.922913	3071.953125	1317.526489	16.377436
304.341766	987.576050	3076.504150	1326.628662	16.230936
304.714478	980.749451	3156.147461	1262.914063	12.970713
305.087067	944.341125	3162.973877	1417.649414	21.333332
305.459656	989.851563	3144.769775	1435.853638	20.696938
305.832214	1003.504700	3172.075928	1315.250977	14.375652
306.204681	971.647400	3040.095703	1399.445313	20.682070
306.577148	907.932800	3056.024414	1347.108276	20.444914
306.949646	998.953613	3140.218750	1399.445313	18.703508
307.322021	921.585938	3167.524902	1399.445313	21.276596
307.694397	935.239075	3126.565674	1385.792114	20.560743
308.066742	1019.433350	3053.749023	1372.139038	17.337805
308.439026	980.749451	3324.535889	1383.516602	17.184465
308.811279	1001.229126	3217.586426	1367.588013	16.529774
309.183502	998.953613	3417.832275	1347.108276	14.393226
309.555695	946.616638	3481.546875	1435.853638	19.299822
309.927887	951.167725	3415.556641	1335.730713	15.604801
310.299988	1023.984375	3556.638916	1419.924927	15.633421
310.672058	942.065613	3499.750977	1410.822876	18.327402
311.044128	946.616638	3558.914551	1444.955688	19.076654
311.416168	914.759338	3654.486328	1388.067749	17.275751
311.788147	942.065613	3636.282227	1394.894287	16.807434
312.160065	967.096313	3615.802490	1422.200562	17.182135
312.531982	944.341125	3549.812500	1349.383789	15.545850
312.903870	992.127075	3433.760986	1415.373901	17.334574
313.275696	948.892151	3417.832275	1367.588013	16.958527
313.647491	1014.882263	3319.984863	1353.934937	14.708789
314.019318	1001.229126	3404.179199	1383.516602	15.909088
314.391022	1017.157776	3415.556641	1369.863525	14.705883
314.762726	1003.504700	3445.138428	1383.516602	15.563837
315.134369	989.851563	3563.465576	1410.822876	16.357204
315.505981	937.514587	3699.996826	1392.618774	16.474466
315.877594	976.198425	3759.160400	1429.027100	16.271465
316.249146	1049.015137	3593.047363	1458.608887	16.100180
316.620636	928.412476	3467.893799	1315.250977	15.232972
316.992157	973.922913	3276.750000	1301.597900	14.229248
317.363586	896.555176	3290.403076	1372.139038	19.866920
317.735016	985.300537	3256.270264	1394.894287	18.036072
318.106354	960.269775	3304.056152	1372.139038	17.572815
318.477722	1026.259888	3347.291016	1342.557251	13.627450
318.849060	919.310425	3253.994629	1333.455200	17.738792
319.220306	910.208313	3244.892578	1328.904175	17.933725
319.591522	1014.882263	3442.863037	1349.383789	13.776943
319.962738	985.300537	3454.240479	1292.495850	12.442397
320.333923	944.341125	3304.056152	1287.944824	14.561236
320.705017	1042.188477	3310.882813	1260.638550	9.628890
321.076111	998.953613	3329.086914	1381.241089	16.406250
321.447144	978.473938	3283.576416	1299.322388	13.919053
321.818176	914.759338	3222.137451	1283.393677	15.976330
322.189178	967.096313	3201.657715	1301.597900	14.969451
322.560120	1005.780212	3326.811523	1353.934937	15.000002
322.931030	962.545288	3299.505127	1344.832764	16.358324
323.301910	985.300537	3411.005615	1335.730713	14.446528
323.672729	1030.810913	3679.517090	1392.618774	13.659797
324.043549	980.749451	3795.568604	1444.955688	16.491512
324.414337	983.024963	3918.446777	1399.445313	14.186048
324.785095	976.198425	4132.345703	1449.506714	14.996394
325.155792	985.300537	4089.110840	1424.476074	14.149561
325.526428	910.208313	4109.590332	1426.751587	16.145096
325.897034	987.576050	3968.508301	1413.098389	14.274808
326.267670	946.616638	3893.416016	1363.036987	14.131276
326.638184	889.728638	4009.467773	1399.445313	16.338438
327.008728	1028.535400	4068.631104	1349.383789	10.553891
327.379211	1014.882263	4048.151611	1403.996338	12.828207
327.749634	937.514587	3927.548828	1399.445313	15.449012
328.120026	978.473938	3891.140625	1406.271851	14.687499
328.490417	937.514587	3811.497314	1367.588013	14.964371
328.860748	987.576050	3659.037354	1388.067749	14.991484
329.231079	946.616638	3654.486328	1444.955688	18.403362
329.601318	973.922913	3834.252441	1344.832764	12.967381
329.971558	942.065613	3786.466553	1376.690063	15.280000
330.341736	969.371887	3754.609375	1438.129150	16.830065
330.711914	971.647400	3690.894775	1435.853638	17.071129
331.082062	957.994263	3756.884766	1353.934937	14.146343
331.452148	973.922913	3709.098877	1369.863525	14.475873
331.822174	1021.708862	3634.006836	1447.231201	16.289196
332.192200	926.136963	3877.487549	1303.873413	12.798766
332.562134	989.851563	3872.936523	1424.476074	15.074981
332.932129	996.678101	4009.467773	1417.649414	13.972809
333.302063	894.279663	4077.733398	1408.547363	16.154396
333.671906	953.443237	4145.999023	1403.996338	14.112616
334.041718	930.687988	4152.825684	1515.496826	18.149715
334.411499	967.096313	4216.540039	1517.772339	16.946777
334.781281	992.127075	4307.561035	1422.200562	12.971861
335.151001	1008.055725	4230.193359	1542.803101	16.596043
335.520721	1010.331238	3986.712402	1460.884399	15.137617
335.890350	944.341125	4216.540039	1444.955688	15.299026
336.259979	926.136963	4221.091309	1501.843750	17.472376
336.629547	930.687988	4266.601563	1431.302612	15.006823
336.999084	948.892151	4328.040527	1524.598877	17.037035
337.368622	912.483826	4150.549805	1554.180664	19.817287
337.738098	878.351013	4303.009766	1497.292725	18.073092
338.107513	951.167725	4243.846191	1415.373901	14.098133
338.476898	944.341125	4252.948242	1397.169800	13.686384
338.846252	967.096313	4419.061523	1424.476074	13.249837
339.215576	1055.841675	4425.888184	1410.822876	10.533422
339.584869	971.647400	4189.233887	1419.924927	13.932105
339.954132	944.341125	4186.958496	1451.782227	15.649120
340.323334	1028.535400	4155.101074	1410.822876	12.227074
340.692505	926.136963	3950.304199	1442.680176	17.080511
341.061646	960.269775	3977.610352	1419.924927	15.233784
341.430786	967.096313	4173.305176	1429.027100	14.407382
341.799896	926.136963	4127.794922	1403.996338	14.925372
342.168915	876.075500	4373.550781	1499.568237	17.826937
342.537903	937.514587	4428.163574	1444.955688	14.537157
342.906830	1026.259888	4478.225098	1515.496826	14.172708
343.275757	1001.229126	4496.429199	1542.803101	15.494791
343.644684	1042.188477	4460.020996	1522.323364	14.047935
344.013550	1017.157776	4587.449707	1497.292725	13.448058
344.382355	1001.229126	4828.655273	1508.670288	13.258026
344.751129	983.024963	4849.134766	1513.221313	13.713949
345.119873	1092.250000	5015.248047	1547.354126	11.600926
345.488586	1008.055725	5311.065430	1565.558350	12.956109
345.857269	1001.229126	5301.963379	1547.354126	12.698413
346.225891	1008.055725	5531.791016	1595.140137	12.977868
346.594482	1035.361938	5570.475098	1574.660400	11.891621
346.963043	1046.739624	5622.812012	1583.762451	11.735454
347.331543	1010.331238	5042.554199	1590.588989	14.390518
347.700043	948.892151	4976.563965	1499.568237	13.672318
348.068512	887.453125	4933.329102	1492.741699	14.960631
348.436951	994.402588	4985.666016	1474.537476	12.029647
348.805328	951.167725	4769.491699	1469.986450	13.587604
349.173645	1021.708862	4776.318359	1526.874512	13.454546
349.541931	983.024963	4760.389648	1542.803101	14.819277
349.910217	978.473938	4865.063477	1586.037964	15.632318
350.278473	923.861450	4944.706543	1515.496826	14.714204
350.646667	1021.708862	4999.319336	1558.731689	13.501143
351.014801	914.759338	5085.789063	1488.190552	13.747953
351.382935	980.749451	5024.350098	1590.588989	15.081596
351.751007	1035.361938	5010.696777	1504.119263	11.791643
352.119049	1071.770264	5188.187500	1592.864502	12.658927
352.487091	1028.535400	5126.748535	1506.394775	11.660190
352.855072	917.034912	5185.912109	1583.762451	15.618336
353.222992	985.300537	5092.615723	1506.394775	12.686978
353.590881	1010.331238	5427.117188	1567.833862	12.622359
353.958740	987.576050	5620.536621	1535.976563	11.836935
354.326599	987.576050	5697.904297	1588.313477	12.753622
354.694397	985.300537	5889.047852	1692.987427	14.431554
355.062134	898.830688	5964.140137	1670.232300	15.229111
355.429840	994.402588	5925.456055	1626.997314	12.828794
355.797516	992.127075	6159.834961	1754.426514	14.751209
356.165192	1014.882263	6259.957520	1667.956787	12.451195
356.532776	912.483826	6401.040039	1688.436401	14.137645
356.900360	978.473938	6583.081543	1779.457275	14.291515
357.267883	992.127075	6528.469238	1727.120239	13.275790
357.635376	1051.290649	6803.807129	1845.447388	13.805379
358.002808	1008.055725	7493.290039	1836.345337	12.771931
358.370270	948.892151	7682.158203	1886.406738	13.923623
358.737640	955.718750	7552.453613	1886.406738	14.108313
359.105011	1005.780212	7322.625977	1931.917114	14.661383
359.472321	1044.463989	7111.002441	1854.549438	13.353339
359.839569	1067.219238	7090.522949	1722.569214	10.880241
360.206787	962.545288	7024.532715	1815.865601	14.076577
360.574005	873.799988	7136.033203	1911.437500	16.569767
360.941193	962.545288	7754.975098	1929.641602	14.237855
361.308319	926.136963	8021.210938	1984.254150	14.913405
361.675415	1017.157776	8676.560547	2025.213501	13.161022
362.042450	926.136963	9129.389648	2025.213501	13.398057
362.409424	928.412476	9871.208984	2132.163086	13.460561
362.776428	1014.882263	9916.719727	2161.744873	12.883435
363.143402	1033.086426	9432.034180	2138.989502	13.167163
363.510284	946.616638	8792.612305	2000.182739	13.428075
363.877136	989.851563	7898.332520	1938.743774	13.735179
364.243988	955.718750	7388.616211	1813.590088	13.335691
364.610779	964.820801	7172.441406	1818.141113	13.746335
364.977539	951.167725	6967.644531	1818.141113	14.409986
365.344269	1044.463989	6658.173828	1831.794189	14.025131
365.710938	985.300537	6737.816895	1731.671387	12.974684
366.077576	905.657288	6637.694336	1770.355225	15.085351
366.444183	976.198425	6587.632813	1652.028076	12.043795
366.810760	983.024963	6471.581055	1790.834839	14.718076
367.177277	944.341125	6583.081543	1736.222412	14.043585
367.543823	976.198425	6660.449219	1779.457275	14.131305
367.910248	1051.290649	6583.081543	1838.620850	14.232826
368.276642	948.892151	6517.091797	1806.763550	15.406621
368.643036	935.239075	6476.132324	1729.395752	14.332647
369.009399	980.749451	6303.192383	1740.773438	14.279608
369.375671	932.963501	6253.131348	1672.507813	13.900770
369.741974	987.576050	6253.131348	1681.609863	13.180639
370.108215	948.892151	6216.722656	1665.681274	13.606913
370.474396	921.585938	6091.569336	1681.609863	14.700704
370.840546	892.004150	6125.702148	1652.028076	14.521738
371.206665	973.922913	6401.040039	1729.395752	13.920334
371.572784	964.820801	6644.520508	1779.457275	14.342950
371.938843	1008.055725	6601.285645	1784.008301	13.873068
372.304840	935.239075	6705.959961	1786.283813	14.747634
372.670807	932.963501	6649.071777	1786.283813	14.928344
373.036713	962.545288	6712.786133	1729.395752	13.335972
373.402649	964.820801	6503.438477	1663.405762	12.612984
373.768524	985.300537	6594.459473	1743.048950	13.509127
374.134308	960.269775	6494.336426	1799.937012	15.172699
374.500122	894.279663	6412.417480	1738.497925	15.298970
374.865875	971.647400	6692.306641	1756.702026	13.723149
375.231567	996.678101	6708.235352	1758.977539	13.346613
375.597260	1019.433350	6730.990723	1827.243164	14.143424
375.962891	996.678101	6951.715820	1781.732788	13.183035
376.328461	1008.055725	7156.512695	1686.160889	11.028867
376.694031	1019.433350	7215.676270	1774.906250	12.192434
377.059540	985.300537	7659.402832	1870.478149	13.262871
377.425049	1005.780212	7932.465332	1963.774414	13.830486
377.790497	1001.229126	8314.752930	1943.294800	12.881145
378.155945	935.239075	8612.846680	1902.335449	12.596325
378.521301	962.545288	8301.099609	2002.458252	14.170543
378.886597	894.279663	8121.333984	1997.907227	15.270781
379.251892	935.239075	7802.760742	1925.090576	14.413519
379.617157	1010.331238	7584.311035	1818.141113	12.287988
379.982422	944.341125	7286.217773	1836.345337	14.065304
380.347595	942.065613	7167.890625	1852.273926	14.619883
380.712738	998.953613	7240.707031	1854.549438	13.707620
381.077820	992.127075	7288.493164	1849.998413	13.624864
381.442902	960.269775	7463.708008	1870.478149	13.995802
381.807953	983.024963	7163.339355	1849.998413	14.027983
382.172974	980.749451	7161.063965	1831.794189	13.770249
382.537933	951.167725	7097.349609	1749.875488	12.995187
382.902832	987.576050	7151.961914	1758.977539	12.513842
383.267700	998.953613	7593.413086	1784.008301	11.904761
383.632538	932.963501	7566.106445	1758.977539	12.452830
383.997345	976.198425	7805.036133	1831.794189	12.529156
384.362152	912.483826	7741.321777	1761.253052	12.429190
384.726898	971.647400	7761.801270	1809.039063	12.332440
385.091553	942.065613	7939.291992	1847.722900	12.943089
385.456238	985.300537	8114.507324	1868.202637	12.384296
385.820862	980.749451	7962.047363	1959.223389	14.015645
386.185425	980.749451	7925.639160	1818.141113	12.057667
386.549988	946.616638	8157.742188	1827.243164	12.212054
386.914490	960.269775	8109.956055	2013.835938	14.735837
387.278961	983.024963	8166.844238	1991.080688	14.032309
387.643372	1012.606750	8319.303711	1920.539551	12.426037
388.007782	996.678101	8542.304688	1950.121338	12.635707
388.372101	957.994263	8749.377930	1931.917114	12.499998
388.736450	930.687988	8401.222656	1895.508789	12.915017
389.100739	942.065613	8348.885742	1984.254150	14.070660
389.464966	969.371887	8285.170898	1922.815063	13.032660
389.829163	983.024963	8166.844238	1877.304688	12.448527
390.193329	989.851563	8043.965820	1904.610962	12.967743
390.557495	926.136963	8305.651367	1852.273926	12.550107
390.921570	882.902100	8469.488281	1906.886475	13.497301
391.285614	948.892151	8642.427734	1925.090576	12.688554
391.649597	1012.606750	9017.888672	1904.610962	11.142696
392.013550	978.473938	9504.850586	1991.080688	11.876166
392.377502	964.820801	9752.881836	1929.641602	10.978768
392.741455	1019.433350	9507.125977	2043.417725	12.064343
393.105316	1014.882263	9536.708008	1975.152100	11.268357
393.469086	973.922913	9534.432617	1963.774414	11.562997
393.832886	1026.259888	9279.574219	2007.009399	11.883099
394.196655	973.922913	9454.789063	1911.437500	11.054467
394.560333	973.922913	9666.412109	1904.610962	10.706807
394.924042	983.024963	9593.595703	1988.805176	11.680762
395.287659	987.576050	9623.177734	1920.539551	10.803689
395.651245	928.412476	9520.779297	1950.121338	11.890889
396.014771	939.790100	9131.665039	1934.192627	12.138888
396.378296	1035.361938	8854.051758	1761.253052	9.284050
396.741791	928.412476	8776.683594	1758.977539	10.582778
397.105255	953.443237	8453.559570	1822.692139	11.589806
397.468628	1001.229126	8351.161133	1890.957764	12.105264
397.832001	935.239075	8260.140625	1752.151001	11.152532
398.195313	948.892151	8656.081055	1738.497925	10.245055
398.558624	935.239075	8540.029297	1804.488037	11.430283
398.921844	898.830688	8565.060547	1886.406738	12.882160
399.285095	946.616638	8669.734375	1781.732788	10.813200
399.648254	942.065613	8701.591797	1886.406738	12.170087
400.011383	932.963501	8574.162109	1824.967651	11.673615
400.374451	953.443237	8501.345703	1849.998413	11.878203
400.737549	992.127075	8608.294922	1740.773438	9.829699
401.100586	973.922913	8469.488281	1745.324463	10.291439
401.463562	983.024963	8553.682617	1761.253052	10.279531
401.826508	994.402588	8844.949219	1875.029175	11.217392
402.189392	1014.882263	8626.499023	1790.834839	10.194320
402.552246	960.269775	8694.764648	1756.702026	10.297146
402.915070	996.678101	8685.663086	1718.018188	9.381474
403.277893	996.678101	8872.255859	1736.222412	9.390350
403.640656	955.718750	9131.665039	1774.906250	10.019483
404.003326	953.443237	9568.565430	1806.763550	9.904913
404.366028	962.545288	9454.789063	1772.630737	9.539121
404.728699	969.371887	9896.240234	1793.110352	9.227632
405.091248	939.790100	10103.312500	1852.273926	9.957785
405.453857	994.402588	10301.282227	1886.406738	9.584352
405.816345	971.647400	9934.923828	1881.855713	10.154861
406.178833	1030.810913	10176.128906	1788.559326	8.285643
406.541260	1008.055725	10112.414063	1802.212524	8.722820
406.903687	944.341125	9775.637695	1802.212524	9.713991
407.266052	962.545288	9707.372070	1763.528564	9.159510
407.628387	967.096313	9552.636719	1779.457275	9.461967
407.990662	1001.229126	9552.636719	1743.048950	8.674828
408.352905	1008.055725	9463.890625	1765.804199	8.961249
408.715118	989.851563	9336.461914	1708.916138	8.615049
409.077332	998.953613	9236.338867	1731.671387	8.895029
409.439484	1037.637451	9409.278320	1683.885376	7.719490
409.801575	1021.708862	9648.208008	1706.640625	7.939858
410.163605	951.167725	9853.004883	1681.609863	8.205522
410.525635	1055.841675	9971.332031	1793.110352	8.269525
410.887604	971.647400	10112.414063	1697.538574	7.941250
411.249573	978.473938	10148.823242	1704.365112	7.915633
411.611481	994.402588	10219.364258	1756.702026	8.263443
411.973328	976.198425	9937.199219	1626.997314	7.262569
412.335144	926.136963	10064.628906	1642.926025	7.843625
412.696930	1008.055725	9752.881836	1663.405762	7.494146
413.058685	946.616638	9923.545898	1547.354126	6.692015
413.420410	953.443237	9707.372070	1592.864502	7.304392
413.782104	980.749451	9837.076172	1642.926025	7.476876
414.143707	978.473938	9900.791016	1617.895264	7.166539
414.505310	989.851563	9907.617188	1570.109375	6.506763
414.866852	987.576050	9932.648438	1631.548462	7.199186
415.228394	1003.504700	10360.446289	1606.517700	6.444552
415.589874	932.963501	10294.456055	1649.752563	7.656782
415.951324	978.473938	10346.792969	1711.191650	7.821229
416.312683	973.922913	10663.090820	1597.415649	6.434946
416.674072	955.718750	11029.449219	1663.405762	7.025074
417.035370	967.096313	11393.532227	1631.548462	6.372764
417.396667	1033.086426	11527.788086	1686.160889	6.222897
417.757935	1021.708862	11725.758789	1649.752563	5.867347
418.119141	1026.259888	12174.036133	1677.058838	5.837926
418.480286	985.300537	12328.771484	1683.885376	6.158475
418.841400	887.453125	13157.061523	1629.272949	6.045994
419.202484	869.248962	13216.224609	1649.752563	6.321415
419.563568	953.443237	13830.615234	1636.099487	5.301290
419.924591	973.922913	14813.640625	1756.702026	5.656034
420.285553	917.034912	14708.966797	1831.794189	6.632568
420.646484	987.576050	16024.217773	1868.202637	5.856538
421.007355	960.269775	15990.084961	1793.110352	5.541256
421.368225	976.198425	17257.548828	1875.029175	5.520616
421.729065	998.953613	17457.794922	1900.059814	5.474906
422.089874	955.718750	17962.960938	1909.161987	5.606102
422.450592	935.239075	17699.000000	1988.805176	6.284784
422.811279	987.576050	17787.746094	1936.468262	5.648111
423.171936	962.545288	17689.898438	1902.335449	5.618284
423.532593	1005.780212	17282.580078	1911.437500	5.564099
423.893127	955.718750	17614.806641	1900.059814	5.668624
424.253723	985.300537	18033.501953	1941.019287	5.605980
424.614197	1042.188477	18001.644531	2011.560425	5.715819
424.974670	1012.606750	18290.636719	2038.866699	5.939682
425.335052	1026.259888	18879.996094	1954.672363	5.200102
425.695496	1014.882263	17787.746094	1986.529663	5.792973
426.055817	932.963501	17960.685547	1911.437500	5.746358
426.416168	1003.504700	17792.296875	1975.152100	5.787476
426.776398	1023.984375	16720.527344	1865.927002	5.363873
427.136627	955.718750	16126.616211	1913.713013	6.314684
427.496826	930.687988	16160.749023	1852.273926	6.051098
427.856995	935.239075	15562.287109	1861.375977	6.331674
428.217102	971.647400	14902.385742	1875.029175	6.484809
428.577179	1010.331238	14731.721680	1863.651489	6.218905
428.937195	1003.504700	14381.291016	1820.416626	6.106481
429.297180	969.371887	13807.860352	1804.488037	6.504786
429.657135	996.678101	13587.134766	1836.345337	6.669077
430.017059	971.647400	13707.737305	1824.967651	6.700017
430.376984	978.473938	13878.401367	1806.763550	6.420886
430.736786	939.790100	13414.195313	1747.599976	6.475739
431.096588	964.820801	13471.083008	1715.742676	6.004367
431.456360	896.555176	13584.859375	1772.630737	6.904591
431.816071	983.024963	13234.428711	1749.875488	6.259287
432.175781	964.820801	13400.541992	1715.742676	6.038427
432.535400	937.514587	13352.755859	1708.916138	6.213343
432.895020	942.065613	13359.583008	1754.426514	6.542056
433.254578	976.198425	13687.257813	1738.497925	5.997136
433.614105	985.300537	13764.625000	1777.181763	6.196581
433.973602	953.443237	14190.147461	1722.569214	5.810555
434.333038	871.524475	13967.146484	1806.763550	7.141616
434.692444	969.371887	14356.260742	1727.120239	5.660377
435.051819	957.994263	14233.382813	1770.355225	6.119301
435.411133	1021.708862	14285.719727	1731.671387	5.352548
435.770416	932.963501	13939.840820	1715.742676	6.018195
436.129669	989.851563	14267.515625	1658.854614	5.038560
436.488861	992.127075	13946.666992	1736.222412	5.743896
436.848083	992.127075	14051.340820	1711.191650	5.506186
437.207184	998.953613	13930.738281	1649.752563	5.032553
437.566254	969.371887	14433.628906	1633.823975	4.934933
437.925293	1010.331238	14308.474609	1697.538574	5.167694
438.284363	967.096313	14374.464844	1613.344238	4.820096
438.643311	1046.739624	14572.435547	1688.436401	4.744279
439.002258	932.963501	14449.556641	1595.140137	4.898991
439.361145	1021.708862	15478.092773	1647.477051	4.328663
439.719971	948.892151	15614.624023	1699.814087	5.120249
440.078827	971.647400	15842.175781	1665.681274	4.667177
440.437592	1037.637451	16379.198242	1777.181763	4.820529
440.796295	1042.188477	16545.312500	1731.671387	4.447381
441.155029	1017.157776	17614.806641	1793.110352	4.675076
441.513672	898.830688	18336.146484	1720.293701	4.710948
441.872253	969.371887	17960.685547	1731.671387	4.486407
442.230865	923.861450	17544.265625	1722.569214	4.805586
442.589386	1085.423462	17341.744141	1695.262939	3.751399
442.947876	960.269775	17068.681641	1758.977539	4.958327
443.306335	967.096313	16820.650391	1686.160889	4.535668
443.664764	957.994263	16074.279297	1681.609863	4.786994
444.023102	919.310425	16688.669922	1667.956787	4.747475
444.381500	973.922913	16586.271484	1631.548462	4.212214
444.739777	957.994263	16424.708984	1733.946899	5.016920
445.098022	851.044800	16467.943359	1606.517700	4.837535
445.456238	978.473938	16631.781250	1617.895264	4.084896
445.814423	917.034912	17150.599609	1702.089600	4.835997
446.172577	996.678101	18217.820313	1743.048950	4.334038
446.530701	932.963501	18365.728516	1768.079712	4.790498
446.888733	910.208313	18727.537109	1720.293701	4.546616
447.246765	944.341125	19808.408203	1754.426514	4.294331
447.604736	962.545288	18905.027344	1799.937012	4.667089
447.962677	930.687988	19376.060547	1813.590088	4.786578
448.320587	967.096313	19637.744141	1802.212524	4.472883
448.678436	1005.780212	18859.515625	1733.946899	4.078512
449.036255	971.647400	18907.302734	1731.671387	4.237503
449.394043	971.647400	17696.724609	1849.998413	5.251700
449.751770	971.647400	17869.664063	1804.488037	4.928629
450.109467	939.790100	17398.632813	1834.069824	5.433431
450.467163	935.239075	17325.814453	1815.865601	5.372761
450.824768	980.749451	16959.457031	1856.824951	5.482768
451.182343	953.443237	17166.529297	1909.161987	5.894737
451.539886	923.861450	16097.034180	1829.518677	5.968806
451.897369	951.167725	16388.300781	1913.713013	6.235260
452.254822	985.300537	16392.851563	1861.375977	5.686014
452.612274	962.545288	16438.361328	1938.743774	6.307897
452.969635	996.678101	16624.955078	1925.090576	5.940594
453.326965	957.994263	16647.710938	1984.254150	6.540971
453.684326	953.443237	16165.299805	2084.376953	7.434554
454.041534	967.096313	15971.880859	2022.937988	7.036700
454.398773	978.473938	15532.705078	1961.498901	6.754221
454.755951	880.626526	15305.153320	2086.652588	8.360941
455.113098	1021.708862	14902.385742	2018.386963	7.180328
455.470215	969.371887	14747.650391	2116.234375	8.323700
455.827240	932.963501	15018.437500	2129.887451	8.497577
456.184265	960.269775	14704.415039	2186.775391	8.923841
456.541260	962.545288	14565.608398	2314.204590	9.936433
456.898193	1008.055725	14834.120117	2314.204590	9.447004
457.255096	1010.331238	14972.926758	2314.204590	9.338330
457.611969	964.820801	14649.802734	2434.807373	10.741604
457.968781	1003.504700	15009.334961	2471.215576	10.479285
458.325531	1010.331238	15321.082031	2564.511963	10.860231
458.682312	973.922913	15762.532227	2712.420898	11.755656
459.039001	953.443237	16816.099609	2796.614990	11.619566
459.395630	969.371887	17287.130859	3106.085938	13.094409
459.752289	971.647400	18870.894531	3219.861816	12.560385
460.108856	951.167725	20306.748047	3640.833252	13.896073
460.465363	930.687988	20816.464844	3772.813477	14.292253
460.821899	921.585938	20930.240234	3713.649902	13.954282
461.178345	928.412476	20238.482422	3816.048340	14.954041
461.534760	942.065613	19869.847656	3863.834229	15.436403
461.891144	976.198425	18597.832031	3809.221924	16.076963
462.247467	1023.984375	18158.656250	3643.108887	15.285524
462.603760	937.514587	17769.541016	3677.241699	16.276869
462.960052	987.576050	16793.343750	3631.731201	16.729053
463.316254	1049.015137	16317.759766	3586.220703	16.616989
463.672424	967.096313	16001.461914	3636.282227	17.753899
464.028564	962.545288	15616.899414	3581.669678	17.872671
464.384644	1008.055725	15585.041992	3702.272461	18.482674
464.740723	992.127075	15990.084961	3670.415039	17.857685
465.096741	921.585938	15614.624023	3831.977051	19.807961
465.452698	932.963501	15703.369141	3897.967041	20.073948
465.808655	901.106262	15849.001953	3950.304199	20.398846
466.164520	889.728638	15439.408203	3979.885986	21.238661
466.520355	971.647400	16347.341797	4250.672852	21.326031
466.876190	973.922913	16413.332031	4216.540039	21.002211
467.231964	978.473938	16331.413086	4382.652832	22.172815
467.587677	983.024963	17155.150391	4557.868164	22.104969
467.943390	948.892151	17246.171875	4596.552246	22.382019
468.299011	998.953613	16404.228516	4621.582520	23.515509
468.654633	939.790100	16467.943359	4480.500488	22.801878
469.010223	1039.912964	16565.791016	4587.449707	22.849186
469.365723	1005.780212	15673.787109	4475.949219	23.658081
469.721191	1030.810913	16015.115234	4712.603516	24.570993
470.076660	1005.780212	15589.592773	4505.531250	23.997503
470.432068	973.922913	15928.645508	4742.185547	25.197811
470.787445	996.678101	15318.805664	4723.980957	26.024784
471.142792	987.576050	15703.369141	4685.297363	25.127569
471.498016	951.167725	15748.879883	4935.604492	26.926033
471.853271	996.678101	15539.531250	4880.992188	26.709435
472.208496	994.402588	15753.430664	4994.768066	27.104532
472.563660	951.167725	15739.777344	5022.074219	27.527311
472.918762	935.239075	16310.933594	5176.810059	27.586206
473.273865	987.576050	16649.986328	5231.422363	27.095741
473.628876	980.749451	17055.029297	5392.984375	27.449036
473.983917	969.371887	16995.865234	5342.922852	27.289505
474.338837	978.473938	17004.966797	5588.679199	28.766150
474.693787	978.473938	16938.976563	5536.342285	28.557171
475.048645	939.790100	16695.496094	5488.556152	28.870596
475.403503	946.616638	16784.242188	5579.577148	29.252872
475.758270	1023.984375	17027.722656	5722.935059	29.361582
476.113037	946.616638	16768.312500	5645.566895	29.699408
476.467773	994.402588	17419.111328	5889.047852	29.800501
476.822418	1026.259888	18315.666016	6123.426270	29.481443
477.177063	917.034912	18183.687500	6244.029297	30.851343
477.531647	976.198425	18700.230469	6182.589844	29.374760
477.886200	928.412476	19109.824219	6523.917969	30.775967
478.240723	919.310425	19703.734375	6699.133301	30.769232
478.595184	964.820801	19690.082031	6828.837891	31.316076
478.949585	951.167725	20377.289063	6837.939941	30.303387
479.303986	907.932800	20322.675781	6983.573242	31.293955
479.658325	1023.984375	20322.675781	7079.145020	31.376017
480.012634	962.545288	20349.982422	7247.533691	32.417839
480.366913	955.718750	21021.261719	7459.157227	32.410976
480.721130	901.106262	21558.283203	7409.095703	31.504736
481.075317	946.616638	22486.697266	7718.566406	31.438833
481.429474	962.545288	23492.476563	8339.784180	32.744167
481.783569	996.678101	24436.818359	8733.449219	33.006504
482.137604	962.545288	25881.773438	9220.410156	33.138527
482.491669	964.820801	28155.019531	10094.209961	33.576027
482.845612	1019.433350	31054.033203	10999.867188	33.229786
483.199554	939.790100	35204.582031	12353.802734	33.311195
483.553436	1019.433350	41039.019531	14711.242188	34.212769
483.907318	980.749451	47870.132813	17291.681641	34.785984
484.261139	937.514587	53791.035156	19624.091797	35.355408
484.614899	892.004150	56366.925781	21125.935547	36.474014
484.968628	1014.882263	55886.789063	20900.658203	36.240356
485.322357	989.851563	53520.250000	19963.144531	36.118690
485.675964	964.820801	49763.363281	18333.871094	35.593380
486.029572	989.851563	45565.027344	16713.701172	35.274902
486.383148	976.198425	43346.394531	15541.806641	34.377014
486.736694	1026.259888	40661.281250	14870.528320	34.929386
487.090149	1001.229126	40847.875000	15239.163086	35.731827
487.443604	944.341125	41958.328125	15594.144531	35.719044
487.796997	932.963501	44281.636719	16322.310547	35.501312
488.150360	987.576050	45189.566406	16932.150391	36.072071
488.503693	962.545288	45797.132813	16775.138672	35.268742
488.856964	835.116150	45071.242188	16966.283203	36.466049
489.210175	953.443237	42074.378906	16019.666016	36.638813
489.563416	917.034912	40065.093750	15036.641602	36.067196
489.916565	996.678101	37700.828125	14356.260742	36.398018
490.269653	948.892151	35341.113281	13279.939453	35.854172
490.622772	967.096313	34267.066406	13118.376953	36.490364
490.975769	960.269775	34125.984375	12888.549805	35.965694
491.328735	957.994263	35564.113281	13798.757813	37.105473
491.681732	980.749451	37780.472656	14561.057617	36.903290
492.034607	1005.780212	40306.300781	15462.164063	36.784206
492.387482	1005.780212	40998.058594	15787.563477	36.961594
492.740326	946.616638	39530.347656	15136.764648	36.777542
493.093079	1008.055725	37689.449219	14551.955078	36.923077
493.445862	1026.259888	34558.335938	13541.624023	37.323563
493.798523	960.269775	31911.904297	12444.823242	37.104836
494.151215	937.514587	29486.199219	11561.920898	37.215046
494.503815	942.065613	27454.158203	10861.060547	37.413097
494.856384	951.167725	25943.212891	10278.527344	37.321312
495.208923	1035.361938	24632.511719	9875.760742	37.463840
495.561432	923.861450	23874.763672	9736.953125	38.399761
495.913879	969.371887	24197.888672	9500.299805	36.726097
496.266296	926.136963	24345.796875	9725.576172	37.572876
496.618683	1021.708862	24015.845703	9488.921875	36.823357
496.970978	969.371887	24914.677734	9932.648438	37.432289
497.323273	985.300537	25158.158203	10060.077148	37.541183
497.675507	1019.433350	25296.964844	10137.445313	37.557407
498.027710	1028.535400	25349.300781	10105.587891	37.322231
498.379852	923.861450	24955.636719	10178.404297	38.509609
498.731995	971.647400	24409.511719	9878.036133	38.000000
499.084076	1051.290649	24320.765625	9893.964844	38.001175
499.436096	1080.872437	23981.712891	9645.932617	37.400639
499.788086	1049.015137	23340.017578	9516.227539	37.984890
500.140106	989.851563	22666.462891	9445.686523	39.009026
500.491943	1033.086426	22322.859375	9143.042969	38.093204
500.843842	1044.463989	22081.654297	9188.552734	38.712818
501.195679	1001.229126	21544.630859	8986.031250	38.867966
501.547455	1001.229126	21237.435547	8669.734375	37.894974
501.899231	987.576050	21189.650391	8606.019531	37.711193
502.250885	932.963501	21080.423828	8583.264648	37.971539
502.602600	957.994263	20941.617188	8678.835938	38.635845
502.954193	930.687988	20843.771484	8587.815430	38.452744
503.305786	1026.259888	20861.974609	8667.458984	38.522430
503.657379	932.963501	20909.759766	8747.101563	39.116070
504.008820	971.647400	20918.863281	8826.745117	39.379417
504.360291	994.402588	21096.353516	8644.703125	38.057503
504.711700	994.402588	21253.365234	8719.795898	38.133213
505.063080	946.616638	21226.058594	9015.613281	39.789047
505.414368	951.167725	21146.414063	8758.479492	38.659157
505.765656	1037.637451	21053.119141	8763.030273	38.597084
506.116943	932.963501	21353.486328	8558.233398	37.341206
506.468109	960.269775	20693.585938	8808.541016	39.771679
506.819305	989.851563	20880.179688	8615.122070	38.336575
507.170410	1023.984375	20930.240234	8544.581055	37.780067
507.521484	978.473938	20877.904297	8856.327148	39.588337
507.872559	1021.708862	21073.597656	8749.377930	38.538361
508.223480	967.096313	21073.597656	8885.909180	39.384338
508.574493	885.177612	21262.466797	9042.919922	40.033501
508.925385	994.402588	21788.111328	9038.368164	38.684612
509.276245	946.616638	21926.917969	9302.329102	39.826469
509.627045	939.790100	22284.175781	9391.074219	39.594883
509.977814	926.136963	22739.279297	9215.859375	38.003338
510.328613	1014.882263	22832.576172	9429.757813	38.569046
510.679260	1010.331238	22991.861328	9290.951172	37.670811
511.029999	987.576050	23171.628906	9757.433594	39.532261
511.380585	1017.157776	23201.210938	9397.901367	37.778233
511.731140	960.269775	23362.771484	9730.126953	39.146778
512.081726	1008.055725	23556.191406	9914.444336	39.499447
512.432129	1039.912964	23692.722656	9880.311523	39.025616
512.782654	978.473938	24061.357422	9898.515625	38.643536
513.133057	955.718750	23738.232422	9805.218750	38.843388
513.483398	989.851563	23968.060547	10025.944336	39.324619
513.833801	983.024963	24152.376953	10132.894531	39.491261
514.183960	1026.259888	23189.832031	9989.536133	40.441479
514.534302	983.024963	23406.007813	10016.842773	40.288208
514.884460	946.616638	23410.558594	9652.758789	38.756077
515.234619	953.443237	23091.984375	9655.035156	39.305172
515.584717	996.678101	23228.515625	9825.699219	39.713413
515.934753	898.830688	23228.515625	9823.422852	39.967388
516.284851	932.963501	23522.058594	9846.178711	39.458042
516.634766	948.892151	23239.894531	9916.719727	40.230705
516.984741	964.820801	24375.378906	10146.546875	39.220451
517.334595	1028.535400	24841.861328	10303.558594	38.948879
517.684448	994.402588	25497.210938	10733.631836	39.747402
518.034363	1014.882263	26805.634766	11052.204102	38.918301
518.384094	937.514587	27913.814453	11632.461914	39.645714
518.733826	969.371887	29092.533203	11668.871094	38.045151
519.083496	978.473938	29463.443359	12210.444336	39.431221
519.433167	962.545288	29993.640625	12312.842773	39.097034
519.782776	937.514587	29716.025391	12335.598633	39.606232
520.132324	944.341125	29001.511719	12094.392578	39.740471
520.481873	944.341125	28471.316406	12023.851563	40.249649
520.831299	1049.015137	27925.191406	11516.411133	38.946747
521.180786	930.687988	26867.074219	11416.288086	40.428143
521.530151	998.953613	26491.613281	11156.878906	39.846474
521.879517	1019.433350	26300.468750	11024.898438	39.576958
522.228882	953.443237	26352.806641	10820.101563	38.846085
522.578064	987.576050	25906.804688	10704.049805	38.991871
522.927307	930.687988	26020.580078	10792.794922	39.307095
523.276489	935.239075	25786.201172	10977.112305	40.408386
523.625610	976.198425	26459.755859	11127.296875	39.833916
523.974792	992.127075	27005.880859	11111.368164	38.899582
524.323792	889.728638	27486.015625	11423.114258	39.604721
524.672852	1012.606750	27542.904297	11361.675781	39.008495
525.021790	992.127075	28767.134766	11971.514648	39.529739
525.370728	1003.504700	30485.152344	12558.599609	39.194195
525.719604	973.922913	31427.218750	12988.672852	39.453037
526.068420	919.310425	33479.738281	13889.779297	39.835068
526.417297	932.963501	35088.531250	14224.280273	38.914055
526.765991	951.167725	35894.066406	14790.884766	39.606667
527.114746	964.820801	37357.226563	15173.172852	39.042076
527.463379	1019.433350	38074.015625	15837.625000	39.990173
527.812012	976.198425	40579.363281	16522.556641	39.255344
528.160706	996.678101	44131.449219	18063.083984	39.565311
528.509155	1012.606750	49189.933594	20452.380859	40.350460
528.857727	1062.668213	53458.808594	22429.808594	40.779991
529.206177	951.167725	56300.937500	24489.154297	42.525898
529.554565	1003.504700	56191.710938	24377.654297	42.353523
529.902893	994.402588	54935.625000	23355.945313	41.455387
530.251221	957.994263	52339.253906	21883.683594	40.726307
530.599548	1008.055725	48313.859375	20056.439453	40.266479
530.947876	951.167725	44802.730469	18704.781250	40.485703
531.296021	914.759338	41305.253906	17150.599609	40.197178
531.644165	1017.157776	38961.468750	15862.655273	39.124432
531.992249	980.749451	37025.000000	15132.212891	39.261364
532.340454	962.545288	36335.515625	14822.742188	39.183018
532.688354	983.024963	36740.558594	14679.384766	38.303421
533.036438	951.167725	37864.667969	15564.562500	39.588211
533.384338	967.096313	39432.500000	16483.873047	40.339565
533.732239	1012.606750	41605.621094	17018.619141	39.430458
534.080139	932.963501	42103.960938	17309.886719	39.777817
534.427917	946.616638	41940.125000	16829.751953	38.745491
534.775757	932.963501	39448.429688	16137.993164	39.477726
535.123474	1033.086426	38074.015625	15453.061523	38.929840
535.471191	896.555176	35598.246094	14597.465820	39.481968
535.818848	1019.433350	34287.546875	13946.666992	38.857731
536.166382	989.851563	33807.414063	13675.879883	38.656216
536.513977	921.585938	33406.921875	13814.686523	39.688988
536.861511	946.616638	34207.902344	14158.290039	39.720875
537.208984	1030.810913	33928.015625	14062.718750	39.614033
537.556396	939.790100	33862.023438	13976.249023	39.597736
537.903809	976.198425	32872.171875	13741.870117	40.022835
538.251160	935.239075	32066.638672	13257.184570	39.580441
538.598389	1001.229126	30960.736328	12508.538086	38.409538
538.945740	1046.739624	29486.199219	12549.497070	40.446472
539.292969	969.371887	29192.656250	12162.658203	39.659756
539.640137	898.830688	29256.371094	12312.842773	40.250359
539.987244	946.616638	29422.484375	12224.097656	39.603645
540.334351	951.167725	30228.017578	12736.089844	40.253380
540.681458	994.402588	32282.814453	13741.870117	40.741817
541.028442	978.473938	35184.101563	14811.365234	40.440395
541.375366	971.647400	38706.609375	16415.607422	40.927456
541.722290	960.269775	41466.816406	17937.929688	41.913372
542.069153	978.473938	43143.875000	18459.025391	41.457096
542.416016	1012.606750	43473.824219	18777.597656	41.838154
542.762756	989.851563	42204.085938	18047.156250	41.386925
543.109558	944.341125	40850.148438	17189.283203	40.708214
543.456299	894.279663	38672.476563	16329.137695	40.856525
543.802917	951.167725	37111.468750	15990.084961	41.589581
544.149536	962.545288	35668.789063	15157.244141	40.899555
544.496094	985.300537	33263.562500	13948.942383	40.162144
544.842651	1014.882263	31766.269531	13405.092773	40.291553
545.189148	912.483826	29968.609375	12874.896484	41.170021
545.535583	917.034912	29158.523438	12631.416016	41.479332
545.882019	960.269775	28459.939453	12572.251953	42.225899
546.228333	962.545288	27904.710938	12551.772461	43.015205
546.574707	967.096313	28334.785156	12449.374023	41.955597
546.920898	948.892151	28414.427734	12472.129883	41.955261
547.267212	1010.331238	28339.335938	12240.026367	41.090759
547.613342	1001.229126	27868.302734	12128.525391	41.416107
547.959473	1021.708862	27856.925781	11875.943359	40.447723
548.305664	914.759338	27094.626953	11516.411133	40.495438
548.651611	1033.086426	25761.171875	11181.909180	41.041683
548.997742	992.127075	24564.246094	10619.855469	40.843712
549.343689	946.616638	23660.865234	10103.312500	40.312565
549.689575	951.167725	22741.554688	9711.922852	40.204678
550.035522	896.555176	21897.335938	9290.951172	39.971828
550.381287	1001.229126	21128.210938	8995.133789	39.717354
550.727173	1017.157776	21094.078125	8733.449219	38.433643
551.072876	983.024963	20452.380859	8653.805664	39.399254
551.418640	987.576050	20293.093750	8567.335938	39.262142
551.764282	923.861450	20463.757813	8555.958008	39.059044
552.109863	967.096313	20309.023438	8437.630859	38.623528
552.455505	994.402588	20861.974609	8528.652344	37.922348
552.801025	1008.055725	20846.046875	8428.529297	37.405369
553.146545	969.371887	21210.128906	8644.703125	37.920177
553.491943	953.443237	21075.873047	8530.927734	37.656906
553.837341	992.127075	21464.988281	8569.611328	37.012337
554.182800	996.678101	21221.507813	8467.212891	36.937443
554.528015	1010.331238	20670.830078	8155.466797	36.342598
554.873352	964.820801	19983.623047	8137.262207	37.712372
555.218628	978.473938	20179.318359	8005.282227	36.596352
555.563721	935.239075	19756.072266	7875.577637	36.875828
555.908875	987.576050	19323.722656	7793.658691	37.118389
556.254028	930.687988	19057.486328	7559.280273	36.567913
556.599121	942.065613	18859.515625	7616.167969	37.249176
556.944031	903.381775	18745.740234	7347.656738	36.117840
557.289063	996.678101	18666.097656	7361.309570	36.020603
557.633972	960.269775	18704.781250	7297.595215	35.714283
557.978882	969.371887	18593.281250	7249.809082	35.635887
558.323792	994.402588	18352.076172	7195.196777	35.723644
558.668518	998.953613	17846.910156	7079.145020	36.088596
559.013306	1003.504700	18176.859375	7190.645508	36.027557
559.358032	987.576050	17931.103516	7095.073730	36.046200
559.702637	1014.882263	18049.431641	6926.685547	34.704784
560.047363	994.402588	18272.431641	7076.869629	35.203476
560.391846	1019.433350	18047.156250	6956.267090	34.865696
560.736450	964.820801	17926.552734	7001.777344	35.591625
561.080933	948.892151	18256.503906	7122.379883	35.669209
561.425354	939.790100	18092.666016	7022.257324	35.460339
561.769775	957.994263	18461.300781	7104.175781	35.114403
562.114136	1012.606750	18368.003906	7206.574219	35.688999
562.458496	1001.229126	18374.830078	7126.931152	35.258678
562.802673	951.167725	18456.750000	7035.910156	34.758869
563.146912	980.749451	18149.554688	6960.818359	34.831013
563.491150	946.616638	18003.919922	6969.920410	35.312168
563.835266	980.749451	18181.412109	6951.715820	34.713585
564.179443	948.892151	18167.757813	7024.532715	35.284790
564.523438	894.279663	18333.871094	6974.471191	34.864300
564.867493	973.922913	18072.185547	6894.828125	34.628696
565.211426	1003.504700	18170.033203	7111.002441	35.577942
565.555359	928.412476	18882.271484	7076.869629	34.245880
565.899231	987.576050	19184.916016	7199.748047	34.137802
566.243042	1008.055725	19794.755859	7465.983887	34.375004
566.586914	973.922913	20065.542969	7698.086914	35.220501
566.930603	998.953613	20318.125000	7641.198730	34.381626
567.274292	989.851563	20243.033203	7575.208984	34.203995
567.617981	978.473938	20281.716797	7472.810547	33.643761
567.961609	996.678101	20126.982422	7643.474609	34.744854
568.305237	951.167725	19726.490234	7302.146484	33.826202
568.648682	1021.708862	19574.029297	7113.277832	32.834538
568.992188	955.718750	19182.640625	7165.615234	34.069912
569.335632	969.371887	18859.515625	7001.777344	33.719154
569.679016	1026.259888	18820.832031	7001.777344	33.580563
570.022461	919.310425	18934.609375	6824.287109	32.777565
570.365662	939.790100	18818.556641	6913.032227	33.409702
570.708984	969.371887	18775.322266	6878.899414	33.188496
571.052185	942.065613	19280.488281	6979.022461	32.919720
571.395386	989.851563	19175.814453	7070.042969	33.433430
571.738525	1010.331238	19815.234375	7133.757813	32.562927
572.081604	1001.229126	20229.380859	7315.799316	32.840233
572.424683	978.473938	20372.738281	7281.666504	32.500294
572.767578	1039.912964	20791.433594	7500.116699	32.707371
573.110596	1062.668213	20513.820313	7233.880859	31.726721
573.453552	962.545288	20450.105469	7418.197754	33.127041
573.796387	1033.086426	20202.074219	7133.757813	31.825735
574.139282	948.892151	20154.287109	7076.869629	31.907585
574.481995	962.545288	19899.429688	6985.848633	31.807255
574.824768	1008.055725	19742.417969	6847.041992	31.167255
575.167480	992.127075	19840.265625	6924.409668	31.474104
575.510132	980.749451	19314.621094	6979.022461	32.716892
575.852722	894.279663	19410.193359	6733.266113	31.534962
576.195251	967.096313	19118.925781	6883.450195	32.593704
576.537842	1014.882263	19159.884766	6753.745605	31.627790
576.880188	948.892151	19023.353516	6826.562500	32.519203
577.222717	998.953613	18404.412109	6635.418457	32.383316
577.565063	1021.708862	17997.093750	6562.602051	32.640751
577.907410	1012.606750	17999.369141	6453.376953	32.029472
578.249756	953.443237	17130.121094	6114.324219	31.903219
578.591919	964.820801	16936.701172	5927.731445	31.072800
578.934204	955.718750	16602.199219	5975.517578	32.082607
579.276306	1005.780212	16279.076172	5736.587891	30.974373
579.618469	937.514587	15960.502930	5738.863281	31.960011
579.960571	928.412476	15962.778320	5540.893066	30.679581
580.302551	1014.882263	15250.540039	5474.902832	31.329922
580.644531	994.402588	15227.785156	5431.667969	31.175060
580.986511	1044.463989	15332.458984	5506.760254	31.231089
581.328369	901.106262	15218.683594	5297.412598	30.705658
581.670227	983.024963	15364.316406	5272.381836	29.825953
582.012024	985.300537	15104.907227	5365.678223	31.023371
582.353821	942.065613	14995.681641	5261.003906	30.731865
582.695496	1005.780212	15050.294922	5085.789063	29.050550
583.037231	1026.259888	14809.089844	5188.187500	30.196466
583.378845	957.994263	14868.252930	5163.156738	30.230658
583.720398	901.106262	14608.843750	5124.472656	30.810091
584.062012	948.892151	14415.423828	5072.135742	30.618454
584.403442	946.616638	14595.190430	5081.237793	30.293428
584.744934	1028.535400	14542.853516	5012.972168	29.483076
585.086365	953.443237	14447.281250	4899.196289	29.241146
585.427734	957.994263	14344.882813	5012.972168	30.290668
585.768982	948.892151	14183.321289	4981.115234	30.467678
586.110291	973.922913	14297.097656	4917.400391	29.598633
586.451599	896.555176	14103.677734	4937.880371	30.599588
586.792725	971.647400	14470.037109	4906.022949	29.146999
587.133850	1010.331238	13987.625977	4753.562988	28.844467
587.474915	971.647400	14376.740234	4983.390625	29.927008
587.815979	989.851563	14358.536133	4901.471680	29.259573
588.157043	939.790100	14549.679688	4792.246582	28.306303
588.497925	926.136963	14408.597656	4673.919922	27.797470
588.838867	1028.535400	14549.679688	4901.471680	28.643553
589.179749	1074.045776	14492.791992	4762.665039	27.488554
589.520569	955.718750	14941.069336	4937.880371	28.473806
589.861450	1023.984375	14979.753906	4771.767090	26.854719
590.202087	951.167725	14902.385742	4762.665039	27.320177
590.542847	964.820801	15148.141602	4728.532227	26.536180
590.883484	969.371887	14909.211914	4721.705566	26.918055
591.224121	930.687988	14781.783203	4685.297363	27.106949
591.564636	901.106262	14888.732422	4676.195313	26.988777
591.905151	962.545288	14827.293945	4712.603516	27.047428
592.245667	976.198425	14563.333008	4680.746094	27.265112
592.585999	1001.229126	14495.067383	4605.654297	26.711639
592.926453	987.576050	14278.892578	4646.613281	27.529531
593.266724	971.647400	14520.098633	4560.143555	26.486393
593.607056	1005.780212	14235.658203	4555.592773	26.831785
593.947388	1028.535400	14319.852539	4512.357910	26.211266
594.287476	1049.015137	14483.689453	4551.041504	26.067074
594.627686	989.851563	14633.874023	4580.623535	26.317547
594.967773	948.892151	15000.233398	4623.858398	26.153849
595.307861	1010.331238	15293.775391	4578.347656	24.980083
595.647888	946.616638	15063.947266	4651.164551	26.241135
595.987854	1001.229126	15334.734375	4644.337891	25.416735
596.327820	998.953613	15628.277344	4676.195313	25.136101
596.667725	853.320313	16201.708008	4887.818848	26.286139
597.007568	939.790100	16556.689453	4810.451172	24.785080
597.347351	1008.055725	17216.589844	4958.359863	24.371756
597.687073	1023.984375	17466.898438	4983.390625	24.079712
598.026794	962.545288	17407.734375	4972.013184	24.380795
598.366455	951.167725	16975.384766	4653.439941	23.104233
598.706116	937.514587	16424.708984	4742.185547	24.566561
599.045654	980.749451	15976.431641	4582.898926	24.021244
599.385193	989.851563	15025.263672	4437.265625	24.562258
599.724731	978.473938	14802.262695	4189.233887	23.226337
600.064087	912.483826	14770.405273	4082.284424	22.873564
600.403564	971.647400	14037.687500	4082.284424	23.807037
600.742920	921.585938	13980.799805	4020.845215	23.732357
601.082153	955.718750	13789.656250	3963.957275	23.439716
601.421387	926.136963	13996.728516	3952.579590	23.154594
601.760620	973.922913	13527.970703	3941.202148	23.636036
602.099854	946.616638	13871.575195	4004.916504	23.661968
602.438843	973.922913	13762.349609	3932.099854	23.131672
602.778015	937.514587	13960.320313	3979.885986	23.361874
603.117065	1042.188477	14617.945313	4123.243652	22.695274
603.456055	873.799988	14827.293945	4159.651855	23.548595
603.794983	983.024963	15059.396484	4214.264648	22.955063
604.133850	969.371887	15737.501953	4378.102051	23.081665
604.472778	996.678101	16229.014648	4378.102051	22.198982
604.811584	953.443237	16706.873047	4430.438965	22.071356
605.150330	948.892151	17339.468750	4687.572754	22.809940
605.489075	948.892151	17318.988281	4646.613281	22.588268
605.827698	948.892151	17328.091797	4528.286621	21.853294
606.166382	971.647400	16806.996094	4409.959473	21.712891
606.504883	985.300537	16376.922852	4400.857422	22.191013
606.843445	985.300537	16031.043945	4257.499512	21.748337
607.181946	876.075500	15546.358398	4077.733398	21.824104
607.520386	951.167725	14961.548828	4041.324951	22.056198
607.858826	942.065613	15004.784180	3975.334961	21.569580
608.197083	1012.606750	14456.383789	3838.803711	21.022343
608.535461	971.647400	14429.077148	3941.202148	22.066284
608.873718	989.851563	14265.240234	3913.895752	22.026052
609.211914	935.239075	14479.138672	3859.283203	21.589382
609.550171	1014.882263	14834.120117	3945.753174	21.208628
609.888245	971.647400	15468.990234	4020.845215	21.032804
610.226318	935.239075	15637.378906	4034.498291	21.080328
610.564392	1023.984375	15905.890625	4041.324951	20.275229
610.902344	1019.433350	15432.582031	4109.590332	21.439848
611.240295	955.718750	15268.744141	3977.610352	21.112879
611.578247	1017.157776	14916.039063	3829.701416	20.235756
611.916138	1008.055725	14595.190430	3850.181152	20.917768
612.253845	964.820801	14128.708984	3672.690674	20.570440
612.591675	953.443237	13939.840820	3788.742188	21.832836
612.929382	955.718750	13598.512695	3779.640137	22.336212
613.267090	989.851563	13236.704102	3508.853027	20.568562
613.604736	985.300537	13170.714844	3449.689453	20.224089
613.942261	955.718750	12959.090820	3438.312012	20.682465
614.279785	971.647400	12804.355469	3451.965088	20.961538
614.617310	955.718750	12508.538086	3333.637939	20.583021
614.954712	921.585938	12353.802734	3317.709229	20.959393
615.292175	973.922913	12262.781250	3242.617188	20.096756
615.629517	944.341125	12397.037109	3345.015625	20.961655
615.966797	1014.882263	12265.056641	3283.576416	20.165857
616.304138	1012.606750	12312.842773	3210.759766	19.452274
616.641296	967.096313	12255.955078	3408.730225	21.628704
616.978516	1014.882263	11978.341797	3219.861816	20.112078
617.315552	971.647400	12001.096680	3351.842041	21.580359
617.652771	923.861450	12342.424805	3235.790527	20.247110
617.989685	998.953613	12296.914063	3185.729004	19.355488
618.326721	994.402588	12331.046875	3231.239502	19.731031
618.663696	987.576050	12121.699219	3292.678711	20.703045
619.000549	1033.086426	12169.485352	3338.188965	20.698814
619.337463	1001.229126	12246.852539	3388.250488	21.226227
619.674194	1008.055725	11966.963867	3203.933350	20.037376
620.010986	964.820801	12244.577148	3299.505127	20.698004
620.347778	971.647400	12044.332031	3272.198975	20.776817
620.684387	942.065613	11561.920898	3131.116699	20.612814
621.020996	951.167725	11787.197266	3117.463379	19.991600
621.357605	910.208313	11871.391602	3096.983887	19.950178
621.694214	967.096313	11607.431641	3160.698486	20.615911
622.030579	935.239075	11571.023438	3040.095703	19.790329
622.367065	1014.882263	11691.625977	3058.300049	19.138960
622.703430	969.371887	11611.982422	3092.432861	19.948687
623.039795	944.341125	11659.768555	3103.810303	20.152899
623.376160	896.555176	11596.053711	3035.544678	19.991493
623.712402	935.239075	11530.063477	3069.677490	20.146049
624.048645	1008.055725	11493.655273	3106.085938	20.008682
624.384766	994.402588	11434.492188	3001.411865	19.224062
624.720886	939.790100	11370.777344	3090.157227	20.615183
625.057007	1019.433350	11778.095703	3044.646729	18.824026
625.392944	944.341125	11748.513672	3231.239502	21.166807
625.729004	923.861450	11625.635742	3101.534912	20.348713
626.064941	1023.984375	11935.106445	3099.259277	19.019812
626.400818	935.239075	12192.240234	3131.116699	19.506773
626.736633	932.963501	12531.292969	3281.301025	20.247204
627.072449	932.963501	12590.457031	3213.035400	19.558851
627.408264	1003.504700	12597.283203	3158.422852	18.586851
627.743896	957.994263	12758.844727	3224.413086	19.205555
628.079590	998.953613	12790.702148	3306.331787	19.567736
628.415161	992.127075	12765.671875	3240.341553	19.095476
628.750793	1014.882263	12262.781250	3172.075928	19.178635
629.086365	955.718750	12228.648438	3176.626953	19.701252
629.421753	942.065613	12071.637695	3242.617188	20.670620
629.757263	919.310425	11805.402344	3074.228516	19.795147
630.092651	960.269775	11928.280273	3062.851074	19.170124
630.427917	960.269775	11348.022461	3117.463379	20.766701
630.763184	976.198425	11402.634766	3056.024414	19.947620
631.098511	942.065613	11309.338867	2873.982666	18.634764
631.433716	1019.433350	11099.990234	2960.452637	19.255081
631.768799	992.127075	11061.306641	3010.513916	20.045197
632.103943	985.300537	10747.285156	2828.472412	18.881119
632.438965	1026.259888	10865.612305	2878.533936	18.825161
632.773987	985.300537	10799.622070	2839.849854	18.896358
633.109070	983.024963	10578.896484	2821.645752	19.160542
633.443848	994.402588	10308.109375	2762.482178	18.983629
633.778870	1021.708862	10647.162109	2912.666504	19.645388
634.113708	1005.780212	10603.926758	2899.013428	19.724987
634.448425	926.136963	10788.244141	2798.890625	18.989386
634.783264	994.402588	10917.949219	2812.543701	18.321486
635.117859	1003.504700	10549.314453	2810.268311	18.927296
635.452576	951.167725	10804.172852	2899.013428	19.769053
635.787170	953.443237	10628.958008	2830.747803	19.402632
636.121704	964.820801	10376.375000	2814.819336	19.656673
636.456177	957.994263	10394.579102	2712.420898	18.591753
636.790588	987.576050	10280.802734	2826.196777	19.784525
637.125122	978.473938	10116.965820	2744.278076	19.322708
637.459412	971.647400	10062.352539	2744.278076	19.499374
637.793762	957.994263	9825.699219	2650.981689	19.091608
638.128052	944.341125	9802.943359	2707.869873	19.907528
638.462280	957.994263	9695.994141	2664.634766	19.531248
638.796509	892.004150	9673.239258	2757.931152	21.249025
639.130615	985.300537	9468.442383	2630.501953	19.393776
639.464722	998.953613	9620.902344	2637.328613	19.002373
639.798767	955.718750	9500.299805	2723.798340	20.692408
640.132751	1035.361938	9240.889648	2632.777588	19.467556
640.466736	1033.086426	9331.911133	2666.910400	19.687416
640.800598	957.994263	9229.512695	2521.277100	18.899588
641.134521	980.749451	8958.725586	2598.644775	20.279520
641.468262	989.851563	9045.195313	2555.409912	19.435028
641.802063	978.473938	9195.379883	2548.583252	19.108278
642.135803	917.034912	8910.939453	2541.756836	20.324511
642.469421	942.065613	8888.184570	2471.215576	19.243984
642.803101	971.647400	8976.929688	2546.307861	19.670267
643.136658	971.647400	8669.734375	2507.624023	19.952705
643.470215	969.371887	8742.550781	2457.562500	19.145201
643.803711	969.371887	8712.968750	2464.388916	19.306496
644.137085	939.790100	8847.224609	2416.603027	18.676260
644.470581	964.820801	8726.622070	2448.460449	19.114632
644.803833	985.300537	8772.132813	2439.358398	18.673292
645.137207	1001.229126	8642.427734	2468.940186	19.207865
645.470459	985.300537	8672.009766	2405.225586	18.472471
645.803589	996.678101	8560.508789	2432.531738	18.983154
646.136780	1039.912964	8772.132813	2380.194824	17.333727
646.469849	1012.606750	8519.549805	2316.480225	17.368902
646.802979	998.953613	8656.081055	2430.256104	18.692421
647.135986	946.616638	8826.745117	2430.256104	18.827604
647.468994	969.371887	8799.438477	2371.092773	17.901775
647.801941	989.851563	8628.774414	2523.552490	20.077450
648.134766	939.790100	8703.867188	2480.317627	19.841734
648.467651	1019.433350	8990.583008	2507.624023	18.669712
648.800354	992.127075	8685.663086	2371.092773	17.923691
649.133179	937.514587	8667.458984	2496.246338	20.164850
649.465881	1060.392700	8790.336914	2459.837891	18.104208
649.798462	917.034912	8699.316406	2448.460449	19.678362
650.131104	976.198425	8533.203125	2423.429688	19.150858
650.463623	992.127075	8815.367188	2382.470215	17.771959
650.796143	973.922913	8724.346680	2468.940186	19.289492
651.128662	1008.055725	8681.112305	2487.144287	19.276394
651.461060	989.851563	8763.030273	2478.042236	19.145201
651.793396	907.932800	8986.031250	2539.481201	20.197184
652.125732	951.167725	8865.428711	2521.277100	19.838989
652.458008	976.198425	8790.336914	2400.674561	18.229469
652.790222	1005.780212	8724.346680	2421.154053	18.337263
653.122437	921.585938	8772.132813	2557.685303	20.840578
653.454529	914.759338	8774.408203	2421.154053	19.166183
653.786621	935.239075	8460.386719	2505.348389	20.864832
654.118713	957.994263	8533.203125	2418.878662	19.285070
654.450623	1017.157776	8544.581055	2505.348389	19.770254
654.782654	946.616638	8489.967773	2450.735840	19.939669
655.114502	989.851563	8453.559570	2405.225586	18.963417
655.446350	1026.259888	8235.109375	2471.215576	20.044193
655.778198	973.922913	8526.375977	2421.154053	19.162399
656.109863	1001.229126	8405.773438	2364.266113	18.408113
656.441650	985.300537	8310.202148	2421.154053	19.602360
656.773254	1023.984375	8273.793945	2402.949951	19.020714
657.104919	962.545288	8291.998047	2327.857666	18.627754
657.436462	998.953613	8255.589844	2393.847900	19.222326
657.767944	957.994263	8357.988281	2498.521729	20.817955
658.099548	983.024963	8451.284180	2377.919189	18.677635
658.430908	1058.117188	8535.478516	2459.837891	18.746195
658.762268	919.310425	8840.398438	2478.042236	19.678255
659.093628	1014.882263	9081.603516	2619.124512	19.887165
659.424927	944.341125	9284.125000	2557.685303	19.345156
659.756226	989.851563	9589.044922	2669.185791	19.528975
660.087341	953.443237	9805.218750	2771.584229	20.539846
660.418518	983.024963	9766.535156	2732.900391	19.922281
660.749573	937.514587	9650.483398	2746.553711	20.762602
661.080627	964.820801	9541.258789	2760.206787	20.933937
661.411621	971.647400	9347.839844	2644.155273	19.967400
661.742554	971.647400	9270.471680	2610.022461	19.742254
662.073547	994.402588	9024.715820	2596.369141	19.948992
662.404297	937.514587	8872.255859	2544.032227	20.246628
662.735229	1030.810913	8378.467773	2553.134277	20.718489
663.065979	953.443237	8606.019531	2489.419678	20.071363
663.396667	937.514587	8419.426758	2441.633789	20.103405
663.727417	1028.535400	8153.190918	2416.603027	19.482594
664.057922	998.953613	7993.904785	2412.052002	20.201691
664.388611	939.790100	8037.139648	2423.429688	20.904137
664.719116	992.127075	7868.750977	2398.398926	20.450033
665.049622	978.473938	7720.842285	2357.439453	20.452244
665.380005	953.443237	7732.219727	2389.296875	21.181604
665.710388	994.402588	7682.158203	2298.276123	19.496428
666.040771	946.616638	7764.077148	2307.378174	19.959948
666.371033	1001.229126	7679.882813	2298.276123	19.420786
666.701294	992.127075	7459.157227	2284.622803	19.985924
667.031555	967.096313	7568.382324	2298.276123	20.165461
667.361633	964.820801	7711.740234	2318.755615	20.067451
667.691772	1019.433350	7561.555664	2343.786377	20.243477
668.021790	980.749451	7399.993652	2357.439453	21.446293
668.351807	932.963501	7816.414063	2186.775391	18.214874
668.681763	962.545288	7463.708008	2352.888428	21.386070
669.011719	951.167725	7563.831055	2373.368164	21.507227
669.341614	942.065613	7561.555664	2357.439453	21.381914
669.671387	960.269775	7700.362305	2302.827148	19.918974
670.001221	930.687988	7638.923340	2441.633789	22.523745
670.330933	944.341125	7645.750000	2409.776611	21.867575
670.660583	946.616638	7643.474609	2473.491211	22.799864
670.990173	944.341125	7677.607422	2361.990479	21.054409
671.319763	994.402588	7420.473145	2352.888428	21.140226
671.649292	960.269775	7495.565430	2296.000488	20.438719
671.978821	960.269775	7327.176758	2314.204590	21.265188
672.308289	973.922913	7313.523926	2350.613037	21.715723
672.637695	980.749451	7390.891602	2291.449463	20.447285
672.966980	1026.259888	7281.666504	2273.245361	19.934523
673.296326	1012.606750	7390.891602	2343.786377	20.870497
673.625610	967.096313	7277.115723	2266.418701	20.591415
673.954773	994.402588	7161.063965	2241.387939	20.221403
674.283936	1042.188477	7283.941895	2366.541748	21.217648
674.613037	971.647400	6972.195801	2350.613037	22.980659
674.942078	1014.882263	7085.971680	2323.306641	21.551722
675.271118	926.136963	7136.033203	2330.133301	22.609013
675.600098	1021.708862	7060.940918	2366.541748	22.268276
675.928955	957.994263	7045.012207	2250.489990	21.233644
676.257813	960.269775	7099.625000	2293.724854	21.719790
676.586670	948.892151	7008.604004	2311.929199	22.493431
676.915466	1008.055725	7124.655762	2214.081787	19.717262
677.244141	992.127075	7056.390137	2218.632813	20.225140
677.572876	962.545288	7017.706055	2261.867676	21.458099
677.901489	964.820801	6940.338379	2416.603027	24.295506
678.230042	1028.535400	6935.787598	2218.632813	20.146379
678.558594	1019.433350	7029.083984	2321.031250	21.658463
678.887085	937.514587	7042.736816	2348.337402	23.108459
679.215515	942.065613	6994.951172	2446.184814	24.849621
679.543945	992.127075	7279.391113	2307.378174	20.919291
679.872253	1019.433350	7113.277832	2343.786377	21.732635
680.200562	1008.055725	7343.105469	2418.878662	22.270117
680.528809	962.545288	7418.197754	2398.398926	22.241806
680.856995	930.687988	7618.443848	2359.715088	21.367811
681.185120	939.790100	7864.199707	2491.695313	22.412094
681.513306	957.994263	7850.546875	2421.154053	21.228127
681.841309	1046.739624	7707.188965	2516.726074	22.070379
682.169373	919.310425	7607.065918	2421.154053	22.456617
682.497314	1019.433350	7632.096680	2427.980713	21.300758
682.825134	887.453125	7557.004395	2471.215576	23.746162
683.153076	987.576050	7657.127441	2498.521729	22.654383
683.480896	978.473938	7379.514160	2498.521729	23.746889
683.808655	1008.055725	7454.605957	2427.980713	22.026123
684.136414	1028.535400	7099.625000	2430.256104	23.088453
684.464050	987.576050	7051.838867	2466.664551	24.390245
684.791626	962.545288	6812.909180	2421.154053	24.931932
685.119263	1001.229126	6810.633789	2343.786377	23.110065
685.446838	1085.423462	6724.164063	2277.796387	21.146086
685.774292	944.341125	6646.796387	2286.898438	23.543497
686.101685	935.239075	6769.674316	2257.316650	22.659908
686.429077	942.065613	6585.357422	2257.316650	23.306450
686.756348	907.932800	6553.500000	2282.347412	24.345020
687.083679	921.585938	6553.500000	2293.724854	24.363634
687.410950	989.851563	6546.673340	2264.143311	22.932024
687.738159	953.443237	6478.407715	2250.489990	23.476110
688.065308	964.820801	6696.857910	2359.715088	24.335052
688.392395	980.749451	6692.306641	2361.990479	24.183264
688.719421	978.473938	6592.183594	2325.582275	23.996759
689.046448	1003.504700	6635.418457	2327.857666	23.515152
689.373413	973.922913	6496.611816	2293.724854	23.897816
689.700317	939.790100	6512.540527	2466.664551	27.398939
690.027100	1028.535400	6726.439453	2325.582275	22.763578
690.353943	932.963501	6426.070801	2225.459229	23.529409
690.680725	953.443237	6305.468262	2300.551514	25.170067
691.007446	1012.606750	6284.988281	2316.480225	24.730259
691.334106	1026.259888	6002.823730	2198.153076	23.548239
691.660645	983.024963	6107.498047	2198.153076	23.712255
691.987244	1026.259888	6061.987305	2248.214600	24.265703
692.313721	1008.055725	5964.140137	2161.744873	23.278240
692.640259	996.678101	5895.874512	2129.887451	23.130516
692.966675	1074.045776	5838.986328	2123.060791	22.015282
693.293030	971.647400	5916.354004	2198.153076	24.804417
693.619324	1044.463989	5791.200684	2150.367188	23.298178
693.945618	969.371887	5925.456055	2132.163086	23.461895
694.271851	939.790100	5838.986328	2138.989502	24.477474
694.598083	973.922913	5609.158691	2154.918213	25.478647
694.924194	932.963501	5775.271973	2154.918213	25.234962
695.250244	967.096313	5593.229980	2084.376953	24.151499
695.576294	1003.504700	5732.037109	2129.887451	23.820982
695.902283	964.820801	5584.127930	2175.397949	26.206900
696.228210	928.412476	5625.087402	2182.224365	26.695736
696.554138	996.678101	5768.445313	2134.438477	23.843586
696.879944	939.790100	5852.639648	2220.908203	26.076885
697.205750	969.371887	5877.670410	2136.714111	23.783035
697.531433	951.167725	5952.762207	2309.653564	27.161055
697.857178	921.585938	6021.027832	2264.143311	26.327536
698.182739	987.576050	6155.283691	2277.796387	24.966976
698.508423	944.341125	6628.592285	2398.398926	25.580465
698.833984	971.647400	6787.878418	2459.837891	25.586853
699.159485	971.647400	6833.389160	2450.735840	25.232916
699.484924	973.922913	7113.277832	2498.521729	24.833210
699.810303	921.585938	7393.166992	2553.134277	25.210970
700.135681	939.790100	7190.645508	2523.552490	25.336731
700.460999	889.728638	7129.206543	2605.471436	27.498178
700.786255	973.922913	6958.542480	2427.980713	24.296579
701.111450	866.973450	6787.878418	2382.470215	25.595697
701.436646	969.371887	6494.336426	2252.765625	23.228996
701.761719	1060.392700	6360.080566	2261.867676	22.670673
702.086792	973.922913	6362.355957	2266.418701	23.986488
702.411865	987.576050	5970.966797	2207.255127	24.474884
702.736816	1001.229126	5791.200684	2127.612061	23.515440
703.061646	937.514587	5763.894043	2184.500000	25.836870
703.386536	1010.331238	5656.944824	2109.407715	23.653276
703.711365	1033.086426	5326.994141	2061.621826	23.953365
704.036194	1044.463989	5306.514648	2041.142212	23.384945
704.360901	1019.433350	5342.922852	2063.897461	24.157898
704.685547	1023.984375	5199.564941	2059.346436	24.795643
705.010132	994.402588	5279.208496	1961.498901	22.570366
705.334717	964.820801	5067.584961	2045.693237	26.344980
705.659302	973.922913	5163.156738	2013.835938	24.823467
705.983765	973.922913	4965.186523	1943.294800	24.287342
706.308228	980.749451	5119.921875	2022.937988	25.178669
706.632568	967.096313	5156.330078	1879.580200	21.781641
706.956909	953.443237	5042.554199	1938.743774	24.095716
707.281189	951.167725	5076.687012	1902.335449	23.055708
707.605408	939.790100	5067.584961	1975.152100	25.082691
707.929626	967.096313	4874.165527	1902.335449	23.937101
708.253784	892.004150	5144.952637	1936.468262	24.558590
708.577820	989.851563	5008.421387	2002.458252	25.198185
708.901855	964.820801	4999.319336	2047.968750	26.847153
709.225830	960.269775	5076.687012	2009.284912	25.483694
709.549805	1003.504700	5067.584961	1975.152100	23.908175
709.873718	971.647400	4937.880371	1993.356201	25.760181
710.197510	1005.780212	5188.187500	1977.427612	23.231773
710.521362	962.545288	5069.860352	1981.978638	24.819946
710.845093	1001.229126	5190.462891	2047.968750	24.986422
711.168701	989.851563	5320.167480	2009.284912	23.541779
711.492432	953.443237	5349.749512	1961.498901	22.929605
711.816040	1021.708862	5370.229004	2127.612061	25.431715
712.139587	923.861450	5486.280762	2034.315552	24.339149
712.463074	994.402588	5342.922852	2113.958740	25.745680
712.786499	946.616638	5361.126953	2011.560425	24.123714
713.109924	944.341125	5317.892090	2091.203613	26.222687
713.433350	948.892151	5358.851563	2125.336426	26.676987
713.756592	1055.841675	5122.197266	2013.835938	23.559038
714.079834	955.718750	5169.983398	2020.662476	25.269978
714.403015	1014.882263	5158.605469	1893.233276	21.197145
714.726196	996.678101	5188.187500	1936.468262	22.421284
715.049255	1012.606750	4992.492676	1981.978638	24.356775
715.372375	939.790100	4997.043457	2038.866699	27.089180
715.695435	960.269775	5049.380859	2027.489014	26.099052
716.018311	967.096313	5081.237793	2004.733887	25.221241
716.341248	923.861450	5044.829590	1968.325439	25.345112
716.664063	1026.259888	4994.768066	1950.121338	23.279816
716.987000	939.790100	5051.656250	1959.223389	24.792473
717.309692	989.851563	4906.022949	2022.937988	26.380011
717.632385	951.167725	4919.675781	1902.335449	23.967892
717.955078	948.892151	4667.093262	1961.498901	27.233780
718.277649	1005.780212	4710.328125	1877.304688	23.525799
718.600220	957.994263	4819.553223	1879.580200	23.865644
718.922791	1008.055725	4573.796875	1915.988525	25.462667
719.245300	985.300537	4587.449707	1745.324463	21.099180
719.567688	996.678101	4475.949219	1743.048950	21.451933
719.890015	976.198425	4548.766113	1872.753662	25.095543
720.212341	967.096313	4423.612305	1772.630737	23.304808
720.534607	937.514587	4428.163574	1795.385864	24.576269
720.856873	937.514587	4296.183105	1863.651489	27.574526
721.179016	937.514587	4232.468750	1738.497925	24.309393
721.501160	894.279663	4118.692871	1779.457275	27.452364
721.823242	953.443237	4184.682617	1749.875488	24.647888
722.145264	1064.943726	4068.631104	1711.191650	21.515152
722.467224	1003.504700	4109.590332	1749.875488	24.029305
722.789185	951.167725	4089.110840	1702.089600	23.930386
723.111023	951.167725	4102.764160	1781.732788	26.353788
723.432861	960.269775	4100.488281	1677.058838	22.826088
723.754578	948.892151	4089.110840	1706.640625	24.130436
724.076294	967.096313	3979.885986	1727.120239	25.226585
724.397949	946.616638	3925.273438	1743.048950	26.737968
724.719666	976.198425	3941.202148	1747.599976	26.016884
725.041260	985.300537	4109.590332	1702.089600	22.942465
725.362732	973.922913	3948.028564	1702.089600	24.483551
725.684265	914.759338	3988.988037	1601.966675	22.353813
726.005676	930.687988	4048.151611	1692.987427	24.452553
726.327087	928.412476	3988.988037	1654.303589	23.717470
726.648438	885.177612	4020.845215	1754.426514	27.721336
726.969666	976.198425	4200.611328	1649.752563	20.889202
727.290894	948.892151	4182.407227	1638.375000	21.323013
727.612061	1001.229126	4139.172363	1822.692139	26.178389
727.933228	964.820801	4277.979004	1758.977539	23.969780
728.254395	951.167725	4284.805664	1781.732788	24.914675
728.575378	987.576050	4248.397461	1758.977539	23.656662
728.896301	953.443237	4182.407227	1843.171875	27.554617
729.217285	1058.117188	4293.907715	1752.151001	21.448664
729.538147	1042.188477	4332.591797	1797.661377	22.959887
729.858948	992.127075	4237.019531	1720.293701	22.440392
730.179810	980.749451	4396.306152	1738.497925	22.185211
730.500549	957.994263	4268.876953	1761.253052	24.261166
730.821228	996.678101	4232.468750	1658.854614	20.464134
731.141846	998.953613	4293.907715	1738.497925	22.444754
731.462402	967.096313	4330.315918	1729.395752	22.665764
731.782898	1005.780212	4480.500488	1809.039063	23.117224
732.103455	942.065613	4555.592773	1784.008301	23.299747
732.423889	971.647400	4530.562012	1781.732788	22.762148
732.744263	983.024963	4359.897949	1820.416626	24.797842
733.064636	973.922913	4364.448730	1793.110352	24.161074
733.384888	901.106262	4473.673828	1768.079712	24.267517
733.705200	998.953613	4343.969238	1811.314575	24.285715
734.025330	978.473938	4353.071289	1809.039063	24.612272
734.345520	1033.086426	4439.541016	1777.181763	21.843689
734.665527	969.371887	4341.693848	1877.304688	26.923075
734.985596	932.963501	4218.815430	1761.253052	25.207756
735.305542	998.953613	4200.611328	1765.804199	23.951674
735.625549	994.402588	4000.365479	1790.834839	26.495079
735.945435	1010.331238	4114.141602	1706.640625	22.434019
736.265259	896.555176	4057.253662	1686.160889	24.982000
736.585083	905.657288	4036.773926	1697.538574	25.290699
736.904785	987.576050	3836.528076	1729.395752	26.038336
737.224426	962.545288	3932.099854	1711.191650	25.210728
737.544128	969.371887	3936.650879	1645.201538	22.776073
737.863708	978.473938	3891.140625	1631.548462	22.421875
738.183289	939.790100	3922.997803	1690.711914	25.171623
738.502808	951.167725	3984.437012	1638.375000	22.655663
738.822205	1005.780212	3954.855225	1761.253052	25.617281
739.141541	946.616638	3954.855225	1690.711914	24.735249
739.460938	1049.015137	3970.783691	1658.854614	20.872272
739.780212	994.402588	4123.243652	1624.721802	20.145452
740.099426	932.963501	3934.375488	1699.814087	25.549660
740.418640	987.576050	3979.885986	1827.243164	28.060833
740.737793	935.239075	4070.906738	1736.222412	25.544268
741.056885	957.994263	4050.427002	1795.385864	27.078733
741.375977	983.024963	4054.978027	1692.987427	23.111111
741.694946	953.443237	3888.864990	1731.671387	26.511629
742.013855	926.136963	3872.936523	1658.854614	24.864862
742.332703	976.198425	3877.487549	1667.956787	23.843138
742.651550	969.371887	3893.416016	1774.906250	27.548639
742.970398	878.351013	3672.690674	1752.151001	31.270357
743.289124	939.790100	3638.557861	1747.599976	29.932545
743.607788	971.647400	3800.119629	1604.242188	22.365248
743.926453	978.473938	3770.538086	1733.946899	27.057865
744.245056	994.402588	3704.547852	1620.170776	23.089840
744.563599	955.718750	3661.312988	1586.037964	23.296886
744.882141	944.341125	3718.200928	1652.028076	25.512714
745.200500	942.065613	3574.843262	1663.405762	27.398447
745.518860	983.024963	3659.037354	1670.232300	25.680275
745.837219	939.790100	3583.945313	1599.691162	24.956970
746.155518	951.167725	3542.985840	1606.517700	25.285337
746.473755	946.616638	3486.097900	1508.670288	22.132618
746.791992	998.953613	3681.792725	1663.405762	24.766754
747.110107	955.718750	3461.067139	1633.823975	27.066305
747.428162	985.300537	3618.078125	1706.640625	27.398443
747.746216	983.024963	3465.618164	1597.415649	24.747940
748.064148	1010.331238	3536.159424	1611.068726	23.783783
748.382080	1028.535400	3433.760986	1599.691162	23.746452
748.700073	987.576050	3383.699463	1640.650513	27.255459
749.017822	1014.882263	3531.608398	1611.068726	23.688969
749.335632	985.300537	3461.067139	1599.691162	24.816177
749.653320	1021.708862	3540.710449	1640.650513	24.570913
749.971008	921.585938	3583.945313	1642.926025	27.094017
750.288696	994.402588	3504.302002	1597.415649	24.025387
750.606262	921.585938	3561.189941	1638.375000	27.155174
750.923828	935.239075	3579.394287	1611.068726	25.559378
751.241272	946.616638	3545.261475	1638.375000	26.619967
751.558716	957.994263	3522.506104	1633.823975	26.353153
751.876038	983.024963	3508.853027	1611.068726	24.864866
752.193481	1001.229126	3497.475586	1690.711914	27.620781
752.510681	889.728638	3467.893799	1579.211426	26.743160
752.827942	957.994263	3431.485352	1611.068726	26.402943
753.145081	939.790100	3440.587402	1579.211426	25.568699
753.462219	955.718750	3495.199951	1652.028076	27.419353
753.779297	980.749451	3385.974854	1615.619751	26.395460
754.096375	951.167725	3404.179199	1620.170776	27.272724
754.413330	1012.606750	3431.485352	1520.047852	20.978361
754.730286	989.851563	3360.944336	1590.588989	25.335888
755.047119	1003.504700	3379.148438	1620.170776	25.957851
755.363892	1008.055725	3349.566650	1535.976563	22.546162
755.680725	919.310425	3370.046387	1576.935913	26.833797
755.997498	985.300537	3317.709229	1590.588989	25.951218
756.314148	978.473938	3308.607178	1645.201538	28.613281
756.630737	976.198425	3390.525879	1661.130127	28.369463
756.947327	998.953613	3356.393066	1590.588989	25.096525
757.263855	980.749451	3194.831299	1563.282837	26.310383
757.580261	1010.331238	3322.260254	1554.180664	23.523623
757.896729	996.678101	3324.535889	1581.486938	25.122189
758.213074	971.647400	3502.026611	1590.588989	24.460428
758.529419	1017.157776	3440.587402	1588.313477	23.568073
758.845642	971.647400	3436.036377	1661.130127	27.977837
759.161865	1046.739624	3547.536865	1604.242188	22.292992
759.478149	1010.331238	3445.138428	1595.140137	24.018696
759.794189	957.994263	3542.985840	1597.415649	24.735916
760.110229	987.576050	3529.332764	1601.966675	24.171888
760.426270	960.269775	3504.302002	1636.099487	26.565296
760.742249	978.473938	3413.281250	1622.446289	26.448595
761.058105	992.127075	3556.638916	1642.926025	25.377110
761.374023	971.647400	3568.016602	1656.579102	26.380367
761.689819	976.198425	3524.781738	1629.272949	25.625002
762.005554	1037.637451	3558.914551	1640.650513	23.916969
762.321289	932.963501	3561.189941	1715.742676	29.783550
762.636902	967.096313	3549.812500	1592.864502	24.229073
762.952515	1021.708862	3634.006836	1579.211426	21.341463
763.268127	937.514587	3686.343750	1683.885376	27.152317
763.583618	983.024963	3761.435791	1722.569214	26.617527
763.899048	992.127075	4152.825684	1772.630737	24.694023
764.214478	1019.433350	4612.480469	1893.233276	24.319189
764.529785	919.310425	4778.593750	2047.968750	29.245283
764.845093	964.820801	5006.145996	2041.142212	26.632883
765.160400	978.473938	4874.165527	2009.284912	26.460283
765.475586	964.820801	4874.165527	1952.396851	25.261932
765.790771	980.749451	4612.480469	1991.080688	27.819551
766.105835	973.922913	4434.990234	1838.620850	24.983562
766.420837	951.167725	4116.416992	1879.580200	29.331417
766.735840	935.239075	4082.284424	1818.141113	28.054951
767.050842	969.371887	3822.875000	1788.559326	28.708132
767.365662	1023.984375	3852.456787	1758.977539	25.985516
767.680542	992.127075	3643.108887	1572.384888	21.888411
767.995300	926.136963	3483.822266	1729.395752	31.405693
768.309998	969.371887	3520.230713	1654.303589	26.851023
768.624817	987.576050	3467.893799	1688.436401	28.256876
768.939392	951.167725	3506.577637	1595.140137	25.200357
769.254028	996.678101	3272.198975	1633.823975	28.000000
769.568481	969.371887	3281.301025	1620.170776	28.149603
769.882935	921.585938	3360.944336	1592.864502	27.518652
770.197388	992.127075	3274.474365	1499.568237	22.233303
770.511841	871.524475	3183.453613	1572.384888	30.314960
770.826172	923.861450	3183.453613	1545.078613	27.492445
771.140442	980.749451	3188.004639	1506.394775	23.814434
771.454651	989.851563	3185.729004	1608.793213	28.186529
771.768860	937.514587	3035.544678	1551.905151	29.284164
772.082886	992.127075	3172.075928	1542.803101	25.260962
772.397034	994.402588	3046.922363	1545.078613	26.829268
772.711060	935.239075	2994.585449	1495.017212	27.182320
773.025024	996.678101	3028.718262	1540.527588	26.763718
773.338928	919.310425	3062.851074	1540.527588	28.980892
773.652771	973.922913	3081.055176	1501.843750	25.053995
773.966614	1001.229126	2942.248291	1565.558350	29.073862
774.280457	971.647400	2962.728027	1563.282837	29.714289
774.594116	976.198425	2914.942139	1472.261963	25.586855
774.907776	978.473938	2928.595215	1495.017212	26.487751
775.221375	889.728638	2917.217773	1495.017212	29.854097
775.534912	960.269775	2965.003662	1429.027100	23.382521
775.848450	939.790100	2962.728027	1551.905151	30.258715
776.161926	1023.984375	2889.911377	1483.639526	24.634144
776.475342	939.790100	2871.707275	1488.190552	28.386333
776.788696	998.953613	2896.738037	1460.884399	24.340530
777.101990	937.514587	2860.329590	1458.608887	27.100595
777.415283	989.851563	2798.890625	1531.425537	29.937107
777.728516	926.136963	2812.543701	1561.007324	33.655010
778.041626	951.167725	2883.084961	1392.618774	22.850412
778.354736	910.208313	2794.339600	1422.200562	27.173914
778.667725	914.759338	2807.992676	1456.333252	28.605766
778.980774	971.647400	2773.859863	1424.476074	25.126266
779.293640	994.402588	2767.033203	1451.782227	25.802309
779.606567	967.096313	2803.441650	1520.047852	30.111523
779.919434	935.239075	2771.584229	1422.200562	26.517971
780.232239	914.759338	2714.696289	1419.924927	28.065737
780.544983	923.861450	2835.298828	1415.373901	25.714285
780.857666	953.443237	2817.094727	1481.364014	28.327227
781.170227	932.963501	2653.257324	1447.231201	29.894178
781.482849	901.106262	2771.584229	1504.119263	32.238445
781.795410	964.820801	2807.992676	1442.680176	25.925926
782.107910	957.994263	2676.012451	1442.680176	28.211920
782.420288	914.759338	2628.226563	1347.108276	25.232401
782.732666	1005.780212	2694.216553	1424.476074	24.797848
783.044983	1026.259888	2612.297852	1392.618774	23.098999
783.357300	1017.157776	2605.471436	1438.129150	26.504295
783.669495	1083.147949	2678.288086	1381.241089	18.687584
783.981689	942.065613	2707.869873	1476.812988	30.283503
784.293762	1001.229126	2632.777588	1447.231201	27.336123
784.605835	1046.739624	2569.062988	1422.200562	24.663679
784.917908	1035.361938	2666.910400	1426.751587	23.988846
785.229858	978.473938	2532.654541	1410.822876	27.818447
785.541748	935.239075	2459.837891	1349.383789	27.164175
785.853577	942.065613	2582.716064	1413.098389	28.710125
786.165405	1030.810913	2523.552490	1369.863525	22.713417
786.477173	1021.708862	2537.205811	1397.169800	24.774773
786.788879	989.851563	2521.277100	1399.445313	26.745914
787.100525	971.647400	2530.379150	1392.618774	27.007301
787.412109	928.412476	2478.042236	1324.353149	25.550663
787.723694	898.830688	2450.735840	1374.414551	30.645163
788.035156	948.892151	2478.042236	1435.853638	31.845238
788.346558	951.167725	2612.297852	1363.036987	24.794521
788.658081	960.269775	2807.992676	1360.761475	21.674879
788.969360	944.341125	2685.114502	1381.241089	25.098038
789.280640	1014.882263	2707.869873	1403.996338	22.983871
789.591919	946.616638	2748.829102	1435.853638	27.146467
789.903076	953.443237	2814.819336	1447.231201	26.528114
790.214172	973.922913	2753.380127	1381.241089	22.890022
790.525269	964.820801	2662.359375	1429.027100	27.345846
790.836365	973.922913	2682.839111	1429.027100	26.631157
791.147339	948.892151	2557.685303	1383.516602	27.015556
791.458191	1014.882263	2537.205811	1306.148926	19.133034
791.769104	994.402588	2516.726074	1394.894287	26.307924
792.079895	1026.259888	2455.286865	1310.699951	19.904457
792.390686	1035.361938	2380.194824	1401.720825	27.241964
792.701416	1028.535400	2334.684326	1378.965576	26.829266
793.012085	939.790100	2402.949951	1410.822876	32.192844
793.322693	937.514587	2443.909424	1378.965576	29.305132
793.633240	967.096313	2453.011475	1419.924927	30.474730
793.943787	980.749451	2400.674561	1292.495850	21.955132
794.254272	953.443237	2357.439453	1315.250977	25.769852
794.564636	1012.606750	2375.643799	1378.965576	26.878126
794.875000	939.790100	2357.439453	1281.118164	24.077044
795.185303	1026.259888	2414.327637	1287.944824	18.852461
795.495544	1037.637451	2325.582275	1322.077637	22.084812
795.805786	985.300537	2466.664551	1276.567139	19.662054
796.115906	998.953613	2418.878662	1397.169800	28.044874
796.426025	928.412476	2327.857666	1390.343262	33.008137
796.736023	987.576050	2421.154053	1344.832764	24.920633
797.045959	935.239075	2434.807373	1410.822876	31.714712
797.355896	985.300537	2596.369141	1358.485962	23.163845
797.665833	944.341125	2437.082764	1333.455200	26.067074
797.975708	967.096313	2514.450439	1328.904175	23.382357
798.285461	1003.504700	2491.695313	1388.067749	25.840981
798.595154	921.585938	2503.072998	1394.894287	29.928057
798.904846	955.718750	2487.144287	1324.353149	24.071323
799.214478	1026.259888	2352.888428	1374.414551	26.243568
799.524109	953.443237	2471.215576	1340.281738	25.487255
799.833557	887.453125	2414.327637	1410.822876	34.277195
800.143005	998.953613	2396.123291	1351.659302	25.244299
800.452393	992.127075	2368.817139	1417.649414	30.909088
800.761780	976.198425	2359.715088	1274.291626	21.546051
801.071106	1023.984375	2366.541748	1338.006226	23.389828
801.380371	923.861450	2261.867676	1347.108276	31.632650
801.689575	957.994263	2230.010498	1287.944824	25.939178
801.998718	951.167725	2243.663574	1317.526489	28.345062
802.307800	946.616638	2323.306641	1276.567139	23.966944
802.616882	987.576050	2261.867676	1292.495850	23.928574
802.925903	1021.708862	2250.489990	1315.250977	23.888885
803.234863	932.963501	2141.265137	1297.046875	30.131828
803.543701	1023.984375	2268.694336	1390.343262	29.433273
803.852539	955.718750	2159.469238	1333.455200	31.379963
804.161316	967.096313	2141.265137	1338.006226	31.589148
804.470032	957.994263	2202.704102	1331.179688	29.981720
804.778809	1008.055725	2280.071777	1344.832764	26.475847
805.087341	923.861450	2175.397949	1233.332275	24.727272
805.395935	1012.606750	2195.877686	1274.291626	22.115379
805.704468	964.820801	2173.122314	1281.118164	26.177023
806.012939	964.820801	2293.724854	1328.904175	27.397266
806.321350	962.545288	2261.867676	1312.975464	26.970226
806.629761	964.820801	2273.245361	1322.077637	27.304352
806.938049	889.728638	2341.510986	1319.802124	29.623827
807.246277	1014.882263	2227.734863	1303.873413	23.827394
807.554504	992.127075	2204.979736	1344.832764	29.080671
807.862671	971.647400	2234.561523	1340.281738	29.189186
808.170715	894.279663	2314.204590	1246.985352	24.839743
808.478821	944.341125	2113.958740	1331.179688	33.073933
808.786804	1008.055725	2157.193604	1292.495850	24.752480
809.094727	989.851563	2184.500000	1331.179688	28.571428
809.402649	1003.504700	2259.592041	1333.455200	26.268116
809.710510	1037.637451	2095.754639	1292.495850	24.086027
810.018311	983.024963	2095.754639	1299.322388	28.425360
810.326050	1008.055725	2027.489014	1353.934937	33.928577
810.633667	1012.606750	2143.540527	1294.771362	24.949701
810.941345	1021.708862	2111.683350	1324.353149	27.766180
811.248901	960.269775	2029.764526	1299.322388	31.702129
811.556396	960.269775	2034.315552	1353.934937	36.652550
811.863892	935.239075	2054.795166	1206.026001	24.186989
812.171326	944.341125	2043.417725	1278.842651	30.434776
812.478699	967.096313	2036.591064	1290.220337	30.212772
812.786011	953.443237	2036.591064	1185.546387	21.428576
813.093262	921.585938	2027.489014	1294.771362	33.744858
813.400391	921.585938	2123.060791	1235.607788	26.136364
813.707642	939.790100	2018.386963	1244.709839	28.270037
814.014709	944.341125	2059.346436	1301.597900	32.040813
814.321716	1026.259888	2077.550537	1251.536499	21.428576
814.628723	955.718750	2154.918213	1269.740601	26.185957
814.935669	1037.637451	2011.560425	1201.474976	16.822432
815.242554	1010.331238	1970.601074	1278.842651	27.962080
815.549438	978.473938	2041.142212	1290.220337	29.336193
815.856201	948.892151	1991.080688	1281.118164	31.877729
816.162964	1012.606750	2022.937988	1210.577026	19.594591
816.469604	1001.229126	2084.376953	1317.526489	29.201679
816.776184	878.351013	2020.662476	1246.985352	32.270912
817.082825	964.820801	2127.612061	1258.363037	25.244619
817.389343	955.718750	2041.142212	1308.424438	32.494755
817.695801	866.973450	2059.346436	1278.842651	34.541977
818.002197	1037.637451	2075.274902	1285.669312	23.903519
818.308533	1033.086426	2070.723877	1240.158813	19.956141
818.614868	1023.984375	2166.295898	1274.291626	21.912346
818.921143	935.239075	2116.234375	1272.016113	28.516373
819.227356	960.269775	2061.621826	1269.740601	28.099174
819.533447	919.310425	2054.795166	1265.189575	30.460924
819.839539	948.892151	2152.642578	1390.343262	36.672974
820.145569	917.034912	2164.020264	1401.720825	38.868614
820.451538	969.371887	2318.755615	1358.485962	28.836428
820.757568	1026.259888	2496.246338	1417.649414	26.625383
821.063416	957.994263	2650.981689	1463.159912	29.838713
821.369263	969.371887	2721.522949	1499.568237	30.259739
821.675049	946.616638	2860.329590	1460.884399	26.872776
821.980713	946.616638	3001.411865	1533.701050	28.571432
822.286438	894.279663	3342.739990	1695.262939	32.713753
822.592102	951.167725	4150.549805	1931.917114	30.654337
822.897583	971.647400	6237.202637	2409.776611	27.312014
823.203125	976.198425	8794.887695	3144.769775	27.735739
823.508545	946.616638	10378.650391	3693.170166	29.119417
823.813965	894.279663	10824.652344	3795.568604	29.216314
824.119263	996.678101	9841.627930	3476.995850	28.042191
824.424622	976.198425	8301.099609	3021.891602	27.927927
824.729858	985.300537	6979.022461	2628.226563	27.410782
825.035095	989.851563	6162.110352	2432.531738	27.892653
825.340149	937.514587	5295.136719	2241.387939	29.921669
825.645264	994.402588	4894.645020	2063.897461	27.421242
825.950256	928.412476	4541.939453	2013.835938	30.037786
826.255310	980.749451	4271.152344	1902.335449	28.008303
826.560242	1055.841675	4016.294189	1818.141113	25.749422
826.865112	973.922913	3743.231689	1758.977539	28.348396
827.169922	1026.259888	3681.792725	1747.599976	27.163668
827.474670	960.269775	3734.129639	1897.784302	33.798195
827.779419	983.024963	4289.356934	1925.090576	28.492771
828.084045	987.576050	4744.460938	2182.224365	31.798908
828.388672	969.371887	5288.310547	2145.816162	27.239201
828.693176	955.718750	5019.798828	2173.122314	29.955206
828.997681	971.647400	4548.766113	1927.366089	26.717556
829.302124	1042.188477	4050.427002	1820.416626	25.869896
829.606567	973.922913	3538.434814	1702.089600	28.393967
829.910828	953.443237	3306.331787	1620.170776	28.336554
830.215149	1071.770264	3017.340576	1595.140137	26.900589
830.519348	983.024963	2883.084961	1529.150024	28.742516
830.823547	901.106262	2826.196777	1431.302612	27.541372
831.127686	957.994263	2573.614014	1433.578125	29.436621
831.431763	998.953613	2512.175049	1458.608887	30.375942
831.735779	1033.086426	2261.867676	1344.832764	25.370369
832.039734	1012.606750	2266.418701	1410.822876	31.760433
832.343628	1003.504700	2125.336426	1344.832764	30.425957
832.647461	1012.606750	2157.193604	1306.148926	25.646124
832.951233	1014.882263	2239.112549	1331.179688	25.836433
833.255127	1046.739624	2143.540527	1256.087524	19.087137
833.558777	973.922913	2239.112549	1415.373901	34.892078
833.862366	1019.433350	2437.082764	1310.699951	20.545742
834.165955	957.994263	2637.328613	1495.017212	31.978323
834.469482	998.953613	2946.799316	1633.823975	32.593464
834.773010	980.749451	3397.352539	1647.477051	27.589455
835.076416	948.892151	3606.700439	1786.283813	31.506849
835.379822	957.994263	3549.812500	1718.018188	29.323965
835.683105	939.790100	3297.229736	1638.375000	29.633204
835.986389	1042.188477	2992.309814	1570.109375	27.071182
836.289612	976.198425	2771.584229	1554.180664	32.192650
836.592773	987.576050	2621.399902	1474.537476	29.805014
836.895874	957.994263	2519.001465	1356.210449	25.510208
837.198914	1001.229126	2407.500977	1394.894287	27.993532
837.501892	996.678101	2350.613037	1365.312500	27.226892
837.804871	866.973450	2275.520752	1333.455200	33.117931
838.107666	962.545288	2148.091553	1335.730713	31.477930
838.410583	1042.188477	2018.386963	1347.108276	31.235430
838.713379	969.371887	1929.641602	1292.495850	33.649292
839.016052	969.371887	1920.539551	1269.740601	31.578945
839.318787	983.024963	1852.273926	1215.128052	26.701567
839.621338	998.953613	1784.008301	1251.536499	32.173923
839.923889	1014.882263	1815.865601	1206.026001	23.863634
840.226440	1080.872437	1784.008301	1206.026001	17.799343
840.528931	1005.780212	1947.845825	1210.577026	21.739124
840.831299	976.198425	1988.805176	1308.424438	32.808987
841.133606	942.065613	2134.438477	1290.220337	29.198479
841.435913	942.065613	2084.376953	1338.006226	34.661358
841.738220	1008.055725	1925.090576	1285.669312	30.272959
842.040405	983.024963	1950.121338	1315.250977	34.352936
842.342529	1001.229126	1849.998413	1183.270874	21.447731
842.644592	923.861450	1872.753662	1160.515625	24.940048
842.946594	983.024963	1772.630737	1162.791138	22.766573
843.248596	928.412476	1777.181763	1219.679199	34.316360
843.550598	960.269775	1733.946899	1117.280762	20.294123
843.852478	969.371887	1708.916138	1171.893188	27.384609
844.154236	1044.463989	1702.089600	1180.995239	20.761242
844.455994	978.473938	1649.752563	1224.230225	36.610176
844.757690	967.096313	1624.721802	1180.995239	32.525948
845.059326	1046.739624	1645.201538	1155.964600	18.250948
845.360962	953.443237	1588.313477	1180.995239	35.842285
845.662476	914.759338	1488.190552	1155.964600	42.063503
845.963989	957.994263	1504.119263	1124.107300	30.416670
846.265381	951.167725	1558.731689	1142.311401	31.460667
846.566772	935.239075	1515.496826	1110.454102	30.196068
846.868042	912.483826	1465.435425	1171.893188	46.913574
847.169373	973.922913	1529.150024	1103.627563	23.360647
847.470581	923.861450	1517.772339	1049.015137	21.072805
847.771729	1017.157776	1481.364014	1076.321289	12.745092
848.072815	976.198425	1513.221313	1140.035889	30.508469
848.373901	992.127075	1551.905151	1096.801025	18.699186
848.674866	926.136963	1435.853638	1119.556274	37.946438
848.975891	942.065613	1401.720825	1112.729614	37.128700
849.276794	964.820801	1510.945801	1117.280762	27.916679
849.577637	960.269775	1581.486938	1178.719727	35.164829
849.878357	1003.504700	1451.782227	1094.525513	20.304567
850.179077	955.718750	1463.159912	1117.280762	31.838570
850.479736	987.576050	1417.649414	1137.760376	34.920631
850.780396	992.127075	1415.373901	1133.209351	33.333332
851.080994	1017.157776	1499.568237	1046.739624	6.132091
851.381470	1023.984375	1440.404663	1105.903076	19.672121
851.681946	951.167725	1410.822876	1096.801025	31.683165
851.982361	1019.433350	1403.996338	1112.729614	24.260334
852.282715	955.718750	1454.057739	1055.841675	20.091330
852.583008	962.545288	1351.659302	1049.015137	22.222240
852.883240	983.024963	1403.996338	1058.117188	17.837845
853.183411	930.687988	1454.057739	1080.872437	28.695669
853.483521	1005.780212	1415.373901	1110.454102	25.555542
853.783630	951.167725	1422.200562	1133.209351	38.647331
854.083679	1069.494751	1399.445313	1096.801025	8.275868
854.383667	962.545288	1390.343262	1101.352051	32.446804
854.683533	898.830688	1442.680176	1085.423462	34.309635
854.983337	976.198425	1363.036987	1099.076538	31.764702
855.283203	969.371887	1431.302612	1055.841675	18.719212
855.582886	971.647400	1467.710938	1087.698975	23.394499
855.882629	960.269775	1413.098389	1101.352051	31.155777
856.182312	994.402588	1401.720825	1087.698975	22.905035
856.481873	1014.882263	1426.751587	1053.566162	9.392275
856.781372	1037.637451	1390.343262	1119.556274	23.225822
857.080872	987.576050	1338.006226	1062.668213	21.428566
857.380310	935.239075	1376.690063	1064.943726	29.381439
857.679688	964.820801	1335.730713	1060.392700	25.766876
857.979004	973.922913	1367.588013	1080.872437	27.167643
858.278259	935.239075	1360.761475	1117.280762	42.780754
858.577454	914.759338	1360.761475	1083.147949	37.755112
858.876648	953.443237	1365.312500	1092.250000	33.701656
859.175720	960.269775	1417.649414	1055.841675	20.895531
859.474792	973.922913	1335.730713	1151.413574	49.056614
859.773743	1017.157776	1358.485962	1014.882263	-0.666664
860.072693	1014.882263	1415.373901	1035.361938	5.113634
860.371521	1012.606750	1433.578125	1137.760376	29.729723
860.670349	987.576050	1315.250977	1078.596802	27.777760
860.969116	967.096313	1481.364014	1051.290649	16.371695
861.267883	957.994263	1322.077637	1124.107300	45.625000
861.566589	946.616638	1285.669312	1183.270874	69.798660
861.865112	1014.882263	1422.200562	1112.729614	24.022331
862.163635	994.402588	1365.312500	1115.005249	32.515350
862.462158	1010.331238	1369.863525	1078.596802	18.987326
862.760620	964.820801	1394.894287	1053.566162	20.634930
863.059021	967.096313	1408.547363	1053.566162	19.587641
863.357361	1010.331238	1390.343262	1037.637451	7.185618
863.655640	1053.566162	1335.730713	1074.045776	7.258039
863.953857	910.208313	1365.312500	1094.525513	40.500000
864.251953	973.922913	1435.853638	1124.107300	32.512318
864.550110	980.749451	1344.832764	1080.872437	27.500021
864.848206	905.657288	1340.281738	1017.157776	25.654444
865.146179	1012.606750	1347.108276	1074.045776	18.367338
865.444092	980.749451	1287.944824	1119.556274	45.185192
865.741943	985.300537	1422.200562	1055.841675	16.145830
866.039795	976.198425	1349.383789	1062.668213	23.170734
866.337646	989.851563	1351.659302	1049.015137	16.352213
866.635376	996.678101	1435.853638	1092.250000	21.761663
866.933044	969.371887	1435.853638	1080.872437	23.902447
867.230652	994.402588	1426.751587	1142.311401	34.210514
867.528198	937.514587	1333.455200	1083.147949	36.781616
867.825745	962.545288	1406.271851	1089.974487	28.717957
868.123230	983.024963	1333.455200	1021.708862	11.038973
868.420593	985.300537	1338.006226	1074.045776	25.161272
868.717896	926.136963	1449.506714	1030.810913	20.000000
869.015198	953.443237	1365.312500	1130.933838	43.093918
869.312439	896.555176	1312.975464	1124.107300	54.644821
869.609619	889.728638	1374.414551	1133.209351	50.234741
869.906738	942.065613	1369.863525	1074.045776	30.851053
870.203796	946.616638	1415.373901	1042.188477	20.388344
870.500854	964.820801	1376.690063	1094.525513	31.491720
870.797791	892.004150	1324.353149	1064.943726	39.999996
871.094666	973.922913	1394.894287	1028.535400	12.972969
871.391602	1010.331238	1342.557251	1117.280762	32.191795
871.688293	992.127075	1328.904175	1046.739624	16.216230
871.985107	969.371887	1358.485962	1121.831787	39.181286
872.281738	994.402588	1358.485962	1155.964600	44.375004
872.578369	998.953613	1347.108276	1055.841675	16.339882
872.874939	907.932800	1381.241089	1117.280762	44.230782
873.171509	910.208313	1388.067749	1074.045776	34.285702
873.467957	957.994263	1317.526489	1060.392700	28.481018
873.764343	919.310425	1365.312500	1124.107300	45.918369
874.060669	937.514587	1326.628662	1117.280762	46.198837
874.356995	953.443237	1338.006226	1078.596802	32.544361
874.653198	1005.780212	1378.965576	1115.005249	29.268307
874.949463	907.932800	1338.006226	1099.076538	44.444443
875.245544	1017.157776	1358.485962	1117.280762	29.333349
875.541626	973.922913	1417.649414	1080.872437	24.102577
875.837646	985.300537	1317.526489	1074.045776	26.712315
876.133606	960.269775	1365.312500	1124.107300	40.449444
876.429565	971.647400	1353.934937	1076.321289	27.380932
876.725403	994.402588	1317.526489	1030.810913	11.267605
877.021179	994.402588	1403.996338	1058.117188	15.555559
877.316956	962.545288	1403.996338	1060.392700	22.164951
877.612610	919.310425	1365.312500	951.167725	7.142859
877.908203	987.576050	1526.874512	1108.178589	22.362856
878.203857	951.167725	1397.169800	1099.076538	33.163258
878.499390	953.443237	1419.924927	1060.392700	22.926830
878.794800	989.851563	1381.241089	1101.352051	28.488367
879.090271	987.576050	1372.139038	1092.250000	27.218935
879.385559	921.585938	1435.853638	1083.147949	31.415936
879.680847	998.953613	1403.996338	1089.974487	22.471920
879.976196	1005.780212	1483.639526	1094.525513	18.571428
880.271301	957.994263	1515.496826	1096.801025	24.897959
880.566467	992.127075	1556.456177	1126.382813	23.790327
880.861572	994.402588	1624.721802	1165.066650	27.075815
881.156555	869.248962	1820.416626	1187.821899	33.492828
881.451477	973.922913	2004.733887	1258.363037	27.593819
881.746460	1019.433350	2703.318604	1458.608887	26.081085
882.041321	921.585938	3431.485352	1663.405762	29.555759
882.336121	905.657288	4384.928711	1902.335449	28.646173
882.630798	932.963501	4644.337891	2057.070801	30.288166
882.925537	914.759338	4803.624512	2007.009399	28.086599
883.220215	1017.157776	4485.051270	1952.396851	26.968506
883.514771	910.208313	4068.631104	1897.784302	31.268011
883.809326	907.932800	3690.894775	1777.181763	31.234671
884.103760	942.065613	3458.791504	1784.008301	33.453892
884.398132	917.034912	3217.586426	1720.293701	34.915924
884.692505	889.728638	3106.085938	1688.436401	36.036957
884.986816	946.616638	2899.013428	1526.874512	29.720285
885.281067	1001.229126	2714.696289	1472.261963	27.490042
885.575256	1012.606750	2514.450439	1458.608887	29.696974
885.869385	1014.882263	2371.092773	1403.996338	28.691275
886.163452	989.851563	2118.509766	1344.832764	31.451612
886.457458	1019.433350	2011.560425	1283.393677	26.605495
886.751465	1046.739624	1861.375977	1212.852539	20.391050
887.045410	962.545288	1665.681274	1183.270874	31.391592
887.339233	962.545288	1647.477051	1140.035889	25.913618
887.632996	971.647400	1613.344238	1187.821899	33.687950
887.926758	960.269775	1520.047852	1171.893188	37.804878
888.220398	1042.188477	1592.864502	1167.342163	22.727282
888.514099	1012.606750	1506.394775	1153.689087	28.571438
888.807678	1010.331238	1501.843750	1162.791138	31.018518
889.101196	932.963501	1510.945801	1053.566162	20.866152
889.394653	962.545288	1508.670288	1128.658325	30.416670
889.688049	978.473938	1538.252075	1096.801025	21.138212
889.981384	1010.331238	1460.884399	1092.250000	18.181820
890.274719	1017.157776	1413.098389	1112.729614	24.137922
890.567932	948.892151	1388.067749	1101.352051	34.715019
>>>>>End Processed Spectral Data<<<<<
