Jaz Data File
++++++++++++++++++++++++++++++++++++
Date: Wed Feb 07 06:52:46 2024
User: jaz
Dark Spectrum Present: Yes
Reference Spectrum Present: Yes
Processed Spectrum Present: Yes
Spectrometers: JAZA3692
Integration Time (usec): 49800 (JAZA3692)
Spectra Averaged: 1 (JAZA3692)
Boxcar Smoothing: 0 (JAZA3692)
Correct for Electrical Dark: No (JAZA3692)
Strobe/Lamp Enabled: Yes (JAZA3692)
Correct for Detector Non-linearity: No (JAZA3692)
Correct for Stray Light: No (JAZA3692)
Number of Pixels in Processed Spectrum: 2048
>>>>>Begin Processed Spectral Data<<<<<
W	D	R	S	P
190.244385	0.000000	0.000000	0.000000	0.000000
190.627136	0.000000	0.000000	0.000000	0.000000
191.009842	912.483826	932.963501	878.351013	-166.666763
191.392532	962.545288	928.412476	910.208313	153.333328
191.775177	957.994263	923.861450	853.320313	306.666656
192.157791	955.718750	953.443237	903.381775	2300.008057
192.540390	928.412476	907.932800	955.718750	-133.333527
192.922943	869.248962	1008.055725	998.953613	93.442604
193.305481	880.626526	978.473938	869.248962	-11.627864
193.687958	944.341125	946.616638	903.381775	-1800.005371
194.070419	944.341125	971.647400	942.065613	-8.333296
194.452866	955.718750	967.096313	1010.331238	480.001617
194.835251	969.371887	951.167725	910.208313	325.000244
195.217621	978.473938	953.443237	976.198425	9.090887
195.599960	948.892151	1017.157776	964.820801	23.333340
195.982254	955.718750	914.759338	955.718750	-0.000000
196.364517	905.657288	971.647400	921.585938	24.137934
196.746750	1008.055725	944.341125	969.371887	60.714245
197.128952	976.198425	948.892151	955.718750	74.999886
197.511139	953.443237	935.239075	985.300537	-175.000076
197.893280	932.963501	1033.086426	994.402588	61.363655
198.275391	939.790100	901.106262	1026.259888	-223.529495
198.657471	930.687988	980.749451	983.024963	104.545441
199.039520	964.820801	955.718750	917.034912	525.001343
199.421539	960.269775	946.616638	1001.229126	-299.999542
199.803513	914.759338	960.269775	1071.770264	344.999817
200.185471	948.892151	1053.566162	996.678101	45.652161
200.567383	962.545288	1030.810913	994.402588	46.666679
200.949265	1005.780212	935.239075	996.678101	12.903268
201.331131	964.820801	928.412476	969.371887	-12.500126
201.712967	1080.872437	944.341125	937.514587	104.999977
202.094742	873.799988	1030.810913	935.239075	39.130455
202.476517	885.177612	1001.229126	905.657288	17.647057
202.858231	928.412476	951.167725	987.576050	259.999664
203.239944	942.065613	985.300537	996.678101	126.315681
203.621582	946.616638	957.994263	953.443237	60.000214
204.003235	907.932800	923.861450	939.790100	200.000000
204.384827	903.381775	985.300537	889.728638	-16.666679
204.766388	928.412476	935.239075	976.198425	699.996399
205.147934	1003.504700	955.718750	967.096313	76.190567
205.529449	980.749451	957.994263	937.514587	190.000031
205.910904	896.555176	964.820801	971.647400	110.000053
206.292343	962.545288	985.300537	967.096313	19.999893
206.673767	964.820801	1012.606750	937.514587	-57.142765
207.055115	892.004150	1001.229126	932.963501	37.499985
207.436462	937.514587	1001.229126	946.616638	14.285673
207.817780	942.065613	944.341125	962.545288	900.002686
208.199051	930.687988	1042.188477	930.687988	0.000000
208.580307	887.453125	973.922913	948.892151	71.052589
208.961517	901.106262	1005.780212	939.790100	36.956509
209.342712	948.892151	944.341125	946.616638	50.000000
209.723846	944.341125	932.963501	953.443237	-80.000107
210.104965	914.759338	930.687988	919.310425	28.571703
210.486069	917.034912	1021.708862	921.585938	4.347811
210.867111	871.524475	942.065613	962.545288	129.032242
211.248123	973.922913	1069.494751	998.953613	26.190456
211.629120	937.514587	976.198425	935.239075	-5.882334
212.010071	946.616638	967.096313	882.902100	-311.111084
212.390991	994.402588	930.687988	946.616638	75.000000
212.771881	907.932800	980.749451	914.759338	9.374969
213.152756	989.851563	953.443237	969.371887	56.249981
213.533569	992.127075	983.024963	980.749451	124.999832
213.914368	1008.055725	992.127075	896.555176	700.000000
214.295135	962.545288	1017.157776	892.004150	-129.166687
214.675858	994.402588	1026.259888	957.994263	-114.285660
215.056549	928.412476	1033.086426	898.830688	-28.260887
215.437225	926.136963	1026.259888	957.994263	31.818188
215.817841	951.167725	976.198425	969.371887	72.727341
216.198441	873.799988	1055.841675	976.198425	56.249992
216.579025	983.024963	960.269775	971.647400	49.999866
216.959549	932.963501	973.922913	930.687988	-5.555531
217.340057	967.096313	1008.055725	926.136963	-99.999847
217.720535	953.443237	917.034912	969.371887	-43.750019
218.100967	926.136963	1010.331238	967.096313	48.648617
218.481369	951.167725	910.208313	1014.882263	-155.555313
218.861740	996.678101	910.208313	983.024963	15.789489
219.242065	994.402588	996.678101	992.127075	-100.000000
219.622391	926.136963	992.127075	1053.566162	193.103470
220.002670	946.616638	951.167725	1030.810913	1849.981934
220.382919	951.167725	992.127075	989.851563	94.444458
220.763123	983.024963	953.443237	951.167725	107.692291
221.143295	978.473938	962.545288	992.127075	-85.714340
221.523453	948.892151	957.994263	980.749451	349.998993
221.903549	955.718750	1003.504700	962.545288	14.285660
222.283630	910.208313	1055.841675	1019.433350	75.000008
222.663696	919.310425	1042.188477	942.065613	18.518513
223.043701	948.892151	1030.810913	901.106262	-58.333263
223.423676	964.820801	1058.117188	937.514587	-29.268244
223.803635	1033.086426	1042.188477	946.616638	-950.003357
224.183548	1008.055725	998.953613	905.657288	1124.996460
224.563431	951.167725	987.576050	885.177612	-181.250061
224.943283	960.269775	1026.259888	962.545288	3.448263
225.323105	873.799988	1069.494751	996.678101	62.790699
225.702881	885.177612	978.473938	892.004150	7.317049
226.082642	910.208313	1042.188477	964.820801	41.379314
226.462357	903.381775	1028.535400	976.198425	58.181816
226.842041	955.718750	1037.637451	907.932800	-58.333382
227.221695	892.004150	1019.433350	980.749451	69.642830
227.601318	987.576050	1058.117188	939.790100	-67.741959
227.980911	930.687988	1044.463989	896.555176	-30.000011
228.360474	917.034912	1012.606750	944.341125	28.571402
228.739990	962.545288	1133.209351	917.034912	-26.666643
229.119476	905.657288	1149.138062	923.861450	7.476633
229.498932	821.463013	1149.138062	983.024963	49.305538
229.878372	885.177612	1210.577026	948.892151	19.580410
230.257736	901.106262	1240.158813	894.279663	-2.013434
230.637115	944.341125	1233.332275	946.616638	0.787399
231.016449	935.239075	1142.311401	969.371887	16.483522
231.395737	871.524475	1133.209351	1001.229126	49.565208
231.774994	898.830688	1183.270874	923.861450	8.800009
232.154221	926.136963	1153.689087	930.687988	1.999992
232.533417	939.790100	1117.280762	969.371887	16.666672
232.912582	921.585938	1133.209351	973.922913	24.731184
233.291702	935.239075	1121.831787	962.545288	14.634127
233.670792	944.341125	1185.546387	928.412476	-6.603774
234.049866	942.065613	1126.382813	944.341125	1.234563
234.428894	955.718750	1149.138062	939.790100	-8.235294
234.807892	951.167725	1121.831787	971.647400	11.999992
235.186874	944.341125	1128.658325	942.065613	-1.234563
235.565781	882.902100	1151.413574	1055.841675	64.406776
235.944687	1019.433350	1149.138062	969.371887	-38.596489
236.323547	967.096313	1199.199463	907.932800	-25.490181
236.702377	955.718750	1199.199463	962.545288	2.803729
237.081177	985.300537	1169.617676	967.096313	-9.876576
237.459946	932.963501	1274.291626	983.024963	14.666668
237.838669	953.443237	1210.577026	1001.229126	18.584057
238.217361	894.279663	1151.413574	971.647400	30.088499
238.596039	948.892151	1083.147949	912.483826	-27.118624
238.974670	914.759338	1174.168701	953.443237	14.912298
239.353271	905.657288	1169.617676	1003.504700	37.068977
239.731842	957.994263	1140.035889	935.239075	-12.499991
240.110367	914.759338	1240.158813	1014.882263	30.769234
240.488876	896.555176	1192.372925	964.820801	23.076920
240.867340	971.647400	1244.709839	962.545288	-3.333344
241.245789	901.106262	1303.873413	976.198425	18.644064
241.624176	935.239075	1376.690063	962.545288	6.185559
242.002548	932.963501	1281.118164	1003.504700	20.261454
242.380890	887.453125	1401.720825	994.402588	20.796457
242.759186	957.994263	1529.150024	942.065613	-2.788845
243.137451	944.341125	1622.446289	944.341125	0.000000
243.515686	939.790100	1670.232300	905.657288	-4.672897
243.893890	928.412476	1683.885376	1049.015137	15.963863
244.272049	869.248962	1665.681274	992.127075	15.428570
244.650192	1026.259888	1590.588989	953.443237	-12.903224
245.028290	932.963501	1590.588989	996.678101	9.688584
245.406357	928.412476	1510.945801	971.647400	7.421880
245.784393	912.483826	1497.292725	994.402588	14.007783
246.162384	973.922913	1433.578125	1008.055725	7.425743
246.540359	889.728638	1549.629639	1023.984375	20.344830
246.918289	955.718750	1620.170776	1044.463989	13.356154
247.296204	964.820801	1795.385864	1035.361938	8.493150
247.674057	1005.780212	1995.631714	1074.045776	6.896546
248.051895	996.678101	2339.235352	1083.147949	6.440682
248.429703	919.310425	2359.715088	1142.311401	15.481829
248.807465	907.932800	2325.582275	1169.617676	18.459068
249.185196	1001.229126	2093.479248	1044.463989	3.958330
249.562897	946.616638	1959.223389	1094.525513	14.606744
249.940567	889.728638	1884.131226	1030.810913	14.187641
250.318192	976.198425	1642.926025	1060.392700	12.627987
250.695801	960.269775	1667.956787	1001.229126	5.787777
251.073349	1019.433350	1661.130127	1089.974487	10.992908
251.450882	992.127075	1567.833862	946.616638	-7.905142
251.828400	985.300537	1563.282837	996.678101	1.968497
252.205872	914.759338	1613.344238	996.678101	11.726386
252.583313	905.657288	1633.823975	989.851563	11.562500
252.960693	978.473938	1733.946899	1003.504700	3.313257
253.338074	983.024963	1768.079712	1010.331238	3.478264
253.715408	951.167725	1722.569214	1099.076538	19.174038
254.092682	928.412476	1720.293701	1087.698975	20.114948
254.469955	894.279663	1570.109375	1039.912964	21.548817
254.847198	930.687988	1658.854614	932.963501	0.312499
255.224365	866.973450	1565.558350	1064.943726	28.338757
255.601563	919.310425	1535.976563	976.198425	9.225089
255.978683	1005.780212	1576.935913	1014.882263	1.593620
256.355743	896.555176	1576.935913	1021.708862	18.394655
256.732819	937.514587	1526.874512	1046.739624	18.532824
257.109894	894.279663	1586.037964	969.371887	10.855269
257.486877	932.963501	1558.731689	992.127075	9.454552
257.863831	887.453125	1688.436401	1023.984375	17.045456
258.240753	1008.055725	1818.141113	967.096313	-5.056184
258.617645	914.759338	1788.559326	989.851563	8.593755
258.994507	967.096313	1797.661377	1008.055725	4.931511
259.371307	964.820801	1984.254150	1033.086426	6.696428
259.748108	971.647400	2209.530762	1069.494751	7.904408
260.124878	951.167725	2364.266113	1055.841675	7.407407
260.501617	919.310425	2555.409912	1144.586914	13.769119
260.878296	946.616638	2846.676514	1112.729614	8.742513
261.254944	960.269775	2983.207764	1167.342163	10.236220
261.631561	851.044800	2924.044189	1074.045776	10.757406
262.008179	962.545288	2555.409912	1076.321289	7.142854
262.384735	928.412476	2252.765625	1089.974487	12.199315
262.761261	905.657288	2025.213501	1003.504700	8.739840
263.137695	873.799988	1952.396851	1055.841675	16.877638
263.514191	937.514587	1986.529663	1115.005249	16.919743
263.890594	976.198425	1934.192627	992.127075	1.662708
264.267029	957.994263	1925.090576	1046.739624	9.176476
264.643341	898.830688	1868.202637	1058.117188	16.431929
265.019653	953.443237	1790.834839	1019.433350	7.880436
265.395935	926.136963	1865.927002	1028.535400	10.895885
265.772217	953.443237	1815.865601	969.371887	1.846966
266.148407	989.851563	1897.784302	1069.494751	8.771926
266.524597	976.198425	1884.131226	1017.157776	4.511276
266.900726	939.790100	2088.927979	1094.525513	13.465347
267.276855	937.514587	2136.714111	1039.912964	8.538895
267.652924	992.127075	2198.153076	1069.494751	6.415092
268.028992	1005.780212	2191.326416	998.953613	-0.575819
268.404999	996.678101	2204.979736	1126.382813	10.734465
268.781006	935.239075	2198.153076	989.851563	4.324323
269.156921	946.616638	2195.877686	1049.015137	8.196726
269.532837	967.096313	2245.938965	1051.290649	6.583635
269.908661	901.106262	2209.530762	1033.086426	10.086952
270.284546	901.106262	2093.479248	1094.525513	16.221371
270.660339	976.198425	2141.265137	1021.708862	3.906252
271.036133	976.198425	2195.877686	989.851563	1.119404
271.411835	885.177612	2195.877686	1042.188477	11.979160
271.787537	967.096313	2407.500977	1062.668213	6.635073
272.163239	978.473938	2748.829102	1005.780212	1.542418
272.538849	939.790100	2796.614990	1128.658325	10.171569
272.914459	946.616638	2848.952148	1083.147949	7.177037
273.290070	864.697876	2673.737061	1005.780212	7.798744
273.665588	960.269775	2607.746826	1115.005249	9.392269
274.041046	960.269775	2562.236328	1064.943726	6.534091
274.416565	942.065613	2466.664551	1076.321289	8.805967
274.791962	953.443237	2523.552490	1044.463989	5.797097
275.167389	905.657288	2421.154053	1026.259888	7.957958
275.542755	930.687988	2255.041016	1105.903076	13.230240
275.918060	930.687988	2302.827148	1110.454102	13.101157
276.293365	948.892151	2402.949951	1008.055725	4.068860
276.668640	976.198425	2437.082764	1074.045776	6.697817
277.043854	955.718750	2400.674561	1094.525513	9.606298
277.419037	919.310425	2523.552490	1033.086426	7.092196
277.794189	928.412476	2544.032227	1042.188477	7.042251
278.169312	983.024963	2466.664551	1039.912964	3.834354
278.544373	987.576050	2532.654541	1080.872437	6.038294
278.919464	1028.535400	2437.082764	1121.831787	6.623589
279.294464	976.198425	2437.082764	976.198425	0.000000
279.669464	928.412476	2450.735840	1074.045776	9.566516
280.044403	969.371887	2311.929199	1074.045776	7.796605
280.419312	985.300537	2439.358398	1001.229126	1.095458
280.794189	998.953613	2521.277100	1044.463989	2.989534
281.169037	1030.810913	2603.195801	1062.668213	2.026050
281.543854	935.239075	2644.155273	1044.463989	6.391473
281.918671	960.269775	2701.043213	1101.352051	8.104574
282.293365	955.718750	2853.503174	1099.076538	7.553956
282.668091	980.749451	3012.789551	1142.311401	7.950727
283.042786	957.994263	2980.932129	1237.883301	13.835771
283.417419	973.922913	3112.912354	1042.188477	3.191487
283.792053	923.861450	3008.238525	1124.107300	9.606988
284.166595	989.851563	2974.105713	1099.076538	5.504586
284.541138	921.585938	2782.961914	1074.045776	8.190706
284.915619	937.514587	2835.298828	1146.862427	11.031172
285.290100	898.830688	2935.421875	1078.596802	8.826814
285.664520	983.024963	3015.064941	1108.178589	6.159014
286.038940	935.239075	3035.544678	1155.964600	10.509210
286.413300	932.963501	3231.239502	1167.342163	10.198021
286.787628	944.341125	3231.239502	1144.586914	8.756217
287.161896	964.820801	3345.015625	1183.270874	9.177823
287.536194	930.687988	3317.709229	1149.138062	9.151576
287.910400	937.514587	3231.239502	1108.178589	7.440474
288.284607	939.790100	3060.575439	1219.679199	13.197427
288.658752	878.351013	2978.656738	1246.985352	17.551462
289.032867	926.136963	2869.431641	1233.332275	15.807963
289.406921	960.269775	3005.962891	1149.138062	9.232484
289.781006	960.269775	3010.513916	1203.750488	11.875693
290.154999	964.820801	2921.768799	1242.434326	14.186045
290.529022	953.443237	3110.636963	1258.363037	14.135021
290.902954	928.412476	3438.312012	1297.046875	14.687218
291.276825	971.647400	3392.801514	1301.597900	13.627819
291.650757	930.687988	3370.046387	1342.557251	16.884327
292.024597	948.892151	3253.994629	1338.006226	16.880554
292.398407	971.647400	3217.586426	1358.485962	17.223913
292.772156	914.759338	3267.647949	1294.771362	16.150871
293.145905	946.616638	3056.024414	1390.343262	21.035603
293.519592	962.545288	2983.207764	1394.894287	21.396399
293.893280	942.065613	2971.830078	1265.189575	15.919284
294.266907	976.198425	3108.361328	1278.842651	14.194236
294.640533	937.514587	3372.321777	1390.343262	18.598133
295.014069	912.483826	3445.138428	1340.281738	16.891285
295.387604	910.208313	3495.199951	1413.098389	19.454224
295.761078	898.830688	3586.220703	1406.271851	18.882303
296.134552	917.034912	3620.353516	1506.394775	21.801346
296.507996	882.902100	3704.547852	1340.281738	16.209677
296.881378	921.585938	3743.231689	1499.568237	20.483871
297.254730	921.585938	3736.405273	1522.323364	21.341953
297.628021	964.820801	3982.161377	1517.772339	18.325790
298.001282	953.443237	4161.927734	1563.282837	19.007093
298.374573	910.208313	4032.222900	1533.701050	19.970846
298.747803	953.443237	4171.029785	1467.710938	15.983027
299.121002	885.177612	3811.497314	1444.955688	19.129080
299.494141	1014.882263	3652.210938	1429.027100	15.703195
299.867188	944.341125	3463.342773	1340.281738	15.718156
300.240265	935.239075	3483.822266	1465.435425	20.803572
300.613312	914.759338	3351.842041	1454.057739	22.128851
300.986328	919.310425	3288.127441	1392.618774	19.980791
301.359314	976.198425	3340.464600	1410.822876	18.383060
301.732239	898.830688	3326.811523	1454.057739	22.867851
302.105103	1053.566162	3499.750977	1319.802124	10.883722
302.477997	976.198425	3440.587402	1399.445313	17.174517
302.850830	944.341125	3381.423828	1401.720825	18.767508
303.223602	946.616638	3228.964111	1388.067749	19.341976
303.596375	923.861450	3144.769775	1435.853638	23.053280
303.969116	894.279663	3160.698486	1278.842651	16.967869
304.341766	957.994263	3112.912354	1338.006226	17.634638
304.714478	923.861450	3108.361328	1331.179688	18.645834
305.087067	910.208313	3119.739014	1306.148926	17.919670
305.459656	898.830688	3208.484375	1294.771362	17.142859
305.832214	841.942688	3074.228516	1290.220337	20.081553
306.204681	964.820801	3017.340576	1340.281738	18.292683
306.577148	935.239075	3056.024414	1340.281738	19.098711
306.949646	930.687988	3242.617188	1353.934937	18.307089
307.322021	912.483826	3110.636963	1367.588013	20.703936
307.694397	994.402588	3128.841064	1378.965576	18.017057
308.066742	923.861450	3158.422852	1388.067749	20.773932
308.439026	928.412476	3288.127441	1342.557251	17.550629
308.811279	926.136963	3315.433838	1342.557251	17.428570
309.183502	964.820801	3397.352539	1429.027100	19.083258
309.555695	917.034912	3634.006836	1347.108276	15.829143
309.927887	980.749451	3606.700439	1429.027100	17.071060
310.299988	983.024963	3513.404053	1451.782227	18.525179
310.672058	892.004150	3670.415039	1438.129150	19.656019
311.044128	894.279663	3677.241699	1419.924927	18.887980
311.416168	969.371887	3611.251465	1403.996338	16.451334
311.788147	917.034912	3586.220703	1390.343262	17.732311
312.160065	1014.882263	3775.089111	1403.996338	14.097280
312.531982	983.024963	3531.608398	1467.710938	19.017857
312.903870	926.136963	3542.985840	1431.302612	19.304350
313.275696	907.932800	3429.209961	1390.343262	19.133575
313.647491	992.127075	3381.423828	1333.455200	14.285714
314.019318	964.820801	3360.944336	1372.139038	16.999050
314.391022	1012.606750	3340.464600	1363.036987	15.053764
314.762726	939.790100	3451.965088	1351.659302	16.394924
315.134369	946.616638	3533.883789	1369.863525	16.358841
315.505981	926.136963	3738.680664	1406.271851	17.071198
315.877594	948.892151	3779.640137	1303.873413	12.540193
316.249146	992.127075	3611.251465	1397.169800	15.464813
316.620636	978.473938	3426.934326	1338.006226	14.684014
316.992157	1008.055725	3381.423828	1340.281738	13.998081
317.363586	983.024963	3370.046387	1356.210449	15.633939
317.735016	937.514587	3306.331787	1287.944824	14.793469
318.106354	992.127075	3363.219727	1365.312500	15.738963
318.477722	912.483826	3356.393066	1349.383789	17.877094
318.849060	912.483826	3347.291016	1285.669312	15.327106
319.220306	969.371887	3374.597412	1378.965576	17.029325
319.591522	921.585938	3456.516113	1319.802124	15.709158
319.962738	942.065613	3495.199951	1408.547363	18.270945
320.333923	932.963501	3529.332764	1260.638550	12.620511
320.705017	948.892151	3556.638916	1363.036987	15.881329
321.076111	903.381775	3476.995850	1301.597900	15.473032
321.447144	942.065613	3340.464600	1344.832764	16.793167
321.818176	892.004150	3203.933350	1303.873413	17.814960
322.189178	969.371887	3272.198975	1349.383789	16.501972
322.560120	919.310425	3385.974854	1376.690063	18.542433
322.931030	873.799988	3279.025391	1308.424438	18.070009
323.301910	894.279663	3454.240479	1324.353149	16.800001
323.672729	932.963501	3679.517090	1397.169800	16.901409
324.043549	926.136963	3706.823486	1403.996338	17.184942
324.414337	919.310425	3902.518066	1417.649414	16.704805
324.785095	939.790100	4211.988770	1422.200562	14.742701
325.155792	955.718750	4180.131836	1476.812988	16.160902
325.526428	983.024963	4034.498291	1526.874512	17.822523
325.897034	932.963501	4045.875977	1378.965576	14.327485
326.267670	937.514587	3979.885986	1392.618774	14.958864
326.638184	928.412476	3952.579590	1467.710938	17.832958
327.008728	951.167725	4068.631104	1474.537476	16.788321
327.379211	935.239075	4148.274414	1401.720825	14.518413
327.749634	907.932800	4041.324951	1458.608887	17.574440
328.120026	910.208313	3731.854004	1392.618774	17.096777
328.490417	907.932800	3811.497314	1394.894287	16.771162
328.860748	962.545288	3768.262451	1319.802124	12.733173
329.231079	971.647400	3743.231689	1399.445313	15.435141
329.601318	912.483826	3663.588379	1344.832764	15.715467
329.971558	951.167725	3684.068115	1347.108276	14.487925
330.341736	903.381775	3772.813477	1415.373901	17.842981
330.711914	901.106262	3693.170166	1426.751587	18.826406
331.082062	944.341125	3818.323975	1347.108276	14.014250
331.452148	939.790100	3715.925537	1399.445313	16.557377
331.822174	969.371887	3772.813477	1374.414551	14.448050
332.192200	973.922913	3895.691650	1360.761475	13.239876
332.562134	903.381775	3745.507324	1333.455200	15.132106
332.932129	994.402588	3934.375488	1383.516602	13.235292
333.302063	978.473938	4084.559814	1442.680176	14.945055
333.671906	1021.708862	4209.713379	1467.710938	13.990008
334.041718	928.412476	4207.437988	1360.761475	13.185289
334.411499	937.514587	4257.499512	1385.792114	13.502397
334.781281	939.790100	4196.060547	1447.231201	15.583506
335.151001	953.443237	4305.285156	1424.476074	14.052956
335.520721	1014.882263	4198.335938	1440.404663	13.366691
335.890350	921.585938	4086.835449	1422.200562	15.815961
336.259979	880.626526	4168.753906	1360.761475	14.602078
336.629547	955.718750	4152.825684	1408.547363	14.163699
336.999084	967.096313	4223.366699	1488.190552	16.002792
337.368622	953.443237	4027.671875	1388.067749	14.137677
337.738098	851.044800	4105.039551	1463.159912	18.811190
338.107513	885.177612	4198.335938	1447.231201	16.964285
338.476898	894.279663	4177.855957	1413.098389	15.800417
338.846252	951.167725	4148.274414	1469.986450	16.227758
339.215576	973.922913	4414.510254	1388.067749	12.037039
339.584869	896.555176	4293.907715	1463.159912	16.677832
339.954132	1044.463989	4205.162598	1381.241089	10.655148
340.323334	928.412476	4134.621094	1465.435425	16.749470
340.692505	894.279663	3948.028564	1429.027100	17.511179
341.061646	953.443237	3857.007813	1449.506714	17.084639
341.430786	894.279663	4073.182129	1365.312500	14.817468
341.799896	983.024963	4275.703613	1447.231201	14.098133
342.168915	923.861450	4218.815430	1390.343262	14.157460
342.537903	937.514587	4225.642090	1474.537476	16.332180
342.906830	948.892151	4273.428223	1476.812988	15.879534
343.275757	992.127075	4421.336914	1410.822876	12.209687
343.644684	969.371887	4537.388672	1529.150024	15.688775
344.013550	944.341125	4541.939453	1508.670288	15.686275
344.382355	960.269775	4628.409180	1535.976563	15.694790
344.751129	985.300537	4894.645020	1456.333252	12.048893
345.119873	887.453125	4990.217285	1472.261963	14.254021
345.488586	1012.606750	5217.769043	1592.864502	13.798701
345.857269	992.127075	5415.739746	1554.180664	12.705759
346.225891	926.136963	5443.045898	1567.833862	14.206549
346.594482	955.718750	5484.005371	1567.833862	13.517588
346.963043	907.932800	5374.780273	1549.629639	14.365765
347.331543	885.177612	5208.666992	1483.639526	13.842105
347.700043	942.065613	5058.482910	1483.639526	13.156438
348.068512	992.127075	5024.350098	1545.078613	13.713317
348.436951	878.351013	4887.818848	1463.159912	14.585699
348.805328	1005.780212	4628.409180	1506.394775	13.819096
349.173645	957.994263	4612.480469	1474.537476	14.134496
349.541931	946.616638	4592.000977	1474.537476	14.481898
349.910217	912.483826	4783.144531	1510.945801	15.461494
350.278473	939.790100	4940.155762	1490.466064	13.765640
350.646667	901.106262	4935.604492	1463.159912	13.931190
351.014801	932.963501	5019.798828	1504.119263	13.975502
351.382935	1012.606750	4880.992188	1567.833862	14.352942
351.751007	964.820801	4965.186523	1447.231201	12.059157
352.119049	914.759338	4962.910645	1513.221313	14.783587
352.487091	957.994263	4987.941406	1533.701050	14.285715
352.855072	948.892151	5063.033691	1515.496826	13.772124
353.222992	957.994263	5154.054688	1499.568237	12.906725
353.590881	953.443237	5160.881348	1590.588989	15.143319
353.958740	912.483826	5449.872559	1581.486938	14.744232
354.326599	887.453125	5481.729492	1629.272949	16.146608
354.694397	882.902100	5809.404785	1679.334351	16.166281
355.062134	912.483826	5784.374023	1599.691162	14.105559
355.429840	878.351013	5707.006348	1743.048950	17.907635
355.797516	946.616638	5970.966797	1711.191650	15.217391
356.165192	896.555176	6157.559082	1692.987427	15.138409
356.532776	892.004150	6303.192383	1752.151001	15.895710
356.900360	967.096313	6435.172852	1711.191650	13.607990
357.267883	976.198425	6426.070801	1754.426514	14.279748
357.635376	978.473938	6906.205566	1881.855713	15.239924
358.002808	960.269775	7277.115723	1893.233276	14.769452
358.370270	964.820801	7568.382324	1931.917114	14.645072
358.737640	937.514587	7561.555664	1913.713013	14.737204
359.105011	905.657288	7302.146484	1861.375977	14.941300
359.472321	926.136963	6967.644531	1799.937012	14.463278
359.839569	978.473938	6837.939941	1747.599976	13.126214
360.206787	921.585938	6915.307617	1674.783325	12.566439
360.574005	907.932800	7170.166016	1897.784302	15.806684
360.941193	873.799988	7390.891602	1934.192627	16.270947
361.308319	887.453125	8055.343750	1993.356201	15.428571
361.675415	944.341125	8335.232422	2063.897461	15.147786
362.042450	932.963501	8831.295898	2020.662476	13.771248
362.409424	971.647400	9766.535156	2186.775391	13.816298
362.776428	898.830688	9736.953125	2091.203613	13.491247
363.143402	901.106262	9163.522461	2234.561523	16.138807
363.510284	978.473938	8594.641602	2038.866699	13.922919
363.877136	971.647400	7727.668457	1927.366089	14.146177
364.243988	937.514587	7384.064941	1818.141113	13.660431
364.610779	894.279663	6935.787598	1756.702026	14.274952
364.977539	905.657288	6712.786133	1781.732788	15.086207
365.344269	983.024963	6717.337402	1738.497925	13.174604
365.710938	926.136963	6544.397949	1809.039063	15.714865
366.077576	937.514587	6505.713867	1797.661377	15.447486
366.444183	866.973450	6355.529785	1727.120239	15.671640
366.810760	1001.229126	6332.774414	1743.048950	13.913786
367.177277	998.953613	6530.744629	1642.926025	11.641300
367.543823	894.279663	6564.877441	1765.804199	15.369184
367.910248	930.687988	6469.305664	1718.018188	14.215283
368.276642	928.412476	6328.223145	1686.160889	14.032870
368.643036	939.790100	6305.468262	1681.609863	13.825274
369.009399	885.177612	6214.447266	1718.018188	15.627668
369.375671	892.004150	6000.548340	1720.293701	16.213808
369.741974	951.167725	6168.937012	1713.467163	14.609680
370.108215	923.861450	6089.293457	1772.630737	16.431719
370.474396	910.208313	6066.538574	1713.467163	15.578112
370.840546	932.963501	5993.721680	1652.028076	14.208633
371.206665	994.402588	6200.793945	1613.344238	11.888112
371.572784	955.718750	6289.539551	1729.395752	14.505118
371.938843	935.239075	6485.234375	1711.191650	13.981140
372.304840	905.657288	6705.959961	1809.039063	15.574735
372.670807	957.994263	6305.468262	1777.181763	15.319148
373.036713	1017.157776	6530.744629	1752.151001	13.330582
373.402649	930.687988	6441.999512	1652.028076	13.088356
373.768524	942.065613	6360.080566	1611.068726	12.347753
374.134308	987.576050	6430.621582	1708.916138	13.252509
374.500122	944.341125	6487.509766	1799.937012	15.435142
374.865875	962.545288	6521.642578	1747.599976	14.121982
375.231567	962.545288	6482.958984	1724.844727	13.808738
375.597260	905.657288	6721.888672	1692.987427	13.536775
375.962891	946.616638	6874.348145	1818.141113	14.702496
376.328461	932.963501	6919.858887	1831.794189	15.013302
376.694031	960.269775	7229.329590	1847.722900	14.156080
377.059540	887.453125	7563.831055	1822.692139	14.008180
377.425049	964.820801	7793.658691	1950.121338	14.428524
377.790497	978.473938	8005.282227	1966.049927	14.054404
378.155945	960.269775	8260.140625	1954.672363	13.622193
378.521301	873.799988	8112.231445	1849.998413	13.486325
378.886597	901.106262	7937.016602	1909.161987	14.327296
379.251892	957.994263	7613.892578	1890.957764	14.017094
379.617157	976.198425	7299.870605	1813.590088	13.242173
379.982422	978.473938	7047.288086	1897.784302	15.148106
380.347595	973.922913	7104.175781	1758.977539	12.806235
380.712738	903.381775	7076.869629	1786.283813	14.301511
381.077820	985.300537	7258.911133	1861.375977	13.964454
381.442902	898.830688	7022.257324	1758.977539	14.046822
381.807953	989.851563	7124.655762	1804.488037	13.278932
382.172974	928.412476	6958.542480	1834.069824	15.018869
382.537933	939.790100	6953.991699	1881.855713	15.664018
382.902832	898.830688	6899.378906	1809.039063	15.168754
383.267700	914.759338	7256.635742	1756.702026	13.275924
383.632538	944.341125	7308.972656	1818.141113	13.728996
383.997345	948.892151	7479.636719	1959.223389	15.470384
384.362152	953.443237	7893.781738	1906.886475	13.737705
384.726898	930.687988	7588.861816	1824.967651	13.431306
385.091553	953.443237	7745.873047	1947.845825	14.639866
385.456238	973.922913	7638.923340	1843.171875	13.041994
385.820862	987.576050	7750.423828	1854.549438	12.819650
386.185425	889.728638	7579.759766	1854.549438	14.421768
386.549988	1005.780212	7736.770508	1893.233276	13.184584
386.914490	1005.780212	7921.087891	1945.570313	13.589997
387.278961	1010.331238	8046.241699	1979.703125	13.777490
387.643372	857.871338	7987.078125	1929.641602	15.033513
388.007782	912.483826	8053.068359	1906.886475	13.926068
388.372101	930.687988	8196.425781	1943.294800	13.936738
388.736450	983.024963	8089.476563	1870.478149	12.487993
389.100739	971.647400	8175.946289	1993.356201	14.181932
389.464966	892.004150	7996.180176	1984.254150	15.374761
389.829163	841.942688	7802.760742	1922.815063	15.527950
390.193329	912.483826	7714.015625	1852.273926	13.817330
390.557495	969.371887	7896.057129	1922.815063	13.764783
390.921570	1010.331238	8134.986816	1936.468262	12.999043
391.285614	937.514587	8200.976563	1991.080688	14.505013
391.649597	873.799988	8842.673828	1952.396851	13.535123
392.013550	944.341125	9313.707031	2011.560425	12.751494
392.377502	978.473938	9325.083984	2034.315552	12.649944
392.741455	964.820801	9393.349609	1993.356201	12.203023
393.105316	898.830688	9432.034180	2116.234375	14.266667
393.469086	983.024963	9020.164063	1968.325439	12.259343
393.832886	942.065613	8824.469727	1922.815063	12.442263
394.196655	973.922913	9006.511719	1941.019287	12.039660
394.560333	853.320313	9195.379883	1929.641602	12.902345
394.924042	878.351013	9391.074219	1849.998413	11.414061
395.287659	948.892151	9290.951172	1968.325439	12.220405
395.651245	1001.229126	9409.278320	1972.876587	11.556159
396.014771	898.830688	8956.450195	1870.478149	12.058741
396.378296	928.412476	8460.386719	1859.100464	12.356495
396.741791	921.585938	8303.375000	1865.927002	12.792849
397.105255	930.687988	8353.436523	1909.161987	13.182098
397.468628	983.024963	8155.466797	1772.630737	11.008883
397.832001	955.718750	8128.160156	1838.620850	12.309646
398.195313	951.167725	8132.711426	1847.722900	12.484157
398.558624	937.514587	8353.436523	1743.048950	10.862228
398.921844	917.034912	8266.966797	1777.181763	11.702787
399.285095	903.381775	8419.426758	1743.048950	11.171662
399.648254	887.453125	8458.110352	1765.804199	11.602045
400.011383	912.483826	8346.610352	1827.243164	12.304867
400.374451	912.483826	8119.058105	1852.273926	13.040733
400.737549	939.790100	8567.335938	1845.447388	11.873508
401.100586	882.902100	8018.935547	1818.141113	13.105866
401.463562	921.585938	8246.487305	1852.273926	12.705810
401.826508	928.412476	8451.284180	1774.906250	11.252270
402.189392	983.024963	8137.262207	1715.742676	10.241731
402.552246	971.647400	8330.681641	1843.171875	11.842919
402.915070	855.595825	8367.089844	1772.630737	12.208422
403.277893	948.892151	8756.204102	1770.355225	10.521714
403.640656	985.300537	8758.479492	1686.160889	9.016393
404.003326	907.932800	9031.541992	1797.661377	10.952380
404.366028	946.616638	9131.665039	1829.518677	10.786766
404.728699	955.718750	9582.217773	1849.998413	10.366658
405.091248	1003.504700	9750.606445	1872.753662	9.937566
405.453857	942.065613	9789.290039	1911.437500	10.956791
405.816345	983.024963	9832.525391	1822.692139	9.488300
406.178833	882.902100	9834.800781	1831.794189	10.599897
406.541260	1008.055725	9841.627930	1868.202637	9.737248
406.903687	992.127075	9680.065430	1772.630737	8.983762
407.266052	967.096313	9213.583984	1861.375977	10.844371
407.628387	1028.535400	9163.522461	1827.243164	9.818181
407.990662	955.718750	9170.348633	1743.048950	9.584488
408.352905	896.555176	9163.522461	1713.467163	9.881641
408.715118	914.759338	9256.818359	1747.599976	9.983634
409.077332	937.514587	8901.836914	1661.130127	9.085714
409.439484	914.759338	9197.655273	1667.956787	9.093408
409.801575	898.830688	9347.839844	1699.814087	9.480206
410.163605	980.749451	9466.166992	1740.773438	8.956824
410.525635	989.851563	9618.625977	1758.977539	8.913502
410.887604	912.483826	9702.820313	1804.488037	10.147554
411.249573	892.004150	9655.035156	1786.283813	10.205141
411.611481	948.892151	9689.167969	1772.630737	9.424629
411.973328	921.585938	9347.839844	1702.089600	9.262760
412.335144	976.198425	9457.064453	1804.488037	9.766568
412.696930	973.922913	9411.553711	1697.538574	8.576053
413.058685	939.790100	9611.799805	1629.272949	7.950670
413.420410	919.310425	9470.717773	1554.180664	7.424161
413.782104	889.728638	9591.320313	1683.885376	9.126569
414.143707	912.483826	9645.932617	1711.191650	9.145388
414.505310	882.902100	9709.647461	1622.446289	8.378448
414.866852	930.687988	9862.107422	1588.313477	7.363057
415.228394	921.585938	9748.331055	1629.272949	8.017530
415.589874	948.892151	10046.424805	1631.548462	7.503753
415.951324	951.167725	10230.741211	1624.721802	7.258460
416.312683	935.239075	10326.313477	1645.201538	7.559971
416.674072	1046.739624	10745.008789	1617.895264	5.889253
417.035370	923.861450	10838.305664	1547.354126	6.288731
417.396667	942.065613	11159.154297	1533.701050	5.790646
417.757935	951.167725	11131.847656	1595.140137	6.325436
418.119141	880.626526	11607.431641	1677.058838	7.424693
418.480286	896.555176	11741.687500	1715.742676	7.553504
418.841400	882.902100	12503.986328	1706.640625	7.088311
419.202484	946.616638	12779.325195	1649.752563	5.942307
419.563568	957.994263	13320.898438	1761.253052	6.497331
419.924591	973.922913	14374.464844	1813.590088	6.265920
420.285553	957.994263	14201.525391	1765.804199	6.099657
420.646484	996.678101	15457.613281	1831.794189	5.774980
421.007355	960.269775	15459.888672	1856.824951	6.183301
421.368225	946.616638	16247.218750	1911.437500	6.305770
421.729065	912.483826	16852.507813	1904.610962	6.224125
422.089874	942.065613	17362.224609	1943.294800	6.097561
422.450592	930.687988	17107.365234	1997.907227	6.597271
422.811279	937.514587	17086.884766	1936.468262	6.185713
423.171936	960.269775	16920.773438	1911.437500	5.959509
423.532593	1017.157776	16888.916016	1966.049927	5.978494
423.893127	953.443237	17055.029297	1893.233276	5.836630
424.253723	930.687988	17330.367188	1886.406738	5.827667
424.614197	996.678101	16875.261719	1865.927002	5.474348
424.974670	948.892151	17899.246094	1961.498901	5.973957
425.335052	919.310425	18165.482422	2032.040039	6.452038
425.695496	923.861450	16827.476563	1975.152100	6.610388
426.055817	928.412476	17532.888672	1945.570313	6.125805
426.416168	944.341125	17125.570313	2070.723877	6.961046
426.776398	889.728638	16201.708008	1952.396851	6.940110
427.136627	989.851563	15475.817383	1918.264038	6.409048
427.496826	998.953613	15198.203125	1929.641602	6.554487
427.856995	962.545288	14620.220703	1906.886475	6.914362
428.217102	873.799988	13951.217773	1799.937012	7.081956
428.577179	932.963501	13871.575195	1793.110352	6.647907
428.937195	905.657288	13673.604492	1802.212524	7.021922
429.297180	944.341125	13259.459961	1786.283813	6.836659
429.657135	937.514587	13168.438477	1861.375977	7.553488
430.017059	905.657288	13539.348633	1779.457275	6.916427
430.376984	869.248962	13245.806641	1743.048950	7.060122
430.736786	1003.504700	13063.764648	1802.212524	6.622642
431.096588	885.177612	12936.335938	1731.671387	7.024169
431.456360	967.096313	12949.989258	1777.181763	6.760350
431.816071	907.932800	12788.426758	1788.559326	7.412373
432.175781	955.718750	12906.753906	1656.579102	5.864432
432.535400	860.146851	12949.989258	1754.426514	7.396950
432.895020	930.687988	12893.100586	1674.783325	6.220278
433.254578	996.678101	12865.794922	1704.365112	5.962423
433.614105	907.932800	13391.439453	1718.018188	6.489245
433.973602	960.269775	13612.165039	1793.110352	6.582734
434.333038	951.167725	13621.267578	1679.334351	5.747126
434.692444	1026.259888	13430.124023	1740.773438	5.760411
435.051819	998.953613	13714.563477	1772.630737	6.084467
435.411133	917.034912	13723.666016	1727.120239	6.325515
435.770416	923.861450	13132.030273	1640.650513	5.871389
436.129669	962.545288	13684.982422	1740.773438	6.116974
436.488861	989.851563	13427.848633	1731.671387	5.964142
436.848083	989.851563	13662.226563	1708.916138	5.674268
437.207184	996.678101	13605.338867	1715.742676	5.702941
437.566254	978.473938	13837.442383	1790.834839	6.317465
437.925293	939.790100	13546.175781	1667.956787	5.776173
438.284363	955.718750	13644.022461	1663.405762	5.577476
438.643311	953.443237	14151.463867	1697.538574	5.637931
439.002258	866.973450	14372.189453	1688.436401	6.082561
439.361145	914.759338	14747.650391	1633.823975	5.198224
439.719971	948.892151	15084.427734	1636.099487	4.861559
440.078827	892.004150	15307.428711	1711.191650	5.682715
440.437592	985.300537	15739.777344	1770.355225	5.320790
440.796295	942.065613	16017.390625	1731.671387	5.237736
441.155029	998.953613	17264.376953	1777.181763	4.784555
441.513672	928.412476	17243.896484	1795.385864	5.313807
441.872253	878.351013	17064.130859	1743.048950	5.342331
442.230865	903.381775	16638.607422	1745.324463	5.350687
442.589386	944.341125	16777.414063	1747.599976	5.073297
442.947876	928.412476	16597.648438	1667.956787	4.719721
443.306335	894.279663	15971.880859	1745.324463	5.644431
443.664764	962.545288	15471.265625	1649.752563	4.736512
444.023102	921.585938	15612.348633	1647.477051	4.941140
444.381500	921.585938	15607.796875	1722.569214	5.453982
444.739777	955.718750	15573.664063	1615.619751	4.514321
445.098022	951.167725	16090.208008	1558.731689	4.013227
445.456238	930.687988	15876.308594	1749.875488	5.481121
445.814423	921.585938	16679.568359	1774.906250	5.415162
446.172577	937.514587	17330.367188	1822.692139	5.399777
446.530701	930.687988	17437.316406	1704.365112	4.687069
446.888733	962.545288	17799.123047	1831.794189	5.162859
447.246765	967.096313	18898.201172	1881.855713	5.101522
447.604736	957.994263	18215.544922	1772.630737	4.720464
447.962677	894.279663	18741.189453	1920.539551	5.750350
448.320587	935.239075	18732.087891	1770.355225	4.692494
448.678436	989.851563	18361.177734	1845.447388	4.925334
449.036255	996.678101	17869.664063	1754.426514	4.490897
449.394043	926.136963	16852.507813	1815.865601	5.586512
449.751770	939.790100	17264.376953	1774.906250	5.115695
450.109467	1008.055725	16652.261719	1733.946899	4.640000
450.467163	951.167725	16424.708984	1809.039063	5.544118
450.824768	948.892151	16411.056641	1729.395752	5.047829
451.182343	923.861450	16126.616211	1824.967651	5.927256
451.539886	937.514587	15573.664063	1897.784302	6.560945
451.897369	1017.157776	15889.961914	1870.478149	5.737455
452.254822	898.830688	15393.898438	1897.784302	6.891680
452.612274	942.065613	16176.677734	2022.937988	7.094846
452.969635	919.310425	15978.707031	2016.111450	7.283167
453.326965	921.585938	15942.298828	1981.978638	7.059536
453.684326	914.759338	15562.287109	1959.223389	7.130651
454.041534	942.065613	15245.989258	2070.723877	7.890550
454.398773	967.096313	14900.110352	2063.897461	7.871959
454.755951	976.198425	14602.016602	2025.213501	7.698731
455.113098	980.749451	14247.036133	2086.652588	8.336191
455.470215	1001.229126	14390.393555	2129.887451	8.429640
455.827240	930.687988	14363.086914	2214.081787	9.554465
456.184265	996.678101	13764.625000	2252.765625	9.837819
456.541260	935.239075	14162.841797	2296.000488	10.287288
456.898193	926.136963	14181.045898	2227.734863	9.819742
457.255096	910.208313	14274.341797	2393.847900	11.101652
457.611969	880.626526	14208.351563	2523.552490	12.327130
457.968781	953.443237	14347.158203	2430.256104	11.026163
458.325531	976.198425	14460.934570	2459.837891	11.002361
458.682312	989.851563	15207.305664	2653.257324	11.699744
459.039001	953.443237	15837.625000	2958.177002	13.468888
459.395630	951.167725	16599.923828	3101.534912	13.741458
459.752289	996.678101	18215.544922	3260.821289	13.149199
460.108856	955.718750	19514.867188	3624.904541	14.382049
460.465363	932.963501	19967.695313	3818.323975	15.158398
460.821899	948.892151	20136.083984	3804.670898	14.883777
461.178345	951.167725	19271.384766	3902.518066	16.109800
461.534760	964.820801	19114.375000	3863.834229	15.972918
461.891144	905.657288	18195.064453	3813.772949	16.820217
462.247467	960.269775	17105.089844	3750.058350	17.279776
462.603760	951.167725	16891.191406	3788.742188	17.801571
462.960052	894.279663	16115.238281	3668.139648	18.223949
463.316254	914.759338	15644.205078	3709.098877	18.971111
463.672424	967.096313	15300.601563	3793.293213	19.717417
464.028564	914.759338	14902.385742	3875.211914	21.164797
464.384644	942.065613	15022.988281	3934.375488	21.250807
464.740723	873.799988	15170.897461	4111.866211	22.648417
465.096741	896.555176	14872.803711	3968.508301	21.979813
465.452698	951.167725	14683.935547	3936.650879	21.739851
465.808655	1053.566162	14777.232422	4161.927734	22.649645
466.164520	928.412476	14647.527344	4196.060547	23.818213
466.520355	921.585938	15398.449219	4403.132813	24.049042
466.876190	937.514587	16094.758789	4553.316895	23.855274
467.231964	926.136963	15555.459961	4532.837402	24.653912
467.587677	960.269775	16208.535156	4723.980957	24.682880
467.943390	1003.504700	16279.076172	4885.542969	25.413376
468.299011	898.830688	15819.420898	4799.073242	26.140003
468.654633	939.790100	15619.174805	4940.155762	27.251591
469.010223	896.555176	15587.317383	4774.042480	26.394053
469.365723	969.371887	15123.111328	4912.849609	27.861738
469.721191	964.820801	15491.746094	4992.492676	27.725563
470.076660	964.820801	14708.966797	4762.665039	27.632448
470.432068	946.616638	15002.508789	4910.573730	28.201389
470.787445	905.657288	14918.314453	4890.094238	28.434557
471.142792	862.422363	14668.006836	5213.218262	31.514755
471.498016	955.718750	15191.376953	4985.666016	28.308823
471.853271	939.790100	15054.845703	5288.310547	30.807674
472.208496	957.994263	15111.733398	5149.503418	29.614147
472.563660	951.167725	15412.102539	5311.065430	30.149487
472.918762	969.371887	15521.327148	5497.658203	31.118061
473.273865	907.932800	15751.155273	5693.353027	32.239765
473.628876	907.932800	16433.810547	5848.088379	31.818850
473.983917	912.483826	16206.258789	5766.169922	31.736349
474.338837	942.065613	16169.850586	5879.945801	32.426781
474.693787	971.647400	16137.993164	5902.701172	32.513130
475.048645	1028.535400	15742.052734	5993.721680	33.745747
475.403503	880.626526	16213.085938	6102.946777	34.060555
475.758270	923.861450	16454.291016	5970.966797	32.498169
476.113037	971.647400	16313.208984	6118.875488	33.550873
476.467773	987.576050	16820.650391	6232.651367	33.127335
476.822418	996.678101	17623.908203	6781.051758	34.788555
477.177063	955.718750	17312.162109	6592.183594	34.460209
477.531647	923.861450	17673.970703	6944.889648	35.946201
477.886200	992.127075	18115.421875	7179.268066	36.132889
478.240723	971.647400	18568.250000	7374.962891	36.389496
478.595184	923.861450	18800.353516	7213.400879	35.183300
478.949585	923.861450	19319.171875	7531.973633	35.922810
479.303986	960.269775	19457.978516	7691.260254	36.388237
479.658325	1026.259888	19442.048828	7739.046387	36.451256
480.012634	930.687988	19603.611328	7784.556641	36.704849
480.366913	951.167725	20386.390625	8125.884766	36.916050
480.721130	989.851563	20914.312500	8458.110352	37.482864
481.075317	912.483826	21253.365234	8423.977539	36.928066
481.429474	919.310425	22197.705078	9036.092773	38.145653
481.783569	889.728638	23358.220703	9384.248047	37.806362
482.137604	969.371887	24639.339844	10035.046875	38.300323
482.491669	955.718750	26657.726563	10913.397461	38.742805
482.845612	921.585938	29668.240234	11969.239258	38.431091
483.199554	967.096313	33365.960938	13851.094727	39.766819
483.553436	926.136963	38749.843750	15940.023438	39.694382
483.907318	994.402588	46288.644531	19055.210938	39.874401
484.261139	973.922913	52205.000000	21856.376953	40.761299
484.614899	944.341125	54667.113281	23312.710938	41.636662
484.968628	912.483826	54116.437500	23362.771484	42.196651
485.322357	969.371887	51265.207031	21897.335938	41.609737
485.675964	885.177612	47594.792969	20334.054688	41.637844
486.029572	928.412476	43378.253906	18752.566406	41.988743
486.383148	948.892151	40620.320313	17146.048828	40.828266
486.736694	903.381775	38790.804688	16461.117188	41.063061
487.090149	946.616638	39154.886719	17034.548828	42.105892
487.443604	919.310425	40167.492188	17416.835938	42.033855
487.796997	873.799988	42199.535156	18197.339844	41.919495
488.150360	973.922913	43610.355469	18857.240234	41.943745
488.503693	939.790100	43660.417969	18818.556641	41.850426
488.856964	989.851563	42836.679688	18766.220703	42.479610
489.210175	996.678101	40602.117188	17623.908203	41.982193
489.563416	946.616638	38014.851563	16820.650391	42.823822
489.916565	967.096313	35768.910156	15949.125000	43.049564
490.269653	1053.566162	33482.011719	14975.202148	42.930321
490.622772	951.167725	32835.765625	14786.333984	43.391376
490.975769	882.902100	32824.386719	14679.384766	43.192989
491.328735	976.198425	34474.140625	15525.878906	43.434551
491.681732	892.004150	36585.824219	16392.851563	43.427258
492.034607	989.851563	38167.308594	17428.212891	44.215939
492.387482	967.096313	39232.253906	17630.734375	43.547813
492.740326	901.106262	38372.105469	17216.589844	43.541630
493.093079	957.994263	36462.945313	16513.455078	43.812092
493.445862	930.687988	32983.675781	15093.529297	44.185715
493.798523	921.585938	30585.275391	13796.482422	43.402882
494.151215	846.493713	28170.947266	12968.193359	44.362091
494.503815	917.034912	26241.306641	12146.730469	44.343605
494.856384	898.830688	24477.777344	11486.829102	44.904457
495.208923	955.718750	23940.753906	11165.980469	44.421345
495.561432	919.310425	23201.210938	10927.050781	44.914211
495.913879	973.922913	22336.511719	10815.550781	46.069454
496.266296	1003.504700	23110.189453	10920.224609	44.858463
496.618683	946.616638	23171.628906	10820.101563	44.425106
496.970978	946.616638	23879.314453	11122.746094	44.373890
497.323273	894.279663	23672.242188	11131.847656	44.945057
497.675507	964.820801	24120.519531	11409.460938	45.106133
498.027710	948.892151	24172.857422	11454.971680	45.238094
498.379852	921.585938	23870.212891	11143.225586	44.541401
498.731995	921.585938	23221.689453	11250.174805	46.316326
499.084076	928.412476	22894.015625	11059.031250	46.120377
499.436096	957.994263	22841.677734	10870.163086	45.294792
499.788086	921.585938	22238.664063	10729.081055	46.007690
500.140106	1035.361938	21908.714844	10394.579102	44.838108
500.491943	912.483826	21476.365234	10428.711914	46.276424
500.843842	923.861450	21305.701172	10458.293945	46.779057
501.195679	980.749451	20584.361328	9955.403320	45.780617
501.547455	873.799988	20231.656250	9871.208984	46.479370
501.899231	1001.229126	19924.460938	9978.159180	47.438671
502.250885	864.697876	19995.001953	9730.126953	46.342327
502.602600	1014.882263	19715.111328	9695.994141	46.422493
502.954193	892.004150	19863.021484	9721.024414	46.539520
503.305786	942.065613	19844.816406	9827.974609	47.008553
503.657379	948.892151	20204.349609	9859.832031	46.277477
504.008820	1035.361938	19876.673828	9661.861328	45.785023
504.360291	957.994263	20349.982422	10050.975586	46.890404
504.711700	907.932800	20288.542969	9921.270508	46.506989
505.063080	942.065613	20538.851563	10219.364258	47.340923
505.414368	973.922913	20459.207031	10105.587891	46.864422
505.765656	994.402588	20136.083984	9873.484375	46.386112
506.116943	926.136963	20179.318359	9771.085938	45.940197
506.468109	1003.504700	20111.052734	9959.954102	46.873878
506.819305	1001.229126	19776.550781	9916.719727	47.485153
507.170410	923.861450	19837.990234	9846.178711	47.172764
507.521484	976.198425	19913.082031	9914.444336	47.200199
507.872559	964.820801	20115.603516	9980.434570	47.076996
508.223480	912.483826	20415.972656	10064.628906	46.925686
508.574493	985.300537	20450.105469	10139.720703	47.030628
508.925385	901.106262	20764.126953	10308.109375	47.359375
509.276245	983.024963	21073.597656	10405.957031	46.902256
509.627045	985.300537	21235.160156	10462.844727	46.803013
509.977814	948.892151	21576.488281	10783.693359	47.677883
510.328613	953.443237	21649.304688	10672.192383	46.959866
510.679260	1026.259888	21840.449219	10861.060547	47.250462
511.029999	962.545288	22029.316406	11074.959961	48.001732
511.380585	985.300537	22309.205078	11113.643555	47.497601
511.731140	983.024963	22473.042969	10849.683594	45.912750
512.081726	969.371887	22609.574219	11056.755859	46.614090
512.432129	889.728638	22730.177734	11113.643555	46.811836
512.782654	992.127075	23114.740234	11297.960938	46.585068
513.133057	935.239075	22909.943359	11450.420898	47.851299
513.483398	892.004150	22725.626953	11143.225586	46.951538
513.833801	937.514587	22859.882813	11188.735352	46.761463
514.183960	898.830688	22532.207031	11038.551758	46.870724
514.534302	994.402588	22338.787109	11043.102539	47.078892
514.884460	932.963501	22400.226563	11304.787109	48.314602
515.234619	871.524475	22211.359375	11163.705078	48.229900
515.584717	928.412476	22099.857422	10911.122070	47.151764
515.934753	921.585938	22395.675781	11134.123047	47.557484
516.284851	953.443237	22493.523438	11188.735352	47.517429
516.634766	903.381775	22816.646484	11377.604492	47.798546
516.984741	885.177612	22711.972656	11432.216797	48.321522
517.334595	896.555176	23606.251953	11687.075195	47.515030
517.684448	1005.780212	24593.828125	12228.648438	47.578621
518.034363	1012.606750	25588.230469	12645.069336	47.333340
518.384094	901.106262	26298.193359	13109.275391	48.069168
518.733826	946.616638	27722.669922	13721.390625	47.709702
519.083496	901.106262	28175.498047	13700.911133	46.929752
519.433167	932.963501	28450.835938	14287.995117	48.532207
519.782776	980.749451	27954.773438	13662.226563	47.013668
520.132324	892.004150	27854.650391	13714.563477	47.556755
520.481873	919.310425	27131.035156	13311.796875	47.278408
520.831299	903.381775	26502.990234	12911.304688	46.906666
521.180786	905.657288	25560.925781	12642.793945	47.604984
521.530151	998.953613	25533.619141	12583.629883	47.217583
521.879517	957.994263	25080.791016	12321.945313	47.108765
522.228882	928.412476	24575.625000	12449.374023	48.720169
522.578064	955.718750	24891.921875	12210.444336	47.019676
522.927307	894.279663	24814.554688	12376.557617	48.002285
523.276489	969.371887	24725.808594	12422.068359	48.208813
523.625610	980.749451	25042.105469	12503.986328	47.891056
523.974792	930.687988	25433.496094	12767.947266	48.309807
524.323792	905.657288	25990.998047	12952.264648	48.022499
524.672852	896.555176	26853.421875	13264.010742	47.646179
525.021790	964.820801	27781.833984	13641.747070	47.271954
525.370728	907.932800	28746.654297	14422.250977	48.545040
525.719604	939.790100	30480.601563	14986.580078	47.550457
526.068420	957.994263	32041.609375	15944.574219	48.213760
526.417297	980.749451	33274.941406	16383.750000	47.695889
526.765991	905.657288	34094.128906	16779.689453	47.829956
527.114746	951.167725	35347.941406	17532.888672	48.207199
527.463379	973.922913	36383.300781	18010.748047	48.113876
527.812012	951.167725	38768.046875	18961.914063	47.626209
528.160706	998.953613	42026.593750	20918.863281	48.552414
528.509155	948.892151	46812.015625	23426.486328	49.010166
528.857727	946.616638	51590.609375	25656.496094	48.791332
529.206177	955.718750	54471.417969	27745.425781	50.059528
529.554565	955.718750	54412.253906	27417.750000	49.501957
529.902893	971.647400	53010.531250	26710.062500	49.459969
530.251221	910.208313	49868.039063	24812.279297	48.821751
530.599548	901.106262	45956.417969	22682.390625	48.343433
530.947876	930.687988	42479.421875	20937.066406	48.151596
531.296021	955.718750	39432.500000	19517.142578	48.240585
531.644165	942.065613	36918.050781	17987.992188	47.381401
531.992249	946.616638	35259.195313	17314.437500	47.702103
532.340454	948.892151	34246.589844	17077.783203	48.438454
532.688354	955.718750	34417.253906	17036.824219	48.058479
533.036438	953.443237	35850.832031	17851.460938	48.422009
533.384338	948.892151	37823.707031	18738.914063	48.244366
533.732239	882.902100	39896.707031	19574.029297	47.909008
534.080139	987.576050	40165.218750	19869.847656	48.196545
534.427917	976.198425	39487.113281	19294.140625	47.565586
534.775757	907.932800	37568.847656	18584.177734	48.215504
535.123474	901.106262	35800.769531	17323.539063	47.056137
535.471191	896.555176	34123.710938	16593.097656	47.240105
535.818848	901.106262	32644.621094	16181.228516	48.136200
536.166382	957.994263	32000.648438	15537.255859	46.965256
536.513977	962.545288	31848.189453	15505.398438	47.086124
536.861511	1008.055725	32558.152344	15990.084961	47.486477
537.208984	971.647400	32373.833984	16083.380859	48.123188
537.556396	885.177612	32442.099609	15887.686523	47.541103
537.903809	939.790100	31304.339844	15792.114258	48.913372
538.251160	944.341125	30808.275391	15250.540039	47.904606
538.598389	953.443237	29247.269531	14681.660156	48.520184
538.945740	905.657288	28630.603516	14194.699219	47.931717
539.292969	905.657288	28175.498047	14099.126953	48.381176
539.640137	910.208313	28091.304688	14140.085938	48.673084
539.987244	955.718750	28177.773438	14112.780273	48.332359
540.334351	939.790100	28826.296875	14445.005859	48.429214
540.681458	964.820801	30853.787109	15455.336914	48.481152
541.028442	951.167725	33766.453125	17348.570313	49.968796
541.375366	905.657288	37179.734375	18745.740234	49.181351
541.722290	951.167725	39869.398438	20456.931641	50.119862
542.069153	948.892151	41678.437500	21633.376953	50.784962
542.416016	917.034912	41632.929688	21449.058594	50.427540
542.762756	932.963501	40044.613281	20914.312500	51.087975
543.109558	887.453125	38617.863281	19997.277344	50.648335
543.456299	937.514587	37439.144531	19032.455078	49.572971
543.802917	921.585938	35916.820313	18224.646484	49.444050
544.149536	903.381775	34207.902344	17198.386719	48.927307
544.496094	953.443237	31763.994141	16379.198242	50.066467
544.842651	928.412476	30214.365234	15619.174805	50.163170
545.189148	992.127075	28510.000000	14865.977539	50.417599
545.535583	935.239075	27916.089844	14674.833984	50.923504
545.882019	926.136963	27299.423828	14731.721680	52.346851
546.228333	1010.331238	26939.890625	14567.883789	52.286091
546.574707	978.473938	27046.839844	14661.180664	52.487782
546.920898	910.208313	27144.687500	14683.935547	52.502388
547.267212	903.381775	27272.117188	14602.016602	51.950291
547.613342	910.208313	27005.880859	14235.658203	51.063831
547.959473	976.198425	26309.572266	13835.166016	50.759003
548.305664	994.402588	25727.039063	13498.389648	50.556629
548.651611	962.545288	24448.195313	12777.048828	50.305202
548.997742	935.239075	23883.867188	12203.618164	49.102623
549.343689	973.922913	22737.003906	11584.676758	48.755756
549.689575	894.279663	21719.845703	11061.306641	48.819931
550.035522	930.687988	21178.271484	10590.273438	47.707352
550.381287	917.034912	20429.625000	10223.915039	47.696796
550.727173	976.198425	19888.052734	10137.445313	48.441826
551.072876	898.830688	19462.529297	9814.321289	48.026474
551.418640	887.453125	19505.763672	9691.443359	47.286732
551.764282	885.177612	19291.865234	9586.769531	47.274078
552.109863	960.269775	19510.314453	9548.084961	46.295387
552.455505	898.830688	19694.632813	9404.727539	45.254234
552.801025	964.820801	19910.806641	9579.942383	45.472012
553.146545	930.687988	20411.421875	9416.105469	43.557999
553.491943	973.922913	20447.830078	9625.453125	44.426270
553.837341	926.136963	20445.554688	9575.391602	44.311028
554.182800	901.106262	19794.755859	9548.084961	45.766586
554.528015	978.473938	19428.396484	9443.411133	45.880615
554.873352	998.953613	19050.660156	9165.797852	45.241394
555.218628	1014.882263	19157.609375	9017.888672	44.111378
555.563721	887.453125	18595.556641	8922.317383	45.373940
555.908875	903.381775	18445.371094	8697.040039	44.428585
556.254028	935.239075	18147.279297	8619.672852	44.645683
556.599121	914.759338	18131.349609	8419.426758	43.589745
556.944031	951.167725	17751.337891	8273.793945	43.586620
557.289063	914.759338	17762.714844	8194.150391	43.206379
557.633972	978.473938	17557.917969	8207.803711	43.604176
557.978882	935.239075	17387.253906	7952.945313	42.655602
558.323792	964.820801	17503.306641	7982.526855	42.432579
558.668518	996.678101	17362.224609	7884.679688	42.088428
559.013306	978.473938	17232.519531	7818.689453	42.083157
559.358032	960.269775	17346.294922	7964.322754	42.744061
559.702637	901.106262	17141.498047	8005.282227	43.743870
560.047363	953.443237	17055.029297	7955.220703	43.485016
560.391846	930.687988	17284.855469	7893.781738	42.576874
560.736450	960.269775	16902.568359	7905.159180	43.562660
561.080933	892.004150	17373.601563	7891.506348	42.468590
561.425354	987.576050	17450.968750	7886.955078	41.907394
561.769775	944.341125	17655.765625	8062.170410	42.592594
562.114136	923.861450	17519.234375	7907.434570	42.081448
562.458496	921.585938	17596.601563	7982.526855	42.344433
562.802673	894.279663	17548.816406	8025.761719	42.820053
563.146912	953.443237	17400.908203	7786.832031	41.546761
563.491150	942.065613	17430.490234	7695.811523	40.960533
563.835266	960.269775	17255.273438	7757.250488	41.712051
564.179443	1012.606750	17389.529297	7593.413086	40.183411
564.523438	964.820801	16954.906250	7734.495117	42.336697
564.867493	905.657288	17353.121094	7670.780762	41.131714
565.211426	901.106262	17519.234375	7832.342773	41.708885
565.555359	901.106262	17412.285156	7977.976074	42.861076
565.899231	937.514587	17899.246094	8009.833008	41.695732
566.243042	948.892151	18572.800781	8189.599121	41.084572
566.586914	983.024963	18734.363281	8373.916992	41.635689
566.930603	962.545288	19460.253906	8503.621094	40.767620
567.274292	937.514587	19391.988281	8449.008789	40.702835
567.617981	946.616638	19494.386719	8344.334961	39.884678
567.961609	971.647400	18788.974609	8221.457031	40.689655
568.305237	898.830688	18518.187500	8007.557617	40.346119
568.648682	919.310425	18563.699219	7873.301758	39.411915
568.992188	860.146851	18031.226563	7900.608398	41.001854
569.335632	926.136963	18172.308594	7784.556641	39.767780
569.679016	942.065613	17947.033203	7650.300781	39.448681
570.022461	960.269775	17956.134766	7579.759766	38.947651
570.365662	942.065613	18076.736328	7691.260254	39.389114
570.708984	887.453125	17917.451172	7648.025391	39.698021
571.052185	935.239075	18033.501953	7627.545898	39.140270
571.395386	951.167725	18245.125000	7714.015625	39.105263
571.738525	951.167725	18748.015625	7905.159180	39.074287
572.081604	880.626526	19159.884766	8066.721191	39.312836
572.424683	923.861450	19605.886719	8141.813477	38.635811
572.767578	946.616638	19428.396484	8212.354492	39.312977
573.110596	985.300537	19640.019531	8317.028320	39.302269
573.453552	964.820801	19580.857422	8182.772949	38.772762
573.796387	896.555176	19237.251953	7875.577637	38.052113
574.139282	939.790100	19041.558594	7975.700195	38.868637
574.481995	928.412476	19112.099609	7855.097656	38.092850
574.824768	866.973450	18445.371094	7663.954102	38.666664
575.167480	946.616638	18668.373047	7668.504883	37.930149
575.510132	946.616638	18543.218750	7638.923340	38.031815
575.852722	921.585938	18854.964844	7579.759766	37.127270
576.195251	937.514587	18206.441406	7393.166992	37.383053
576.537842	923.861450	18019.849609	7422.749023	38.014111
576.880188	946.616638	17881.042969	7402.269043	38.121471
577.222717	978.473938	17498.755859	7208.850098	37.713497
577.565063	930.687988	17478.275391	6924.409668	36.221119
577.907410	978.473938	16711.423828	6926.685547	37.807350
578.249756	978.473938	16597.648438	6653.623047	36.334499
578.591919	1017.157776	16360.994141	6608.112305	36.437790
578.934204	973.922913	15908.166016	6407.866699	36.385799
579.276306	955.718750	15471.265625	6376.009277	37.341278
579.618469	955.718750	15232.335938	6187.141113	36.643291
579.960571	996.678101	14959.273438	6230.375977	37.483704
580.302551	967.096313	14765.854492	6050.609863	36.840370
580.644531	1023.984375	14865.977539	6121.150879	36.823936
580.986511	935.239075	14490.516602	5923.180664	36.797043
581.328369	917.034912	14590.639648	5754.791992	35.380260
581.670227	901.106262	14265.240234	5722.935059	36.080368
582.012024	928.412476	14358.536133	5609.158691	34.852589
582.353821	907.932800	14253.862305	5677.424316	35.737427
582.695496	907.932800	14313.025391	5818.506836	36.632153
583.037231	962.545288	14112.780273	5670.597656	35.802036
583.378845	942.065613	14090.024414	5543.168457	34.994808
583.720398	944.341125	14260.688477	5629.638672	35.184551
584.062012	864.697876	13769.176758	5465.800781	35.655087
584.403442	923.861450	14051.340820	5390.708984	34.026695
584.744934	969.371887	13823.789063	5529.515625	35.475304
585.086365	1003.504700	13721.390625	5270.105957	33.548038
585.427734	942.065613	13632.645508	5313.341309	34.445045
585.768982	1033.086426	13928.462891	5347.474121	33.456856
586.110291	1005.780212	13796.482422	5354.300293	33.997509
586.451599	951.167725	13443.777344	5261.003906	34.499084
586.792725	955.718750	13578.032227	5354.300293	34.847664
587.133850	937.514587	13646.297852	5229.146973	33.769028
587.474915	951.167725	13823.789063	5144.952637	32.579109
587.815979	976.198425	13521.144531	5208.666992	33.738438
588.157043	1012.606750	13737.319336	5097.166504	32.099426
588.497925	987.576050	13732.767578	5308.790039	33.904659
588.838867	989.851563	14071.820313	5051.656250	31.048880
589.179749	923.861450	14117.331055	5322.443359	33.339085
589.520569	869.248962	14037.687500	5181.360840	32.745811
589.861450	951.167725	14003.554688	5233.697754	32.810322
590.202087	942.065613	14429.077148	5333.820801	32.562851
590.542847	892.004150	14212.903320	5165.432129	32.080624
590.883484	960.269775	14376.740234	5190.462891	31.529852
591.224121	912.483826	14053.616211	5140.401367	32.173157
591.564636	987.576050	14365.363281	5035.727539	30.260246
591.905151	921.585938	14060.443359	5019.798828	31.191547
592.245667	903.381775	13871.575195	5063.033691	32.075802
592.585999	928.412476	13805.584961	4960.635254	31.312950
592.926453	1008.055725	13518.869141	4915.125000	31.229538
593.266724	946.616638	13805.584961	4910.573730	30.826399
593.607056	1026.259888	13655.400391	4894.645020	30.630629
593.947388	967.096313	13958.044922	4828.655273	29.724998
594.287476	889.728638	13771.452148	4815.001953	30.471647
594.627686	967.096313	14210.626953	4937.880371	29.982822
594.967773	969.371887	14353.985352	4835.481934	28.884735
595.307861	948.892151	14383.567383	4812.726563	28.760164
595.647888	976.198425	14394.944336	4817.277344	28.624723
595.987854	892.004150	14724.895508	4883.267578	28.853428
596.327820	953.443237	14788.609375	4931.053711	28.750000
596.667725	885.177612	14986.580078	5103.993164	29.917702
597.007568	946.616638	15919.543945	5201.840332	28.419449
597.347351	912.483826	16158.473633	5195.014160	28.089552
597.687073	969.371887	16611.302734	5231.422363	27.247597
598.026794	1010.331238	16474.771484	5215.493652	27.192465
598.366455	942.065613	16087.931641	5338.371582	29.026443
598.706116	937.514587	15332.458984	5010.696777	28.295921
599.045654	985.300537	15057.121094	4842.308105	27.409443
599.385193	944.341125	14408.597656	4637.511230	27.429440
599.724731	878.351013	14058.167969	4373.550781	26.519333
600.064087	957.994263	13955.769531	4384.928711	26.365547
600.403564	957.994263	13575.756836	4293.907715	26.438234
600.742920	930.687988	13248.082031	4266.601563	27.082949
601.082153	953.443237	13111.550781	4273.428223	27.306757
601.421387	992.127075	13307.246094	4082.284424	25.092386
601.760620	964.820801	13179.816406	4186.958496	26.378540
602.099854	962.545288	13136.582031	4105.039551	25.813082
602.438843	871.524475	13095.622070	4186.958496	27.122118
602.778015	894.279663	13694.083984	4120.968262	25.208889
603.117065	960.269775	13830.615234	4196.060547	25.141443
603.456055	937.514587	13923.912109	4248.397461	25.495007
603.794983	967.096313	14342.607422	4355.346680	25.331747
604.133850	914.759338	14943.344727	4560.143555	25.985403
604.472778	983.024963	15682.889648	4644.337891	24.907122
604.811584	917.034912	16056.075195	4678.470703	24.845934
605.150330	880.626526	16454.291016	4780.869141	25.043835
605.489075	930.687988	16552.138672	4746.736328	24.428257
605.827698	907.932800	16367.821289	4742.185547	24.801296
606.166382	935.239075	16219.912109	4701.226074	24.638977
606.504883	989.851563	15744.328125	4519.184082	23.920418
606.843445	957.994263	15161.794922	4380.377441	24.094841
607.181946	964.820801	14624.772461	4346.244629	24.754290
607.520386	921.585938	14292.545898	4250.672852	24.897890
607.858826	944.341125	13898.880859	4073.182129	24.152468
608.197083	873.799988	13757.798828	4125.519043	25.238430
608.535461	923.861450	13434.674805	3913.895752	23.899599
608.873718	992.127075	13675.879883	3973.059326	23.501972
609.211914	937.514587	14017.208008	4068.631104	23.938761
609.550171	910.208313	14442.730469	4214.264648	24.415672
609.888245	889.728638	14863.702148	4241.570801	23.986322
610.226318	960.269775	14854.599609	4280.254395	23.894527
610.564392	951.167725	15280.122070	4223.366699	22.836273
610.902344	926.136963	14586.087891	4084.559814	23.121773
611.240295	957.994263	14840.946289	4132.345703	22.865105
611.578247	998.953613	14435.904297	4105.039551	23.116003
611.916138	855.595825	14237.933594	4084.559814	24.128548
612.253845	937.514587	13930.738281	3959.406250	23.257442
612.591675	917.034912	13318.623047	3745.507324	22.807341
612.929382	960.269775	12990.948242	3843.354736	23.964441
613.267090	948.892151	12554.047852	3656.761963	23.333336
613.604736	898.830688	12645.069336	3599.874023	22.994967
613.942261	939.790100	12324.220703	3511.128662	22.586449
614.279785	942.065613	12269.608398	3549.812500	23.021294
614.617310	894.279663	11962.413086	3451.965088	23.108553
614.954712	976.198425	11809.953125	3540.710449	23.671497
615.292175	905.657288	11894.147461	3413.281250	22.820459
615.629517	935.239075	11805.402344	3451.965088	23.152607
615.966797	880.626526	11714.380859	3351.842041	22.810335
616.304138	907.932800	11611.982422	3451.965088	23.767006
616.641296	921.585938	11773.544922	3411.005615	22.939817
616.978516	962.545288	11759.891602	3345.015625	22.065331
617.315552	932.963501	11577.849609	3370.046387	22.894403
617.652771	1033.086426	11671.146484	3388.250488	22.139036
617.989685	944.341125	11916.902344	3374.597412	22.148487
618.326721	901.106262	11530.063477	3342.739990	22.971527
618.663696	912.483826	11491.379883	3347.291016	23.015701
619.000549	957.994263	11566.472656	3408.730225	23.101671
619.337463	930.687988	11746.238281	3301.780762	21.922997
619.674194	932.963501	11382.155273	3354.117676	23.170734
620.010986	985.300537	11377.604492	3269.923340	21.983795
620.347778	992.127075	11461.797852	3233.515137	21.408392
620.684387	976.198425	11475.451172	3324.535889	22.366709
621.020996	1053.566162	11338.919922	3226.688477	21.128319
621.357605	992.127075	11425.389648	3233.515137	21.483099
621.694214	976.198425	11470.900391	3183.453613	21.032089
622.030579	951.167725	11250.174805	3183.453613	21.674768
622.367065	923.861450	11077.235352	3279.025391	23.195877
622.703430	942.065613	11068.132813	3258.545898	22.876406
623.039795	926.136963	11218.317383	3185.729004	21.954454
623.376160	1008.055725	11040.827148	3203.933350	21.887051
623.712402	907.932800	10797.346680	3263.096924	23.815001
624.048645	946.616638	10906.571289	3133.392090	21.955675
624.384766	942.065613	10963.458984	3176.626953	22.297909
624.720886	1012.606750	10824.652344	3112.912354	21.405380
625.057007	953.443237	11284.307617	3178.902588	21.541851
625.392944	953.443237	11159.154297	3263.096924	22.630993
625.729004	948.892151	11288.858398	3192.555664	21.698946
626.064941	978.473938	11466.349609	3197.106689	21.154263
626.400818	994.402588	11737.136719	3292.678711	21.393772
626.736633	935.239075	11730.309570	3349.566650	22.365093
627.072449	953.443237	11746.238281	3206.208740	20.872866
627.408264	969.371887	11900.973633	3431.485352	22.522898
627.743896	971.647400	12085.291016	3390.525879	21.764946
628.079590	937.514587	12119.423828	3376.872803	21.815220
628.415161	946.616638	11976.066406	3313.158203	21.456568
628.750793	912.483826	11885.044922	3258.545898	21.381170
629.086365	957.994263	11755.340820	3247.168213	21.201263
629.421753	955.718750	11514.135742	3117.463379	20.474136
629.757263	973.922913	11313.889648	3090.157227	20.466549
630.092651	962.545288	11022.623047	3188.004639	22.121693
630.427917	976.198425	10958.908203	3199.382324	22.270344
630.763184	969.371887	10979.387695	3122.014648	21.504890
631.098511	841.942688	10779.141602	3067.402100	22.395239
631.433716	896.555176	10526.559570	3108.361328	22.967863
631.768799	901.106262	10456.018555	2914.942139	21.076447
632.103943	923.861450	10499.252930	3046.922363	22.172054
632.438965	969.371887	10371.824219	2971.830078	21.297192
632.773987	967.096313	10066.904297	2935.421875	21.630409
633.109070	939.790100	10192.057617	2883.084961	21.003445
633.443848	935.239075	10096.485352	2873.982666	21.162445
633.778870	926.136963	10137.445313	2880.809326	21.220354
634.113708	1035.361938	10522.007813	2889.911377	19.549053
634.448425	930.687988	10358.170898	2937.697266	21.288921
634.783264	960.269775	10296.731445	2885.360352	20.619059
635.117859	942.065613	10201.160156	2976.381104	21.970997
635.452576	973.922913	10303.558594	2930.870850	20.975611
635.787170	976.198425	9925.821289	2983.207764	22.425629
636.121704	953.443237	10178.404297	2846.676514	20.522942
636.456177	907.932800	9652.758789	2926.319824	23.080927
636.790588	892.004150	9896.240234	2796.614990	21.152386
637.125122	962.545288	9630.003906	2755.655762	20.687845
637.459412	901.106262	9545.809570	2837.574463	22.400633
637.793762	973.922913	9472.993164	2723.798340	20.589022
638.128052	887.453125	9356.941406	2714.696289	21.574423
638.462280	928.412476	9341.012695	2666.910400	20.665403
638.796509	978.473938	9031.541992	2666.910400	20.966377
639.130615	960.269775	9129.389648	2703.318604	21.337046
639.464722	919.310425	8735.724609	2732.900391	23.202328
639.798767	937.514587	9074.777344	2548.583252	19.798655
640.132751	892.004150	8883.632813	2600.920166	21.383825
640.466736	866.973450	8769.857422	2644.155273	22.487764
640.800598	980.749451	8644.703125	2582.716064	20.902613
641.134521	967.096313	8619.672852	2466.664551	19.595598
641.468262	898.830688	8601.468750	2628.226563	22.451994
641.802063	948.892151	8644.703125	2623.675537	21.762274
642.135803	939.790100	8678.835938	2548.583252	20.788004
642.469421	951.167725	8512.723633	2569.062988	21.396328
642.803101	964.820801	8282.895508	2546.307861	21.610699
643.136658	937.514587	8346.610352	2614.573486	22.635136
643.470215	998.953613	8519.549805	2562.236328	20.786686
643.803711	912.483826	8419.426758	2614.573486	22.673538
644.137085	994.402588	8467.212891	2484.868652	19.945187
644.470581	914.759338	8510.448242	2523.552490	21.180346
644.803833	973.922913	8298.824219	2507.624023	20.938183
645.137207	919.310425	8303.375000	2548.583252	22.064716
645.470459	953.443237	8385.293945	2523.552490	21.126760
645.803589	1003.504700	8196.425781	2539.481201	21.354004
646.136780	971.647400	8464.937500	2503.072998	20.437292
646.469849	964.820801	8130.436035	2530.379150	21.848206
646.802979	917.034912	8449.008789	2498.521729	20.996977
647.135986	939.790100	8282.895508	2498.521729	21.227146
647.468994	939.790100	8307.926758	2489.419678	21.031500
647.801941	944.341125	8239.661133	2448.460449	20.617594
648.134766	976.198425	8571.886719	2571.338623	21.000599
648.467651	885.177612	8474.039063	2498.521729	21.259371
648.800354	926.136963	8282.895508	2484.868652	21.187750
649.133179	914.759338	8198.701172	2489.419678	21.618244
649.465881	932.963501	8203.252930	2434.807373	20.657278
649.798462	957.994263	8237.385742	2355.164063	19.193497
650.131104	912.483826	8414.875977	2544.032227	21.747042
650.463623	937.514587	8412.600586	2471.215576	20.517502
650.796143	973.922913	8373.916992	2430.256104	19.680195
651.128662	962.545288	8471.763672	2491.695313	20.363638
651.461060	953.443237	8376.192383	2594.093750	22.103004
651.793396	914.759338	8360.263672	2498.521729	21.271393
652.125732	921.585938	8344.334961	2498.521729	21.244633
652.458008	967.096313	8137.262207	2519.001465	21.643923
652.790222	957.994263	8517.274414	2582.716064	21.493074
653.122437	885.177612	8271.518555	2489.419678	21.719036
653.454529	971.647400	8289.722656	2537.205811	21.393034
653.786621	896.555176	8276.069336	2468.940186	21.307432
654.118713	937.514587	8173.670898	2523.552490	21.918236
654.450623	917.034912	8091.751953	2523.552490	22.391373
654.782654	926.136963	8214.629883	2519.001465	21.854511
655.114502	903.381775	7993.904785	2418.878662	21.373554
655.446350	973.922913	7930.189941	2500.797363	21.949625
655.778198	953.443237	8100.854004	2421.154053	20.534861
656.109863	962.545288	7939.291992	2450.735840	21.330725
656.441650	978.473938	7859.648926	2464.388916	21.593916
656.773254	901.106262	7741.321777	2514.450439	23.586161
657.104919	921.585938	8000.730957	2427.980713	21.279331
657.436462	939.790100	7798.209961	2396.123291	21.234238
657.767944	923.861450	7998.455566	2437.082764	21.389513
658.099548	917.034912	7996.180176	2421.154053	21.247185
658.430908	955.718750	8228.283203	2532.654541	21.683353
658.762268	914.759338	8378.467773	2637.328613	23.079269
659.093628	928.412476	8692.489258	2664.634766	22.362251
659.424927	862.422363	8733.449219	2716.971924	23.561724
659.756226	942.065613	9247.716797	2780.686523	22.136986
660.087341	992.127075	9161.247070	2714.696289	21.086349
660.418518	923.861450	9270.471680	2842.125488	22.982552
660.749573	912.483826	9193.104492	2723.798340	21.874138
661.080627	957.994263	9172.624023	2817.094727	22.631578
661.411621	912.483826	9040.644531	2641.879639	21.276594
661.742554	907.932800	8690.213867	2732.900391	23.450291
662.073547	923.861450	8542.304688	2596.369141	21.953405
662.404297	994.402588	8398.947266	2628.226563	22.065151
662.735229	926.136963	8312.477539	2569.062988	22.242760
663.065979	957.994263	8073.547852	2507.624023	21.778063
663.396667	932.963501	8014.384277	2562.236328	23.007711
663.727417	976.198425	7641.198730	2478.042236	22.533287
664.057922	935.239075	7668.504883	2391.572266	21.628929
664.388611	869.248962	7579.759766	2327.857666	21.736179
664.719116	928.412476	7575.208984	2412.052002	22.321121
665.049622	969.371887	7388.616211	2377.919189	21.942574
665.380005	996.678101	7306.697266	2425.705078	22.646952
665.710388	885.177612	7379.514160	2423.429688	23.686054
666.040771	971.647400	7245.258301	2366.541748	22.234314
666.371033	930.687988	7320.350586	2387.021240	22.792021
666.701294	930.687988	7117.829102	2371.092773	23.280619
667.031555	939.790100	7145.135254	2332.408936	22.442247
667.361633	919.310425	7402.269043	2421.154053	23.166023
667.691772	889.728638	7445.503906	2519.001465	24.852482
668.021790	857.871338	7249.809082	2455.286865	24.991100
668.351807	926.136963	7249.809082	2414.327637	23.533648
668.681763	969.371887	7233.880859	2398.398926	22.811480
669.011719	901.106262	7318.074707	2450.735840	24.148937
669.341614	942.065613	7268.013672	2357.439453	22.374096
669.671387	932.963501	7258.911133	2355.164063	22.482016
670.001221	967.096313	7293.043945	2616.848877	26.079136
670.330933	928.412476	7295.319824	2507.624023	24.803432
670.660583	896.555176	7172.441406	2450.735840	24.764322
670.990173	905.657288	7131.482422	2377.919189	23.647659
671.319763	889.728638	7026.808105	2350.613037	23.804228
671.649292	937.514587	7060.940918	2384.745850	23.634336
671.978821	1001.229126	7115.553711	2355.164063	22.143654
672.308289	964.820801	6933.511719	2355.164063	23.293940
672.637695	989.851563	6938.062988	2437.082764	24.330526
672.966980	946.616638	7017.706055	2323.306641	22.676161
673.296326	914.759338	6926.685547	2327.857666	23.504919
673.625610	926.136963	6915.307617	2282.347412	22.644377
673.954773	914.759338	6856.144043	2321.031250	23.669094
674.283936	960.269775	6737.816895	2382.470215	24.615992
674.613037	921.585938	6744.643555	2373.368164	24.931614
674.942078	919.310425	6694.582031	2286.898438	23.680065
675.271118	932.963501	6765.123535	2330.133301	23.956301
675.600098	869.248962	6690.031250	2200.428711	22.869429
675.928955	912.483826	6594.459473	2284.622803	24.148975
676.257813	919.310425	6605.836914	2309.653564	24.449780
676.586670	978.473938	6649.071777	2309.653564	23.475121
676.915466	921.585938	6530.744629	2357.439453	25.598375
677.244141	955.718750	6498.887207	2230.010498	22.988508
677.572876	953.443237	6569.428711	2250.489990	23.095623
677.901489	957.994263	6592.183594	2346.062012	24.636511
678.230042	932.963501	6562.602051	2430.256104	26.596601
678.558594	951.167725	6585.357422	2339.235352	24.636509
678.887085	942.065613	6796.980469	2361.990479	24.251842
679.215515	917.034912	6703.684082	2432.531738	26.189539
679.543945	969.371887	6862.970703	2389.296875	24.092667
679.872253	912.483826	6915.307617	2491.695313	26.307810
680.200562	907.932800	7001.777344	2496.246338	26.064226
680.528809	917.034912	7277.115723	2532.654541	25.402500
680.856995	960.269775	7347.656738	2493.970703	24.011398
681.185120	951.167725	7404.544922	2503.072998	24.047956
681.513306	866.973450	7327.176758	2594.093750	26.734768
681.841309	914.759338	7356.758789	2575.889648	25.785944
682.169373	996.678101	7204.298828	2553.134277	25.073313
682.497314	928.412476	7381.789551	2562.236328	25.317347
682.825134	957.994263	7170.166016	2496.246338	24.761904
683.153076	946.616638	7022.257324	2557.685303	26.516851
683.480896	928.412476	7090.522949	2516.726074	25.775482
683.808655	969.371887	6928.960938	2512.175049	25.887747
684.136414	873.799988	6767.398926	2491.695313	27.451736
684.464050	960.269775	6571.704102	2450.735840	26.561230
684.791626	930.687988	6507.989258	2421.154053	26.723785
685.119263	1001.229126	6546.673340	2366.541748	24.620438
685.446838	912.483826	6558.050781	2455.286865	27.327690
685.774292	980.749451	6362.355957	2409.776611	26.553913
686.101685	960.269775	6287.264160	2341.510986	25.929092
686.429077	957.994263	6241.753418	2400.674561	27.304050
686.756348	937.514587	6407.866699	2407.500977	26.871878
687.083679	962.545288	6223.549316	2327.857666	25.951555
687.410950	896.555176	6275.886230	2377.919189	27.538071
687.738159	1001.229126	6259.957520	2421.154053	27.001297
688.065308	992.127075	6207.620605	2346.062012	25.959862
688.392395	921.585938	6366.907227	2405.225586	27.246136
688.719421	926.136963	6544.397949	2466.664551	27.420010
689.046448	1014.882263	6296.366211	2382.470215	25.894009
689.373413	919.310425	6262.233398	2261.867676	25.127768
689.700317	962.545288	6184.865723	2332.408936	26.230938
690.027100	978.473938	6100.671387	2234.561523	24.522438
690.353943	882.902100	6036.956543	2332.408936	28.123621
690.680725	935.239075	5986.895020	2316.480225	27.342346
691.007446	930.687988	5980.068848	2448.460449	30.058586
691.334106	964.820801	5970.966797	2234.561523	25.363638
691.660645	960.269775	5875.394531	2259.592041	26.435183
691.987244	983.024963	5752.516602	2293.724854	27.480915
692.313721	955.718750	5775.271973	2316.480225	28.234182
692.640259	973.922913	5597.781250	2298.276123	28.641735
692.966675	907.932800	5647.842773	2291.449463	29.188667
693.293030	832.840637	5606.883301	2332.408936	31.410872
693.619324	857.871338	5590.954590	2141.265137	27.115387
693.945618	996.678101	5470.352051	2291.449463	28.942015
694.271851	944.341125	5361.126953	2189.051025	28.181353
694.598083	901.106262	5593.229980	2145.816162	26.527647
694.924194	871.524475	5454.423340	2204.979736	29.096329
695.250244	894.279663	5538.617676	2170.846924	27.486528
695.576294	960.269775	5440.770020	2250.489990	28.796345
695.902283	855.595825	5443.045898	2195.877686	29.216270
696.228210	962.545288	5356.576172	2257.316650	29.466599
696.554138	923.861450	5402.086426	2266.418701	29.979673
696.879944	894.279663	5584.127930	2255.041016	29.015041
697.205750	903.381775	5593.229980	2241.387939	28.529839
697.531433	962.545288	5750.241211	2202.704102	25.903042
697.857178	971.647400	5798.026855	2357.439453	28.712870
698.182739	962.545288	5889.047852	2478.042236	30.762127
698.508423	971.647400	6232.651367	2377.919189	26.730103
698.833984	985.300537	6385.111328	2421.154053	26.590813
699.159485	978.473938	6710.510742	2582.716064	27.987299
699.484924	960.269775	6769.674316	2596.369141	28.162945
699.810303	960.269775	6935.787598	2696.492188	29.055599
700.135681	953.443237	6851.593262	2612.297852	28.125000
700.460999	987.576050	6774.225586	2530.379150	26.661423
700.786255	1001.229126	6505.713867	2489.419678	27.035965
701.111450	998.953613	6485.234375	2498.521729	27.333055
701.436646	889.728638	6271.335449	2389.296875	27.864693
701.761719	889.728638	6011.925781	2462.113525	30.697468
702.086792	1044.463989	5916.354004	2321.031250	26.202711
702.411865	919.310425	5700.179688	2259.592041	28.034267
702.736816	978.473938	5456.698730	2300.551514	29.522362
703.061646	1001.229126	5413.463867	2218.632813	27.591543
703.386536	948.892151	5210.942871	2191.326416	29.151091
703.711365	976.198425	5081.237793	2109.407715	27.605318
704.036194	885.177612	5019.798828	2141.265137	30.379749
704.360901	948.892151	4969.737305	2204.979736	31.239393
704.685547	994.402588	5115.370605	2004.733887	24.516846
705.010132	989.851563	4885.542969	2047.968750	27.161217
705.334717	1023.984375	4739.909668	2116.234375	29.393755
705.659302	903.381775	4810.451172	2095.754639	30.518343
705.983765	889.728638	4892.369629	2011.560425	28.027288
706.308228	892.004150	4883.267578	2059.346436	29.247438
706.632568	926.136963	4685.297363	2136.714111	32.203392
706.956909	935.239075	4796.797852	2072.999512	29.463762
707.281189	989.851563	4708.052734	2070.723877	29.069765
707.605408	980.749451	4667.093262	2095.754639	30.246912
707.929626	905.657288	4830.930664	2034.315552	28.753620
708.253784	1010.331238	4862.788086	2022.937988	26.284700
708.577820	951.167725	4783.144531	2100.305664	29.988123
708.901855	973.922913	4844.583984	2132.163086	29.923576
709.225830	921.585938	4855.961426	2063.897461	29.034126
709.549805	919.310425	4867.338867	2011.560425	27.665709
709.873718	837.391663	4849.134766	2125.336426	32.104370
710.197510	1028.535400	4824.104004	2045.693237	26.798563
710.521362	935.239075	4906.022949	1966.049927	25.959881
710.845093	964.820801	5088.064453	2125.336426	28.145697
711.168701	987.576050	5053.931641	2154.918213	28.707333
711.492432	948.892151	4985.666016	2054.795166	27.395716
711.816040	921.585938	4997.043457	2264.143311	32.942493
712.139587	942.065613	5138.125977	2166.295898	29.175705
712.463074	898.830688	5201.840332	2166.295898	29.455318
712.786499	937.514587	5065.309082	2182.224365	30.154354
713.109924	1001.229126	5065.309082	2223.183838	30.067190
713.433350	971.647400	5119.921875	2179.948975	29.127811
713.756592	921.585938	4960.635254	2038.866699	27.661974
714.079834	907.932800	4983.390625	2072.999512	28.587381
714.403015	973.922913	4744.460938	1995.631714	27.097162
714.726196	1001.229126	4953.808594	2082.101563	27.346001
715.049255	869.248962	4833.206055	2009.284912	28.760046
715.372375	905.657288	4735.358887	2068.448486	30.362450
715.695435	998.953613	4710.328125	2066.172852	28.755363
716.018311	967.096313	4774.042480	1963.774414	26.180513
716.341248	983.024963	4880.992188	2029.764526	26.853470
716.664063	946.616638	4769.491699	2027.489014	28.273808
716.987000	953.443237	4680.746094	2029.764526	28.876680
717.309692	864.697876	4744.460938	2038.866699	30.263929
717.632385	978.473938	4767.216309	2057.070801	28.468468
717.955078	937.514587	4571.521484	2068.448486	31.120852
718.277649	932.963501	4594.276367	2004.733887	29.272842
718.600220	983.024963	4505.531250	1968.325439	27.971575
718.922791	901.106262	4425.888184	1818.141113	26.016783
719.245300	971.647400	4441.816406	1895.508789	26.622952
719.567688	919.310425	4341.693848	1893.233276	28.457445
719.890015	912.483826	4177.855957	1870.478149	29.337984
720.212341	967.096313	4127.794922	1838.620850	27.573793
720.534607	928.412476	4080.008789	1747.599976	25.992781
720.856873	994.402588	4175.580566	1827.243164	26.180258
721.179016	937.514587	4114.141602	1815.865601	27.650431
721.501160	980.749451	4202.886719	1840.896362	26.694920
721.823242	905.657288	4027.671875	1788.559326	28.279881
722.145264	983.024963	3927.548828	1786.283813	27.279753
722.467224	971.647400	3932.099854	1797.661377	27.901613
722.789185	973.922913	3957.130615	1788.559326	27.307398
723.111023	921.585938	3838.803711	1793.110352	29.875193
723.432861	919.310425	3909.344727	1738.497925	27.397263
723.754578	973.922913	3932.099854	1758.977539	26.538460
724.076294	937.514587	3843.354736	1670.232300	25.215349
724.397949	960.269775	3779.640137	1722.569214	27.037931
724.719666	946.616638	3982.161377	1715.742676	25.337332
725.041260	892.004150	3731.854004	1738.497925	29.807695
725.362732	971.647400	3893.416016	1692.987427	24.688473
725.684265	912.483826	3920.722412	1754.426514	27.987896
726.005676	912.483826	3841.079102	1745.324463	28.438231
726.327087	912.483826	3829.701416	1715.742676	27.535103
726.648438	994.402588	3938.926514	1695.262939	23.802162
726.969666	969.371887	3943.477539	1724.844727	25.401680
727.290894	976.198425	3904.793701	1770.355225	27.117329
727.612061	978.473938	3936.650879	1777.181763	27.000002
727.933228	971.647400	4009.467773	1749.875488	25.617977
728.254395	903.381775	4070.906738	1763.528564	27.155170
728.575378	987.576050	4130.070313	1784.008301	25.343954
728.896301	957.994263	4034.498291	1888.682251	30.251480
729.217285	935.239075	4084.559814	1804.488037	27.601156
729.538147	912.483826	4093.661865	1761.253052	26.680973
729.858948	1033.086426	4084.559814	1768.079712	24.086504
730.179810	953.443237	4107.314941	1784.008301	26.334778
730.500549	980.749451	4159.651855	1754.426514	24.337868
730.821228	962.545288	4086.835449	1834.069824	27.895123
731.141846	942.065613	4098.212891	1815.865601	27.685654
731.462402	892.004150	4016.294189	1756.702026	27.676620
731.782898	921.585938	4193.784668	1774.906250	26.077888
732.103455	973.922913	4280.254395	1913.713013	28.423952
732.423889	955.718750	4166.478516	1802.212524	26.364283
732.744263	971.647400	4141.447754	1834.069824	27.207468
733.064636	921.585938	4186.958496	1790.834839	26.620207
733.384888	962.545288	4271.152344	1895.508789	28.198076
733.705200	942.065613	4248.397461	1879.580200	28.355127
734.025330	953.443237	4145.999023	1799.937012	26.514612
734.345520	923.861450	4280.254395	1836.345337	27.186443
734.665527	976.198425	4234.744141	1738.497925	23.393856
734.985596	923.861450	4082.284424	1797.661377	27.665705
735.305542	967.096313	3918.446777	1774.906250	27.370857
735.625549	953.443237	3882.038574	1729.395752	26.495724
735.945435	907.932800	3932.099854	1793.110352	29.270128
736.265259	964.820801	3861.558838	1827.243164	29.772190
736.585083	930.687988	3861.558838	1756.702026	28.183229
736.904785	937.514587	3759.160400	1713.467163	27.500000
737.224426	930.687988	3852.456787	1749.875488	28.037382
737.544128	944.341125	3752.333740	1715.742676	27.471638
737.863708	978.473938	3720.476563	1715.742676	26.887966
738.183289	905.657288	3695.445801	1758.977539	30.587273
738.502808	1003.504700	3777.364502	1695.262939	24.938471
738.822205	823.738525	3763.711426	1706.640625	30.030960
739.141541	971.647400	3841.079102	1747.599976	27.042030
739.460938	1010.331238	3918.446777	1820.416626	27.856026
739.780212	973.922913	3995.814453	1788.559326	26.957830
740.099426	960.269775	3913.895752	1847.722900	30.046227
740.418640	937.514587	3954.855225	1749.875488	26.923077
740.737793	921.585938	3845.630127	1779.457275	29.338522
741.056885	928.412476	3920.722412	1774.906250	28.288973
741.375977	946.616638	3845.630127	1790.834839	29.120880
741.694946	951.167725	3754.609375	1822.692139	31.087660
742.013855	928.412476	3718.200928	1758.977539	29.771614
742.332703	907.932800	3688.619141	1749.875488	30.278234
742.651550	905.657288	3606.700439	1713.467163	29.907330
742.970398	919.310425	3558.914551	1674.783325	28.620691
743.289124	892.004150	3606.700439	1727.120239	30.762781
743.607788	957.994263	3563.465576	1713.467163	28.995634
743.926453	935.239075	3470.169189	1690.711914	29.802511
744.245056	967.096313	3492.924316	1661.130127	27.477476
744.563599	985.300537	3417.832275	1674.783325	28.344246
744.882141	971.647400	3454.240479	1733.946899	30.705778
745.200500	907.932800	3438.312012	1611.068726	27.787769
745.518860	896.555176	3451.965088	1624.721802	28.495100
745.837219	919.310425	3517.955078	1695.262939	29.859894
746.155518	901.106262	3440.587402	1617.895264	28.225805
746.473755	919.310425	3411.005615	1677.058838	30.410957
746.791992	923.861450	3365.495361	1531.425537	24.883507
747.110107	964.820801	3370.046387	1686.160889	29.990538
747.428162	964.820801	3281.301025	1722.569214	32.711197
747.746216	919.310425	3445.138428	1683.885376	30.270267
748.064148	887.453125	3392.801514	1706.640625	32.697548
748.382080	930.687988	3322.260254	1740.773438	33.872505
748.700073	1008.055725	3417.832275	1642.926025	26.345608
749.017822	951.167725	3404.179199	1647.477051	28.385897
749.335632	1001.229126	3331.362549	1631.548462	27.050785
749.653320	939.790100	3438.312012	1686.160889	29.872492
749.971008	930.687988	3399.628174	1752.151001	33.271889
750.288696	948.892151	3385.974854	1636.099487	28.197948
750.606262	983.024963	3458.791504	1656.579102	27.205881
750.923828	921.585938	3349.566650	1652.028076	30.084347
751.241272	876.075500	3304.056152	1711.191650	34.395500
751.558716	946.616638	3358.668701	1649.752563	29.150944
751.876038	946.616638	3420.107666	1629.272949	27.598900
752.193481	951.167725	3354.117676	1688.436401	30.681816
752.510681	987.576050	3322.260254	1631.548462	27.582850
752.827942	992.127075	3326.811523	1640.650513	27.777775
753.145081	903.381775	3272.198975	1636.099487	30.931797
753.462219	937.514587	3263.096924	1658.854614	31.017609
753.779297	1001.229126	3226.688477	1638.375000	28.629858
754.096375	976.198425	3224.413086	1667.956787	30.769232
754.413330	973.922913	3210.759766	1649.752563	30.213631
754.730286	983.024963	3190.280273	1617.895264	28.762884
755.047119	953.443237	3137.943115	1542.803101	26.979166
755.363892	935.239075	3142.494141	1640.650513	31.958763
755.680725	983.024963	3162.973877	1670.232300	31.524010
755.997498	957.994263	3331.362549	1670.232300	30.009590
756.314148	962.545288	3267.647949	1647.477051	29.713722
756.630737	935.239075	3213.035400	1615.619751	29.870127
756.947327	946.616638	3192.555664	1608.793213	29.483284
757.263855	914.759338	3194.831299	1565.558350	28.542915
757.580261	910.208313	3096.983887	1638.375000	33.298645
757.896729	887.453125	3128.841064	1561.007324	30.050764
758.213074	989.851563	3228.964111	1581.486938	26.422762
758.529419	930.687988	3249.443604	1633.823975	30.323851
758.845642	910.208313	3199.382324	1672.507813	33.300198
759.161865	946.616638	3381.423828	1622.446289	27.757010
759.478149	967.096313	3367.770752	1647.477051	28.341234
759.794189	894.279663	3365.495361	1743.048950	34.346222
760.110229	957.994263	3322.260254	1781.732788	34.841194
760.426270	985.300537	3324.535889	1670.232300	29.280155
760.742249	917.034912	3329.086914	1718.018188	33.207546
761.058105	989.851563	3276.750000	1670.232300	29.751244
761.374023	955.718750	3354.117676	1638.375000	28.462999
761.689819	942.065613	3299.505127	1645.201538	29.826256
762.005554	930.687988	3351.842041	1722.569214	32.706768
762.321289	955.718750	3242.617188	1697.538574	32.437813
762.636902	948.892151	3290.403076	1706.640625	32.361515
762.952515	983.024963	3449.689453	1636.099487	26.476017
763.268127	946.616638	3463.342773	1765.804199	32.549732
763.583618	917.034912	3618.078125	1806.763550	32.940186
763.899048	962.545288	4036.773926	1836.345337	28.423393
764.214478	976.198425	4378.102051	2036.591064	31.170565
764.529785	973.922913	4696.674805	2159.469238	31.845968
764.845093	1033.086426	4796.797852	2132.163086	29.201937
765.160400	910.208313	4769.491699	2173.122314	32.724056
765.475586	971.647400	4541.939453	2150.367188	33.014660
765.790771	976.198425	4423.612305	2111.683350	32.937294
766.105835	960.269775	4262.050293	1979.703125	30.875261
766.420837	889.728638	3847.905762	1879.580200	33.461536
766.735840	932.963501	3845.630127	1879.580200	32.500004
767.050842	912.483826	3761.435791	1852.273926	32.987221
767.365662	939.790100	3583.945313	1702.089600	28.829605
767.680542	912.483826	3529.332764	1793.110352	33.652172
767.995300	894.279663	3470.169189	1763.528564	33.745579
768.309998	896.555176	3533.883789	1697.538574	30.371012
768.624817	853.320313	3461.067139	1697.538574	32.373474
768.939392	910.208313	3308.607178	1704.365112	33.111958
769.254028	937.514587	3310.882813	1608.793213	28.283796
769.568481	948.892151	3101.534912	1786.283813	38.900631
769.882935	914.759338	3108.361328	1615.619751	31.950209
770.197388	935.239075	3233.515137	1636.099487	30.495049
770.511841	932.963501	3256.270264	1611.068726	29.187075
770.826172	944.341125	3099.259277	1690.711914	34.635689
771.140442	892.004150	3112.912354	1615.619751	32.581966
771.454651	951.167725	2976.381104	1531.425537	28.651688
771.768860	946.616638	3083.330566	1604.242188	30.777428
772.082886	896.555176	2965.003662	1620.170776	34.983498
772.397034	973.922913	3005.962891	1556.456177	28.667410
772.711060	957.994263	2951.350586	1558.731689	30.136982
773.025024	887.453125	2994.585449	1686.160889	37.904964
773.338928	946.616638	2919.493164	1501.843750	28.143024
773.652771	923.861450	2805.717041	1597.415649	35.792023
773.966614	971.647400	2839.849854	1590.588989	33.130329
774.280457	955.718750	2848.952148	1520.047852	29.807688
774.594116	910.208313	2892.187012	1474.537476	28.473017
774.907776	887.453125	2805.717041	1583.762451	36.298931
775.221375	848.769287	2780.686523	1608.793213	39.340397
775.534912	953.443237	2746.553711	1510.945801	31.091368
775.848450	894.279663	2730.625000	1481.364014	31.970259
776.161926	967.096313	2748.829102	1501.843750	30.012774
776.475342	917.034912	2614.573486	1422.200562	29.758715
776.788696	946.616638	2771.584229	1495.017212	30.049881
777.101990	944.341125	2737.451416	1508.670288	31.472082
777.415283	971.647400	2737.451416	1465.435425	27.963921
777.728516	921.585938	2851.227539	1526.874512	31.367928
778.041626	967.096313	2616.848877	1540.527588	34.758621
778.354736	962.545288	2705.594238	1551.905151	33.812008
778.667725	951.167725	2723.798340	1538.252075	33.119385
778.980774	932.963501	2707.869873	1556.456177	35.128201
779.293640	921.585938	2694.216553	1517.772339	33.632862
779.606567	987.576050	2653.257324	1540.527588	33.196720
779.919434	967.096313	2721.522949	1490.466064	29.831385
780.232239	946.616638	2698.767578	1458.608887	29.220785
780.544983	907.932800	2744.278076	1531.425537	33.952915
780.857666	860.146851	2619.124512	1369.863525	28.978006
781.170227	953.443237	2707.869873	1551.905151	34.111538
781.482849	978.473938	2607.746826	1499.568237	31.983242
781.795410	976.198425	2519.001465	1510.945801	34.660770
782.107910	985.300537	2578.165039	1515.496826	33.285713
782.420288	944.341125	2498.521729	1451.782227	32.650070
782.732666	1008.055725	2591.818115	1410.822876	25.431032
783.044983	912.483826	2471.215576	1394.894287	30.948910
783.357300	948.892151	2550.858887	1429.027100	29.971592
783.669495	969.371887	2514.450439	1426.751587	29.602358
783.981689	914.759338	2623.675537	1406.271851	28.761650
784.293762	983.024963	2425.705078	1463.159912	33.280762
784.605835	923.861450	2539.481201	1385.792114	28.591545
784.917908	882.902100	2521.277100	1419.924927	32.777771
785.229858	905.657288	2464.388916	1454.057739	35.182480
785.541748	876.075500	2489.419678	1403.996338	32.722145
785.853577	967.096313	2434.807373	1365.312500	27.131783
786.165405	844.218201	2443.909424	1429.027100	36.557613
786.477173	953.443237	2503.072998	1415.373901	29.809099
786.788879	935.239075	2371.092773	1381.241089	31.061800
787.100525	967.096313	2396.123291	1378.965576	28.821657
787.412109	967.096313	2427.980713	1435.853638	32.087231
787.723694	1035.361938	2382.470215	1472.261963	32.432434
788.035156	921.585938	2450.735840	1429.027100	33.184528
788.346558	919.310425	2432.531738	1438.129150	34.285713
788.658081	985.300537	2459.837891	1376.690063	26.543209
788.969360	962.545288	2539.481201	1442.680176	30.447330
789.280640	971.647400	2580.440674	1522.323364	34.229134
789.591919	996.678101	2687.390137	1513.221313	30.551815
789.903076	937.514587	2712.420898	1570.109375	35.641026
790.214172	955.718750	2628.226563	1510.945801	33.197277
790.525269	967.096313	2528.103516	1563.282837	38.192425
790.836365	953.443237	2534.930176	1504.119263	34.820145
791.147339	983.024963	2473.491211	1474.537476	32.977097
791.458191	957.994263	2437.082764	1449.506714	33.230766
791.769104	957.994263	2402.949951	1312.975464	24.566927
792.079895	960.269775	2430.256104	1351.659302	26.625385
792.390686	892.004150	2412.052002	1444.955688	36.377247
792.701416	882.902100	2509.899414	1374.414551	30.209789
793.012085	944.341125	2289.173828	1347.108276	29.949238
793.322693	928.412476	2341.510986	1308.424438	26.892107
793.633240	973.922913	2327.857666	1378.965576	29.915964
793.943787	948.892151	2282.347412	1397.169800	33.617748
794.254272	944.341125	2266.418701	1399.445313	34.423409
794.564636	912.483826	2243.663574	1360.761475	33.675217
794.875000	967.096313	2371.092773	1299.322388	23.662886
795.185303	903.381775	2334.684326	1344.832764	30.842606
795.495544	937.514587	2175.397949	1372.139038	35.110294
795.805786	937.514587	2339.235352	1363.036987	30.357145
796.115906	994.402588	2368.817139	1365.312500	26.986757
796.426025	980.749451	2355.164063	1381.241089	29.139072
796.736023	971.647400	2352.888428	1378.965576	29.489292
797.045959	901.106262	2346.062012	1358.485962	31.653542
797.355896	921.585938	2264.143311	1388.067749	34.745762
797.665833	953.443237	2359.715088	1285.669312	23.624598
797.975708	955.718750	2364.266113	1322.077637	26.009695
798.285461	885.177612	2446.184814	1458.608887	36.734699
798.595154	903.381775	2323.306641	1342.557251	30.929489
798.904846	919.310425	2311.929199	1431.302612	36.764706
799.214478	930.687988	2298.276123	1394.894287	33.943428
799.524109	957.994263	2327.857666	1353.934937	28.903662
799.833557	1012.606750	2218.632813	1347.108276	27.735844
800.143005	942.065613	2220.908203	1347.108276	31.672598
800.452393	951.167725	2166.295898	1324.353149	30.711611
800.761780	869.248962	2189.051025	1378.965576	38.620689
801.071106	1003.504700	2277.796387	1338.006226	26.249996
801.380371	896.555176	2107.132324	1385.792114	40.413528
801.689575	917.034912	2152.642578	1469.986450	44.751385
801.998718	873.799988	2164.020264	1372.139038	38.624340
802.307800	919.310425	2104.856689	1251.536499	28.023037
802.616882	996.678101	2138.989502	1417.649414	36.852589
802.925903	946.616638	2216.357178	1374.414551	33.691761
803.234863	942.065613	2107.132324	1344.832764	34.570309
803.543701	892.004150	2204.979736	1315.250977	32.235695
803.852539	992.127075	2104.856689	1324.353149	29.856855
804.161316	944.341125	2050.244141	1292.495850	31.481485
804.470032	928.412476	2123.060791	1267.465088	28.380957
804.778809	944.341125	2143.540527	1376.690063	36.053131
805.087341	903.381775	2118.509766	1319.802124	34.269672
805.395935	926.136963	2170.846924	1353.934937	34.369289
805.704468	985.300537	2066.172852	1297.046875	28.842106
806.012939	969.371887	2086.652588	1392.618774	37.881874
806.321350	951.167725	2138.989502	1340.281738	32.758617
806.629761	937.514587	2161.744873	1353.934937	34.014874
806.938049	928.412476	2191.326416	1394.894287	36.936943
807.246277	896.555176	2195.877686	1385.792114	37.653233
807.554504	969.371887	2223.183838	1290.220337	25.589836
807.862671	1010.331238	2111.683350	1367.588013	32.438019
808.170715	948.892151	2209.530762	1258.363037	24.548738
808.478821	953.443237	2154.918213	1406.271851	37.689392
808.786804	1008.055725	2104.856689	1278.842651	24.688791
809.094727	953.443237	2068.448486	1367.588013	37.142853
809.402649	1019.433350	2134.438477	1283.393677	23.673464
809.710510	996.678101	2123.060791	1260.638550	23.434349
810.018311	996.678101	2134.438477	1342.557251	30.400000
810.326050	960.269775	2032.040039	1224.230225	24.628454
810.633667	930.687988	2107.132324	1308.424438	32.108315
810.941345	898.830688	2041.142212	1344.832764	39.043823
811.248901	914.759338	2054.795166	1378.965576	40.718563
811.556396	944.341125	1927.366089	1301.597900	36.342594
811.863892	955.718750	1993.356201	1342.557251	37.280701
812.171326	885.177612	1991.080688	1303.873413	37.860081
812.478699	969.371887	2025.213501	1340.281738	35.129311
812.786011	944.341125	1906.886475	1369.863525	44.208038
813.093262	939.790100	2000.182739	1228.781250	27.253223
813.400391	932.963501	1959.223389	1312.975464	37.028824
813.707642	987.576050	1929.641602	1283.393677	31.400961
814.014709	921.585938	1920.539551	1297.046875	37.585423
814.321716	978.473938	1959.223389	1212.852539	23.897907
814.628723	985.300537	1847.722900	1351.659302	42.480202
814.935669	989.851563	1972.876587	1319.802124	33.564819
815.242554	928.412476	1877.304688	1353.934937	44.844131
815.549438	944.341125	2047.968750	1315.250977	33.608242
815.856201	992.127075	1945.570313	1256.087524	27.684967
816.162964	957.994263	1988.805176	1287.944824	32.008835
816.469604	996.678101	1977.427612	1331.179688	34.106731
816.776184	871.524475	1979.703125	1301.597900	38.809032
817.082825	889.728638	2050.244141	1312.975464	36.470589
817.389343	957.994263	2011.560425	1251.536499	27.861774
817.695801	957.994263	2018.386963	1251.536499	27.682407
818.002197	946.616638	2009.284912	1324.353149	35.546043
818.308533	939.790100	2022.937988	1287.944824	32.142860
818.614868	953.443237	1943.294800	1299.322388	34.942528
818.921143	978.473938	2009.284912	1290.220337	30.242826
819.227356	901.106262	2013.835938	1367.588013	41.922287
819.533447	823.738525	2000.182739	1353.934937	45.067707
819.839539	919.310425	2068.448486	1326.628662	35.445545
820.145569	919.310425	2134.438477	1344.832764	35.018723
820.451538	889.728638	2204.979736	1372.139038	36.678200
820.757568	903.381775	2309.653564	1417.649414	36.569580
821.063416	994.402588	2496.246338	1481.364014	32.424240
821.369263	932.963501	2721.522949	1499.568237	31.679390
821.675049	946.616638	2660.083740	1549.629639	35.192566
821.980713	878.351013	2767.033203	1545.078613	35.301208
822.286438	964.820801	3213.035400	1697.538574	32.591095
822.592102	932.963501	4059.529053	2025.213501	34.934502
822.897583	937.514587	5884.496582	2653.257324	34.682613
823.203125	935.239075	8271.518555	3413.281250	33.777916
823.508545	932.963501	9903.066406	4032.222900	34.550991
823.813965	957.994263	10421.885742	4029.947266	32.459724
824.119263	978.473938	9375.145508	3715.925537	32.601627
824.424622	962.545288	7884.679688	3235.790527	32.840233
824.729858	887.453125	6753.745605	2990.034424	35.841740
825.035095	987.576050	5838.986328	2660.083740	34.474670
825.340149	887.453125	5072.135742	2493.970703	38.390427
825.645264	892.004150	4689.848145	2346.062012	38.286404
825.950256	942.065613	4200.611328	2173.122314	37.779327
826.255310	967.096313	4082.284424	1945.570313	31.409790
826.560242	987.576050	3797.844238	1997.907227	35.951416
826.865112	971.647400	3597.598389	1815.865601	32.149048
827.169922	892.004150	3338.188965	1820.416626	37.953487
827.474670	935.239075	3618.078125	1966.049927	38.422386
827.779419	948.892151	4177.855957	1945.570313	30.866810
828.084045	996.678101	4651.164551	2209.530762	33.188049
828.388672	921.585938	5012.972168	2327.857666	34.371521
828.693176	855.595825	4974.288574	2245.938965	33.756901
828.997681	903.381775	4305.285156	2088.927979	34.849495
829.302124	896.555176	3811.497314	1956.947876	36.377831
829.606567	946.616638	3467.893799	1852.273926	35.920578
829.910828	919.310425	3128.841064	1704.365112	35.530380
830.215149	960.269775	2839.849854	1613.344238	34.745766
830.519348	910.208313	2682.839111	1535.976563	35.301666
830.823547	937.514587	2682.839111	1415.373901	27.379396
831.127686	928.412476	2473.491211	1454.057739	34.020615
831.431763	896.555176	2391.572266	1424.476074	35.312031
831.735779	917.034912	2220.908203	1419.924927	38.568932
832.039734	967.096313	2161.744873	1319.802124	29.523813
832.343628	971.647400	2214.081787	1372.139038	32.234432
832.647461	973.922913	2161.744873	1340.281738	30.842905
832.951233	957.994263	2057.070801	1278.842651	29.192543
833.255127	946.616638	2098.030273	1342.557251	34.387348
833.558777	969.371887	2132.163086	1365.312500	34.050877
833.862366	967.096313	2257.316650	1429.027100	35.802471
834.165955	946.616638	2587.267090	1517.772339	34.812759
834.469482	1010.331238	3008.238525	1697.538574	34.396358
834.773010	948.892151	3347.291016	1708.916138	31.688807
835.076416	1012.606750	3479.271240	1834.069824	33.302586
835.379822	946.616638	3415.556641	1829.518677	35.760368
835.683105	998.953613	3115.187988	1649.752563	30.752687
835.986389	946.616638	2899.013428	1565.558350	31.701637
836.289612	910.208313	2803.441650	1474.537476	29.807692
836.592773	928.412476	2582.716064	1447.231201	31.361761
836.895874	939.790100	2393.847900	1479.088501	37.089199
837.198914	1008.055725	2284.622803	1435.853638	33.511589
837.501892	910.208313	2232.285889	1431.302612	39.414803
837.804871	939.790100	2070.723877	1246.985352	27.162973
838.107666	955.718750	2032.040039	1349.383789	36.575050
838.410583	992.127075	1984.254150	1342.557251	35.321098
838.713379	914.759338	1856.824951	1251.536499	35.748802
839.016052	953.443237	1811.314575	1283.393677	38.461529
839.318787	973.922913	1822.692139	1190.097412	25.469173
839.621338	919.310425	1886.406738	1246.985352	33.882347
839.923889	923.861450	1770.355225	1265.189575	40.322578
840.226440	996.678101	1699.814087	1167.342163	24.271843
840.528931	907.932800	1859.100464	1226.505737	33.492828
840.831299	910.208313	1952.396851	1246.985352	32.314407
841.133606	903.381775	2075.274902	1287.944824	32.815540
841.435913	973.922913	2075.274902	1292.495850	28.925623
841.738220	942.065613	1972.876587	1363.036987	40.838852
842.040405	901.106262	1877.304688	1301.597900	41.025639
842.342529	876.075500	1740.773438	1246.985352	42.894730
842.644592	930.687988	1831.794189	1185.546387	28.282837
842.946594	980.749451	1722.569214	1256.087524	37.116573
843.248596	960.269775	1681.609863	1169.617676	29.022079
843.550598	953.443237	1677.058838	1158.240112	28.301888
843.852478	946.616638	1622.446289	1146.862427	29.629625
844.154236	951.167725	1535.976563	1169.617676	37.354080
844.455994	969.371887	1556.456177	1171.893188	34.496120
844.757690	919.310425	1547.354126	1158.240112	38.043480
845.059326	967.096313	1526.874512	1119.556274	27.235781
845.360962	1001.229126	1533.701050	1133.209351	24.786325
845.662476	953.443237	1515.496826	1103.627563	26.720642
845.963989	905.657288	1474.537476	1142.311401	41.599991
846.265381	910.208313	1463.159912	1110.454102	36.213982
846.566772	921.585938	1488.190552	1103.627563	32.128510
846.868042	985.300537	1415.373901	1135.484863	34.920631
847.169373	987.576050	1479.088501	1078.596802	18.518503
847.470581	946.616638	1465.435425	1137.760376	36.842102
847.771729	846.493713	1490.466064	1085.423462	37.102486
848.072815	967.096313	1417.649414	1130.933838	36.363644
848.373901	942.065613	1435.853638	1099.076538	31.797232
848.674866	964.820801	1474.537476	1162.791138	38.839291
848.975891	926.136963	1454.057739	1121.831787	37.068977
849.276794	939.790100	1469.986450	1135.484863	36.909866
849.577637	923.861450	1451.782227	1124.107300	37.931042
849.878357	971.647400	1363.036987	1158.240112	47.674419
850.179077	983.024963	1397.169800	1117.280762	32.417595
850.479736	946.616638	1374.414551	1092.250000	34.042561
850.780396	953.443237	1401.720825	1080.872437	28.426405
851.080994	994.402588	1429.027100	1055.841675	14.136130
851.381470	973.922913	1403.996338	1101.352051	29.629623
851.681946	948.892151	1369.863525	1078.596802	30.810801
851.982361	955.718750	1394.894287	1085.423462	29.533684
852.282715	985.300537	1390.343262	1101.352051	28.651672
852.583008	903.381775	1322.077637	1083.147949	42.934788
852.883240	930.687988	1433.578125	1192.372925	52.036205
853.183411	939.790100	1322.077637	1108.178589	44.047600
853.483521	901.106262	1333.455200	1142.311401	55.789459
853.783630	917.034912	1399.445313	1119.556274	41.981136
854.083679	964.820801	1381.241089	1110.454102	34.972672
854.383667	896.555176	1401.720825	1083.147949	36.936947
854.683533	955.718750	1333.455200	1062.668213	28.313250
854.983337	998.953613	1381.241089	1119.556274	31.547636
855.283203	935.239075	1392.618774	1142.311401	45.273617
855.582886	962.545288	1324.353149	1137.760376	48.427662
855.882629	964.820801	1388.067749	1085.423462	28.494633
856.182312	996.678101	1413.098389	1049.015137	12.568320
856.481873	932.963501	1403.996338	1055.841675	26.086966
856.781372	923.861450	1351.659302	1053.566162	30.319159
857.080872	1030.810913	1331.179688	1089.974487	19.696980
857.380310	960.269775	1356.210449	992.127075	8.045979
857.679688	926.136963	1403.996338	1058.117188	27.619051
857.979004	876.075500	1342.557251	1080.872437	43.902454
858.278259	992.127075	1331.179688	1126.382813	39.597317
858.577454	994.402588	1417.649414	1162.791138	39.784954
858.876648	1021.708862	1317.526489	1067.219238	15.384605
859.175720	1019.433350	1408.547363	1130.933838	28.654966
859.474792	912.483826	1372.139038	1062.668213	32.673271
859.773743	980.749451	1278.842651	1067.219238	29.007635
860.072693	960.269775	1326.628662	1069.494751	29.813656
860.371521	989.851563	1365.312500	1014.882263	6.666659
860.670349	1005.780212	1253.812012	1064.943726	23.853197
860.969116	951.167725	1294.771362	1101.352051	43.708595
861.267883	976.198425	1328.904175	1017.157776	11.612896
861.566589	946.616638	1265.189575	1062.668213	36.428574
861.865112	987.576050	1308.424438	1099.076538	34.751770
862.163635	937.514587	1406.271851	1108.178589	36.407757
862.462158	967.096313	1394.894287	1092.250000	29.255325
862.760620	944.341125	1353.934937	1062.668213	28.888885
863.059021	914.759338	1294.771362	1023.984375	28.742521
863.357361	935.239075	1349.383789	1033.086426	23.626368
863.655640	919.310425	1356.210449	1099.076538	41.145824
863.953857	898.830688	1358.485962	1042.188477	31.188108
864.251953	937.514587	1285.669312	1076.321289	39.869259
864.550110	962.545288	1388.067749	1101.352051	32.620316
864.848206	980.749451	1440.404663	1089.974487	23.762384
865.146179	969.371887	1303.873413	1094.525513	37.414963
865.444092	878.351013	1340.281738	1099.076538	47.783253
865.741943	942.065613	1344.832764	1119.556274	44.067810
866.039795	896.555176	1363.036987	1053.566162	33.658543
866.337646	876.075500	1342.557251	1153.689087	59.512207
866.635376	914.759338	1351.659302	1130.933838	49.479176
866.933044	953.443237	1297.046875	1074.045776	35.099319
867.230652	992.127075	1324.353149	996.678101	1.369858
867.528198	976.198425	1317.526489	1087.698975	32.666679
867.825745	996.678101	1292.495850	1083.147949	29.230785
868.123230	873.799988	1322.077637	1071.770264	44.162422
868.420593	914.759338	1331.179688	1026.259888	26.775961
868.717896	951.167725	1367.588013	1051.290649	24.043718
869.015198	928.412476	1299.322388	1023.984375	25.766876
869.312439	980.749451	1351.659302	1110.454102	34.969318
869.609619	992.127075	1342.557251	1110.454102	33.766220
869.906738	873.799988	1331.179688	1112.729614	52.238792
870.203796	994.402588	1312.975464	1128.658325	42.142864
870.500854	942.065613	1310.699951	1064.943726	33.333332
870.797791	926.136963	1349.383789	1028.535400	24.193552
871.094666	905.657288	1272.016113	1033.086426	34.782604
871.391602	953.443237	1308.424438	1062.668213	30.769228
871.688293	967.096313	1331.179688	1060.392700	25.625006
871.985107	946.616638	1360.761475	1035.361938	21.428566
872.281738	955.718750	1326.628662	998.953613	11.656432
872.578369	926.136963	1292.495850	1099.076538	47.204964
872.874939	928.412476	1331.179688	1130.933838	50.282486
873.171509	862.422363	1358.485962	1089.974487	45.871563
873.467957	994.402588	1397.169800	1153.689087	39.548031
873.764343	914.759338	1331.179688	1058.117188	34.426235
874.060669	907.932800	1331.179688	1110.454102	47.849449
874.356995	967.096313	1306.148926	1046.739624	23.489956
874.653198	971.647400	1328.904175	1028.535400	15.923561
874.949463	973.922913	1363.036987	1117.280762	36.842113
875.245544	937.514587	1294.771362	1080.872437	40.127399
875.541626	901.106262	1358.485962	1105.903076	44.776104
875.837646	928.412476	1344.832764	1078.596802	36.065563
876.133606	907.932800	1347.108276	1092.250000	41.968918
876.429565	885.177612	1349.383789	1110.454102	48.529404
876.725403	992.127075	1310.699951	1112.729614	37.857128
877.021179	946.616638	1249.260864	1087.698975	46.616562
877.316956	964.820801	1285.669312	1094.525513	40.425529
877.612610	919.310425	1360.761475	1103.627563	41.752567
877.908203	885.177612	1310.699951	1108.178589	52.406410
878.203857	928.412476	1312.975464	1078.596802	39.053246
878.499390	905.657288	1283.393677	1051.290649	38.554230
878.794800	992.127075	1365.312500	1130.933838	37.195118
879.090271	889.728638	1326.628662	1178.719727	66.145813
879.385559	980.749451	1319.802124	1171.893188	56.375824
879.680847	948.892151	1429.027100	1046.739624	20.379160
879.976196	932.963501	1442.680176	1110.454102	34.821423
880.271301	951.167725	1567.833862	1149.138062	32.103325
880.566467	917.034912	1485.915039	1167.342163	44.000000
880.861572	978.473938	1697.538574	1146.862427	23.417713
881.156555	957.994263	1797.661377	1174.168701	25.745255
881.451477	887.453125	1993.356201	1351.659302	41.975304
881.746460	932.963501	2537.205811	1549.629639	38.439713
882.041321	1003.504700	3372.321777	1777.181763	32.660904
882.336121	926.136963	4132.345703	2050.244141	35.060326
882.630798	907.932800	4478.225098	2134.438477	34.353088
882.925537	998.953613	4528.286621	2182.224365	33.526752
883.220215	937.514587	4159.651855	2150.367188	37.641243
883.514771	1010.331238	3813.772949	1997.907227	35.227272
883.809326	1001.229126	3622.629150	1856.824951	32.638889
884.103760	914.759338	3306.331787	1840.896362	38.725025
884.398132	1037.637451	3135.667725	1736.222412	33.297184
884.692505	1035.361938	2924.044189	1631.548462	31.566269
884.986816	962.545288	2848.952148	1636.099487	35.705669
885.281067	907.932800	2664.634766	1520.047852	34.844559
885.575256	964.820801	2473.491211	1474.537476	33.785820
885.869385	971.647400	2257.316650	1417.649414	34.690262
886.163452	1008.055725	2020.662476	1324.353149	31.235958
886.457458	948.892151	1975.152100	1265.189575	30.820398
886.751465	964.820801	1849.998413	1256.087524	32.904892
887.045410	926.136963	1747.599976	1221.954712	36.011086
887.339233	866.973450	1681.609863	1237.883301	45.530724
887.632996	939.790100	1613.344238	1258.363037	47.297302
887.926758	935.239075	1561.007324	1149.138062	34.181820
888.220398	960.269775	1488.190552	1201.474976	45.689659
888.514099	937.514587	1438.129150	1101.352051	32.727268
888.807678	983.024963	1385.792114	1049.015137	16.384199
889.101196	928.412476	1474.537476	1060.392700	24.166670
889.394653	862.422363	1422.200562	1083.147949	39.430901
889.688049	951.167725	1385.792114	1171.893188	50.785339
889.981384	987.576050	1369.863525	1083.147949	25.000008
890.274719	889.728638	1365.312500	1030.810913	29.665068
890.567932	932.963501	1372.139038	1105.903076	39.378235
>>>>>End Processed Spectral Data<<<<<
