Jaz Data File
++++++++++++++++++++++++++++++++++++
Date: Wed Feb 07 06:53:20 2024
User: jaz
Dark Spectrum Present: Yes
Reference Spectrum Present: Yes
Processed Spectrum Present: Yes
Spectrometers: JAZA3692
Integration Time (usec): 49800 (JAZA3692)
Spectra Averaged: 1 (JAZA3692)
Boxcar Smoothing: 0 (JAZA3692)
Correct for Electrical Dark: No (JAZA3692)
Strobe/Lamp Enabled: Yes (JAZA3692)
Correct for Detector Non-linearity: No (JAZA3692)
Correct for Stray Light: No (JAZA3692)
Number of Pixels in Processed Spectrum: 2048
>>>>>Begin Processed Spectral Data<<<<<
W	D	R	S	P
190.244385	0.000000	0.000000	0.000000	0.000000
190.627136	0.000000	0.000000	0.000000	0.000000
191.009842	912.483826	932.963501	921.585938	44.444611
191.392532	962.545288	928.412476	951.167725	33.333214
191.775177	957.994263	923.861450	882.902100	219.999924
192.157791	955.718750	953.443237	930.687988	1100.005371
192.540390	928.412476	907.932800	892.004150	177.777847
192.922943	869.248962	1008.055725	928.412476	42.622932
193.305481	880.626526	978.473938	912.483826	32.558144
193.687958	944.341125	946.616638	980.749451	1600.005371
194.070419	944.341125	971.647400	921.585938	-83.333183
194.452866	955.718750	967.096313	882.902100	-640.002136
194.835251	969.371887	951.167725	957.994263	62.500126
195.217621	978.473938	953.443237	921.585938	227.272903
195.599960	948.892151	1017.157776	887.453125	-89.999947
195.982254	955.718750	914.759338	964.820801	-22.222122
196.364517	905.657288	971.647400	821.463013	-127.586197
196.746750	1008.055725	944.341125	957.994263	78.571411
197.128952	976.198425	948.892151	873.799988	374.999664
197.511139	953.443237	935.239075	860.146851	512.500305
197.893280	932.963501	1033.086426	973.922913	40.909122
198.275391	939.790100	901.106262	912.483826	70.588326
198.657471	930.687988	980.749451	919.310425	-22.727190
199.039520	964.820801	955.718750	942.065613	250.000671
199.421539	960.269775	946.616638	1014.882263	-399.999542
199.803513	914.759338	960.269775	896.555176	-39.999973
200.185471	948.892151	1053.566162	903.381775	-43.478199
200.567383	962.545288	1030.810913	894.279663	-100.000000
200.949265	1005.780212	935.239075	944.341125	87.096817
201.331131	964.820801	928.412476	951.167725	37.499874
201.712967	1080.872437	944.341125	903.381775	129.999969
202.094742	873.799988	1030.810913	894.279663	13.043471
202.476517	885.177612	1001.229126	905.657288	17.647057
202.858231	928.412476	951.167725	885.177612	-189.999512
203.239944	942.065613	985.300537	887.453125	-126.315681
203.621582	946.616638	957.994263	935.239075	-99.999466
204.003235	907.932800	923.861450	953.443237	285.714355
204.384827	903.381775	985.300537	946.616638	52.777729
204.766388	928.412476	935.239075	905.657288	-333.331238
205.147934	1003.504700	955.718750	903.381775	209.523773
205.529449	980.749451	957.994263	832.840637	650.000427
205.910904	896.555176	964.820801	889.728638	-9.999964
206.292343	962.545288	985.300537	889.728638	-319.999359
206.673767	964.820801	1012.606750	889.728638	-157.142761
207.055115	892.004150	1001.229126	926.136963	31.250008
207.436462	937.514587	1001.229126	914.759338	-35.714375
207.817780	942.065613	944.341125	944.341125	100.000000
208.199051	930.687988	1042.188477	926.136963	-4.081619
208.580307	887.453125	973.922913	946.616638	68.421021
208.961517	901.106262	1005.780212	957.994263	54.347813
209.342712	948.892151	944.341125	892.004150	1250.004028
209.723846	944.341125	932.963501	862.422363	719.998840
210.104965	914.759338	930.687988	846.493713	-428.571320
210.486069	917.034912	1021.708862	894.279663	-21.739170
210.867111	871.524475	942.065613	996.678101	177.419342
211.248123	973.922913	1069.494751	873.799988	-104.761955
211.629120	937.514587	976.198425	878.351013	-152.941330
212.010071	946.616638	967.096313	894.279663	-255.555695
212.390991	994.402588	930.687988	969.371887	39.285660
212.771881	907.932800	980.749451	930.687988	31.249979
213.152756	989.851563	953.443237	889.728638	275.000092
213.533569	992.127075	983.024963	914.759338	849.997681
213.914368	1008.055725	992.127075	914.759338	585.714355
214.295135	962.545288	1017.157776	1012.606750	91.666695
214.675858	994.402588	1026.259888	955.718750	-121.428490
215.056549	928.412476	1033.086426	955.718750	26.086983
215.437225	926.136963	1026.259888	937.514587	11.363656
215.817841	951.167725	976.198425	930.687988	-81.818466
216.198441	873.799988	1055.841675	876.075500	1.249995
216.579025	983.024963	960.269775	912.483826	310.000244
216.959549	932.963501	973.922913	839.667175	-227.777512
217.340057	967.096313	1008.055725	846.493713	-294.444183
217.720535	953.443237	917.034912	903.381775	137.500046
218.100967	926.136963	1010.331238	901.106262	-29.729694
218.481369	951.167725	910.208313	964.820801	-33.333183
218.861740	996.678101	910.208313	946.616638	57.894745
219.242065	994.402588	996.678101	996.678101	100.000000
219.622391	926.136963	992.127075	989.851563	96.551735
220.002670	946.616638	951.167725	928.412476	-399.995972
220.382919	951.167725	992.127075	998.953613	116.666618
220.763123	983.024963	953.443237	1023.984375	-138.461868
221.143295	978.473938	962.545288	921.585938	357.142639
221.523453	948.892151	957.994263	905.657288	-474.998169
221.903549	955.718750	1003.504700	971.647400	33.333332
222.283630	910.208313	1055.841675	962.545288	35.937489
222.663696	919.310425	1042.188477	930.687988	9.259232
223.043701	948.892151	1030.810913	1001.229126	63.888874
223.423676	964.820801	1058.117188	903.381775	-65.853600
223.803635	1033.086426	1042.188477	876.075500	-1725.005981
224.183548	1008.055725	998.953613	878.351013	1424.995850
224.563431	951.167725	987.576050	887.453125	-175.000076
224.943283	960.269775	1026.259888	917.034912	-65.517181
225.323105	873.799988	1069.494751	923.861450	25.581402
225.702881	885.177612	978.473938	973.922913	95.121964
226.082642	910.208313	1042.188477	851.044800	-44.827579
226.462357	903.381775	1028.535400	983.024963	63.636341
226.842041	955.718750	1037.637451	892.004150	-77.777847
227.221695	892.004150	1019.433350	942.065613	39.285706
227.601318	987.576050	1058.117188	912.483826	-106.451675
227.980911	930.687988	1044.463989	960.269775	26.000023
228.360474	917.034912	1012.606750	989.851563	76.190491
228.739990	962.545288	1133.209351	935.239075	-15.999978
229.119476	905.657288	1149.138062	939.790100	14.018689
229.498932	821.463013	1149.138062	923.861450	31.249996
229.878372	885.177612	1210.577026	985.300537	30.769239
230.257736	901.106262	1240.158813	953.443237	15.436243
230.637115	944.341125	1233.332275	967.096313	7.874009
231.016449	935.239075	1142.311401	914.759338	-9.890137
231.395737	871.524475	1133.209351	946.616638	28.695644
231.774994	898.830688	1183.270874	919.310425	7.200015
232.154221	926.136963	1153.689087	862.422363	-28.000002
232.533417	939.790100	1117.280762	928.412476	-6.410266
232.912582	921.585938	1133.209351	987.576050	31.182802
233.291702	935.239075	1121.831787	921.585938	-7.317080
233.670792	944.341125	1185.546387	942.065613	-0.943393
234.049866	942.065613	1126.382813	976.198425	18.518517
234.428894	955.718750	1149.138062	942.065613	-7.058828
234.807892	951.167725	1121.831787	910.208313	-24.000021
235.186874	944.341125	1128.658325	866.973450	-41.975288
235.565781	882.902100	1151.413574	887.453125	1.694909
235.944687	1019.433350	1149.138062	1003.504700	-12.280703
236.323547	967.096313	1199.199463	885.177612	-35.294094
236.702377	955.718750	1199.199463	921.585938	-14.018693
237.081177	985.300537	1169.617676	905.657288	-43.209900
237.459946	932.963501	1274.291626	921.585938	-3.333321
237.838669	953.443237	1210.577026	973.922913	7.964599
238.217361	894.279663	1151.413574	896.555176	0.884952
238.596039	948.892151	1083.147949	1001.229126	38.983028
238.974670	914.759338	1174.168701	919.310425	1.754403
239.353271	905.657288	1169.617676	894.279663	-4.310353
239.731842	957.994263	1140.035889	926.136963	-17.500008
240.110367	914.759338	1240.158813	919.310425	1.398615
240.488876	896.555176	1192.372925	921.585938	8.461548
240.867340	971.647400	1244.709839	894.279663	-28.333349
241.245789	901.106262	1303.873413	919.310425	4.519773
241.624176	935.239075	1376.690063	917.034912	-4.123711
242.002548	932.963501	1281.118164	903.381775	-8.496719
242.380890	887.453125	1401.720825	1028.535400	27.433626
242.759186	957.994263	1529.150024	987.576050	5.179286
243.137451	944.341125	1622.446289	917.034912	-4.026841
243.515686	939.790100	1670.232300	978.473938	5.295948
243.893890	928.412476	1683.885376	921.585938	-0.903611
244.272049	869.248962	1665.681274	946.616638	9.714281
244.650192	1026.259888	1590.588989	983.024963	-7.661296
245.028290	932.963501	1590.588989	978.473938	6.920419
245.406357	928.412476	1510.945801	969.371887	7.031256
245.784393	912.483826	1497.292725	923.861450	1.945529
246.162384	973.922913	1433.578125	987.576050	2.970300
246.540359	889.728638	1549.629639	903.381775	2.068968
246.918289	955.718750	1620.170776	969.371887	2.054796
247.296204	964.820801	1795.385864	1023.984375	7.123292
247.674057	1005.780212	1995.631714	942.065613	-6.436784
248.051895	996.678101	2339.235352	985.300537	-0.847455
248.429703	919.310425	2359.715088	1074.045776	10.742492
248.807465	907.932800	2325.582275	1058.117188	10.593902
249.185196	1001.229126	2093.479248	1008.055725	0.625003
249.562897	946.616638	1959.223389	969.371887	2.247195
249.940567	889.728638	1884.131226	1003.504700	11.441649
250.318192	976.198425	1642.926025	1023.984375	7.167237
250.695801	960.269775	1667.956787	989.851563	4.180067
251.073349	1019.433350	1661.130127	1033.086426	2.127652
251.450882	992.127075	1567.833862	967.096313	-4.347832
251.828400	985.300537	1563.282837	1017.157776	5.511802
252.205872	914.759338	1613.344238	1021.708862	15.309453
252.583313	905.657288	1633.823975	989.851563	11.562500
252.960693	978.473938	1733.946899	1049.015137	9.337356
253.338074	983.024963	1768.079712	1074.045776	11.594199
253.715408	951.167725	1722.569214	996.678101	5.899700
254.092682	928.412476	1720.293701	960.269775	4.022990
254.469955	894.279663	1570.109375	953.443237	8.754213
254.847198	930.687988	1658.854614	957.994263	3.750004
255.224365	866.973450	1565.558350	1021.708862	22.149836
255.601563	919.310425	1535.976563	937.514587	2.952029
255.978683	1005.780212	1576.935913	957.994263	-8.366536
256.355743	896.555176	1576.935913	1026.259888	19.063549
256.732819	937.514587	1526.874512	1003.504700	11.196912
257.109894	894.279663	1586.037964	1037.637451	20.723682
257.486877	932.963501	1558.731689	989.851563	9.090917
257.863831	887.453125	1688.436401	930.687988	5.397724
258.240753	1008.055725	1818.141113	1019.433350	1.404497
258.617645	914.759338	1788.559326	1051.290649	15.625008
258.994507	967.096313	1797.661377	1051.290649	10.136994
259.371307	964.820801	1984.254150	1033.086426	6.696428
259.748108	971.647400	2209.530762	1023.984375	4.227941
260.124878	951.167725	2364.266113	1012.606750	4.347824
260.501617	919.310425	2555.409912	1021.708862	6.258693
260.878296	946.616638	2846.676514	1133.209351	9.820360
261.254944	960.269775	2983.207764	1124.107300	8.098989
261.631561	851.044800	2924.044189	1060.392700	10.098791
262.008179	962.545288	2555.409912	1028.535400	4.142858
262.384735	928.412476	2252.765625	1115.005249	14.089352
262.761261	905.657288	2025.213501	946.616638	3.658535
263.137695	873.799988	1952.396851	1035.361938	14.978900
263.514191	937.514587	1986.529663	992.127075	5.206072
263.890594	976.198425	1934.192627	1037.637451	6.413298
264.267029	957.994263	1925.090576	1012.606750	5.647058
264.643341	898.830688	1868.202637	994.402588	9.859157
265.019653	953.443237	1790.834839	1010.331238	6.793477
265.395935	926.136963	1865.927002	1008.055725	8.716709
265.772217	953.443237	1815.865601	967.096313	1.583108
266.148407	989.851563	1897.784302	1028.535400	4.260650
266.524597	976.198425	1884.131226	1039.912964	7.017539
266.900726	939.790100	2088.927979	1012.606750	6.336633
267.276855	937.514587	2136.714111	1026.259888	7.400379
267.652924	992.127075	2198.153076	992.127075	0.000000
268.028992	1005.780212	2191.326416	1053.566162	4.030712
268.404999	996.678101	2204.979736	1046.739624	4.143131
268.781006	935.239075	2198.153076	973.922913	3.063062
269.156921	946.616638	2195.877686	1026.259888	6.375229
269.532837	967.096313	2245.938965	1051.290649	6.583635
269.908661	901.106262	2209.530762	1035.361938	10.260865
270.284546	901.106262	2093.479248	1001.229126	8.396941
270.660339	976.198425	2141.265137	1001.229126	2.148435
271.036133	976.198425	2195.877686	1026.259888	4.104478
271.411835	885.177612	2195.877686	1078.596802	14.756937
271.787537	967.096313	2407.500977	1053.566162	6.003164
272.163239	978.473938	2748.829102	1037.637451	3.341901
272.538849	939.790100	2796.614990	1083.147949	7.720591
272.914459	946.616638	2848.952148	1023.984375	4.066987
273.290070	864.697876	2673.737061	1103.627563	13.207546
273.665588	960.269775	2607.746826	1058.117188	5.939228
274.041046	960.269775	2562.236328	1044.463989	5.255679
274.416565	942.065613	2466.664551	964.820801	1.492536
274.791962	953.443237	2523.552490	1023.984375	4.492754
275.167389	905.657288	2421.154053	1044.463989	9.159155
275.542755	930.687988	2255.041016	998.953613	5.154640
275.918060	930.687988	2302.827148	1046.739624	8.457716
276.293365	948.892151	2402.949951	1035.361938	5.946791
276.668640	976.198425	2437.082764	1026.259888	3.426792
277.043854	955.718750	2400.674561	1069.494751	7.874012
277.419037	919.310425	2523.552490	1062.668213	8.936170
277.794189	928.412476	2544.032227	1083.147949	9.577469
278.169312	983.024963	2466.664551	1078.596802	6.441715
278.544373	987.576050	2532.654541	1053.566162	4.270988
278.919464	1028.535400	2437.082764	1085.423462	4.038775
279.294464	976.198425	2437.082764	1037.637451	4.205605
279.669464	928.412476	2450.735840	1039.912964	7.324363
280.044403	969.371887	2311.929199	1051.290649	6.101696
280.419312	985.300537	2439.358398	1008.055725	1.564944
280.794189	998.953613	2521.277100	1058.117188	3.886400
281.169037	1030.810913	2603.195801	985.300537	-2.894353
281.543854	935.239075	2644.155273	1049.015137	6.657790
281.918671	960.269775	2701.043213	1108.178589	8.496730
282.293365	955.718750	2853.503174	1135.484863	9.472420
282.668091	980.749451	3012.789551	1014.882263	1.679731
283.042786	957.994263	2980.932129	1071.770264	5.624295
283.417419	973.922913	3112.912354	1080.872437	5.000002
283.792053	923.861450	3008.238525	1071.770264	7.096068
284.166595	989.851563	2974.105713	1126.382813	6.880734
284.541138	921.585938	2782.961914	1058.117188	7.334964
284.915619	937.514587	2835.298828	1046.739624	5.755398
285.290100	898.830688	2935.421875	1026.259888	6.256985
285.664520	983.024963	3015.064941	1069.494751	4.255319
286.038940	935.239075	3035.544678	1112.729614	8.450701
286.413300	932.963501	3231.239502	1144.586914	9.207920
286.787628	944.341125	3231.239502	1110.454102	7.263680
287.161896	964.820801	3345.015625	1174.168701	8.795410
287.536194	930.687988	3317.709229	1231.056763	12.583414
287.910400	937.514587	3231.239502	1174.168701	10.317459
288.284607	939.790100	3060.575439	1224.230225	13.412018
288.658752	878.351013	2978.656738	1137.760376	12.351029
289.032867	926.136963	2869.431641	1153.689087	11.709604
289.406921	960.269775	3005.962891	1199.199463	11.679645
289.781006	960.269775	3010.513916	1251.536499	14.206441
290.154999	964.820801	2921.768799	1187.821899	11.395351
290.529022	953.443237	3110.636963	1187.821899	10.864979
290.902954	928.412476	3438.312012	1167.342163	9.519492
291.276825	971.647400	3392.801514	1244.709839	11.278193
291.650757	930.687988	3370.046387	1274.291626	14.085820
292.024597	948.892151	3253.994629	1342.557251	17.077986
292.398407	971.647400	3217.586426	1267.465088	13.171226
292.772156	914.759338	3267.647949	1258.363037	14.603483
293.145905	946.616638	3056.024414	1249.260864	14.347356
293.519592	962.545288	2983.207764	1228.781250	13.175677
293.893280	942.065613	2971.830078	1287.944824	17.040363
294.266907	976.198425	3108.361328	1260.638550	13.340450
294.640533	937.514587	3372.321777	1319.802124	15.700937
295.014069	912.483826	3445.138428	1276.567139	14.375562
295.387604	910.208313	3495.199951	1372.139038	17.869719
295.761078	898.830688	3586.220703	1283.393677	14.309905
296.134552	917.034912	3620.353516	1394.894287	17.676769
296.507996	882.902100	3704.547852	1349.383789	16.532255
296.881378	921.585938	3743.231689	1328.904175	14.435485
297.254730	921.585938	3736.405273	1419.924927	17.704121
297.628021	964.820801	3982.161377	1463.159912	16.515839
298.001282	953.443237	4161.927734	1408.547363	14.184396
298.374573	910.208313	4032.222900	1438.129150	16.909620
298.747803	953.443237	4171.029785	1492.741699	16.760963
299.121002	885.177612	3811.497314	1415.373901	18.118193
299.494141	1014.882263	3652.210938	1392.618774	14.322694
299.867188	944.341125	3463.342773	1358.485962	16.440832
300.240265	935.239075	3483.822266	1317.526489	14.999997
300.613312	914.759338	3351.842041	1301.597900	15.873017
300.986328	919.310425	3288.127441	1372.139038	19.116236
301.359314	976.198425	3340.464600	1312.975464	14.244464
301.732239	898.830688	3326.811523	1397.169800	20.524836
302.105103	1053.566162	3499.750977	1385.792114	13.581392
302.477997	976.198425	3440.587402	1406.271851	17.451525
302.850830	944.341125	3381.423828	1315.250977	15.219419
303.223602	946.616638	3228.964111	1342.557251	17.347956
303.596375	923.861450	3144.769775	1256.087524	14.959019
303.969116	894.279663	3160.698486	1308.424438	18.273090
304.341766	957.994263	3112.912354	1326.628662	17.106655
304.714478	923.861450	3108.361328	1322.077637	18.229168
305.087067	910.208313	3119.739014	1221.954712	14.109168
305.459656	898.830688	3208.484375	1251.536499	15.270939
305.832214	841.942688	3074.228516	1251.536499	18.348627
306.204681	964.820801	3017.340576	1308.424438	16.740576
306.577148	935.239075	3056.024414	1292.495850	16.845493
306.949646	930.687988	3242.617188	1265.189575	14.468505
307.322021	912.483826	3110.636963	1276.567139	16.563147
307.694397	994.402588	3128.841064	1326.628662	15.565034
308.066742	923.861450	3158.422852	1328.904175	18.126272
308.439026	928.412476	3288.127441	1349.383789	17.839924
308.811279	926.136963	3315.433838	1390.343262	19.428574
309.183502	964.820801	3397.352539	1369.863525	16.651077
309.555695	917.034912	3634.006836	1340.281738	15.577888
309.927887	980.749451	3606.700439	1385.792114	15.424609
310.299988	983.024963	3513.404053	1299.322388	12.500001
310.672058	892.004150	3670.415039	1347.108276	16.380014
311.044128	894.279663	3677.241699	1408.547363	18.479149
311.416168	969.371887	3611.251465	1351.659302	14.470282
311.788147	917.034912	3586.220703	1369.863525	16.965046
312.160065	1014.882263	3775.089111	1392.618774	13.685081
312.531982	983.024963	3531.608398	1285.669312	11.875002
312.903870	926.136963	3542.985840	1308.424438	14.608695
313.275696	907.932800	3429.209961	1322.077637	16.425995
313.647491	992.127075	3381.423828	1385.792114	16.476189
314.019318	964.820801	3360.944336	1297.046875	13.865148
314.391022	1012.606750	3340.464600	1342.557251	14.173997
314.762726	939.790100	3451.965088	1363.036987	16.847826
315.134369	946.616638	3533.883789	1299.322388	13.632367
315.505981	926.136963	3738.680664	1422.200562	17.637543
315.877594	948.892151	3779.640137	1381.241089	15.273311
316.249146	992.127075	3611.251465	1340.281738	13.292788
316.620636	978.473938	3426.934326	1299.322388	13.104090
316.992157	1008.055725	3381.423828	1340.281738	13.998081
317.363586	983.024963	3370.046387	1283.393677	12.583410
317.735016	937.514587	3306.331787	1356.210449	17.675314
318.106354	992.127075	3363.219727	1256.087524	11.132439
318.477722	912.483826	3356.393066	1262.914063	14.338923
318.849060	912.483826	3347.291016	1299.322388	15.887853
319.220306	969.371887	3374.597412	1317.526489	14.474925
319.591522	921.585938	3456.516113	1272.016113	13.824057
319.962738	942.065613	3495.199951	1278.842651	13.190729
320.333923	932.963501	3529.332764	1294.771362	13.935147
320.705017	948.892151	3556.638916	1310.699951	13.874346
321.076111	903.381775	3476.995850	1308.424438	15.738283
321.447144	942.065613	3340.464600	1237.883301	12.333965
321.818176	892.004150	3203.933350	1258.363037	15.846457
322.189178	969.371887	3272.198975	1301.597900	14.426876
322.560120	919.310425	3385.974854	1233.332275	12.730626
322.931030	873.799988	3279.025391	1267.465088	16.367077
323.301910	894.279663	3454.240479	1278.842651	15.022221
323.672729	932.963501	3679.517090	1342.557251	14.913007
324.043549	926.136963	3706.823486	1262.914063	12.111293
324.414337	919.310425	3902.518066	1394.894287	15.942031
324.785095	939.790100	4211.988770	1424.476074	14.812242
325.155792	955.718750	4180.131836	1353.934937	12.350037
325.526428	983.024963	4034.498291	1360.761475	12.378823
325.897034	932.963501	4045.875977	1340.281738	13.084795
326.267670	937.514587	3979.885986	1331.179688	12.939417
326.638184	928.412476	3952.579590	1322.077637	13.017309
327.008728	951.167725	4068.631104	1312.975464	11.605838
327.379211	935.239075	4148.274414	1285.669312	10.906516
327.749634	907.932800	4041.324951	1297.046875	12.418302
328.120026	910.208313	3731.854004	1278.842651	13.064515
328.490417	907.932800	3811.497314	1267.465088	12.382445
328.860748	962.545288	3768.262451	1276.567139	11.192213
329.231079	971.647400	3743.231689	1308.424438	12.151067
329.601318	912.483826	3663.588379	1310.699951	14.474772
329.971558	951.167725	3684.068115	1369.863525	15.320566
330.341736	903.381775	3772.813477	1312.975464	14.274384
330.711914	901.106262	3693.170166	1333.455200	15.484922
331.082062	944.341125	3818.323975	1376.690063	15.043546
331.452148	939.790100	3715.925537	1406.271851	16.803278
331.822174	969.371887	3772.813477	1376.690063	14.529219
332.192200	973.922913	3895.691650	1317.526489	11.760122
332.562134	903.381775	3745.507324	1272.016113	12.970375
332.932129	994.402588	3934.375488	1378.965576	13.080494
333.302063	978.473938	4084.559814	1360.761475	12.307693
333.671906	1021.708862	4209.713379	1351.659302	10.349749
334.041718	928.412476	4207.437988	1319.802124	11.936158
334.411499	937.514587	4257.499512	1324.353149	11.651817
334.781281	939.790100	4196.060547	1333.455200	12.089447
335.151001	953.443237	4305.285156	1401.720825	13.374067
335.520721	1014.882263	4198.335938	1381.241089	11.508220
335.890350	921.585938	4086.835449	1335.730713	13.084111
336.259979	880.626526	4168.753906	1360.761475	14.602078
336.629547	955.718750	4152.825684	1374.414551	13.096084
336.999084	967.096313	4223.366699	1435.853638	14.395528
337.368622	953.443237	4027.671875	1340.281738	12.583271
337.738098	851.044800	4105.039551	1369.863525	15.944056
338.107513	885.177612	4198.335938	1381.241089	14.972527
338.476898	894.279663	4177.855957	1333.455200	13.374915
338.846252	951.167725	4148.274414	1328.904175	11.814947
339.215576	973.922913	4414.510254	1360.761475	11.243387
339.584869	896.555176	4293.907715	1315.250977	12.324179
339.954132	1044.463989	4205.162598	1310.699951	8.423326
340.323334	928.412476	4134.621094	1388.067749	14.336412
340.692505	894.279663	3948.028564	1372.139038	15.648286
341.061646	953.443237	3857.007813	1385.792114	14.890280
341.430786	894.279663	4073.182129	1226.505737	10.450968
341.799896	983.024963	4275.703613	1397.169800	12.577748
342.168915	923.861450	4218.815430	1340.281738	12.638121
342.537903	937.514587	4225.642090	1388.067749	13.702424
342.906830	948.892151	4273.428223	1351.659302	12.114988
343.275757	992.127075	4421.336914	1392.618774	11.678833
343.644684	969.371887	4537.388672	1401.720825	12.117346
344.013550	944.341125	4541.939453	1349.383789	11.258696
344.382355	960.269775	4628.409180	1435.853638	12.965261
344.751129	985.300537	4894.645020	1392.618774	10.419093
345.119873	887.453125	4990.217285	1438.129150	13.422073
345.488586	1012.606750	5217.769043	1554.180664	12.878788
345.857269	992.127075	5415.739746	1497.292725	11.419753
346.225891	926.136963	5443.045898	1485.915039	12.392945
346.594482	955.718750	5484.005371	1533.701050	12.763819
346.963043	907.932800	5374.780273	1385.792114	10.697909
347.331543	885.177612	5208.666992	1526.874512	14.842107
347.700043	942.065613	5058.482910	1479.088501	13.045880
348.068512	992.127075	5024.350098	1401.720825	10.158013
348.436951	878.351013	4887.818848	1324.353149	11.123724
348.805328	1005.780212	4628.409180	1376.690063	10.238693
349.173645	957.994263	4612.480469	1426.751587	12.826900
349.541931	946.616638	4592.000977	1488.190552	14.856429
349.910217	912.483826	4783.144531	1333.455200	10.875957
350.278473	939.790100	4940.155762	1451.782227	12.798633
350.646667	901.106262	4935.604492	1472.261963	14.156796
351.014801	932.963501	5019.798828	1451.782227	12.694877
351.382935	1012.606750	4880.992188	1440.404663	11.058824
351.751007	964.820801	4965.186523	1426.751587	11.547214
352.119049	914.759338	4962.910645	1481.364014	13.996628
352.487091	957.994263	4987.941406	1476.812988	12.874083
352.855072	948.892151	5063.033691	1449.506714	12.168141
353.222992	957.994263	5154.054688	1469.986450	12.201735
353.590881	953.443237	5160.881348	1465.435425	12.168740
353.958740	912.483826	5449.872559	1495.017212	12.838516
354.326599	887.453125	5481.729492	1545.078613	14.314016
354.694397	882.902100	5809.404785	1561.007324	13.764434
355.062134	912.483826	5784.374023	1611.068726	14.339094
355.429840	878.351013	5707.006348	1538.252075	13.666352
355.797516	946.616638	5970.966797	1556.456177	12.137680
356.165192	896.555176	6157.559082	1563.282837	12.673012
356.532776	892.004150	6303.192383	1645.201538	13.919260
356.900360	967.096313	6435.172852	1679.334351	13.025385
357.267883	976.198425	6426.070801	1695.262939	13.194153
357.635376	978.473938	6906.205566	1754.426514	13.090211
358.002808	960.269775	7277.115723	1727.120239	12.139769
358.370270	964.820801	7568.382324	1786.283813	12.439696
358.737640	937.514587	7561.555664	1804.488037	13.088286
359.105011	905.657288	7302.146484	1729.395752	12.877977
359.472321	926.136963	6967.644531	1797.661377	14.425611
359.839569	978.473938	6837.939941	1786.283813	13.786408
360.206787	921.585938	6915.307617	1870.478149	15.831436
360.574005	907.932800	7170.166016	1784.008301	13.989825
360.941193	873.799988	7390.891602	1763.528564	13.652233
361.308319	887.453125	8055.343750	1913.713013	14.317460
361.675415	944.341125	8335.232422	1829.518677	11.976602
362.042450	932.963501	8831.295898	2027.489014	13.857678
362.409424	971.647400	9766.535156	2018.386963	11.901681
362.776428	898.830688	9736.953125	2059.346436	13.130795
363.143402	901.106262	9163.522461	1922.815063	12.365739
363.510284	978.473938	8594.641602	2002.458252	13.444877
363.877136	971.647400	7727.668457	1824.967651	12.630515
364.243988	937.514587	7384.064941	1820.416626	13.695728
364.610779	894.279663	6935.787598	1695.262939	13.258003
364.977539	905.657288	6712.786133	1772.630737	14.929468
365.344269	983.024963	6717.337402	1670.232300	11.984128
365.710938	926.136963	6544.397949	1567.833862	11.421629
366.077576	937.514587	6505.713867	1633.823975	12.505109
366.444183	866.973450	6355.529785	1633.823975	13.971807
366.810760	1001.229126	6332.774414	1622.446289	11.651728
367.177277	998.953613	6530.744629	1697.538574	12.628550
367.543823	894.279663	6564.877441	1645.201538	13.242376
367.910248	930.687988	6469.305664	1629.272949	12.612984
368.276642	928.412476	6328.223145	1613.344238	12.684366
368.643036	939.790100	6305.468262	1613.344238	12.553010
369.009399	885.177612	6214.447266	1649.752563	14.346712
369.375671	892.004150	6000.548340	1718.018188	16.169266
369.741974	951.167725	6168.937012	1642.926025	13.257740
370.108215	923.861450	6089.293457	1599.691162	13.083701
370.474396	910.208313	6066.538574	1567.833862	12.753752
370.840546	932.963501	5993.721680	1645.201538	14.073741
371.206665	994.402588	6200.793945	1636.099487	12.325175
371.572784	955.718750	6289.539551	1645.201538	12.926620
371.938843	935.239075	6485.234375	1586.037964	11.726116
372.304840	905.657288	6705.959961	1622.446289	12.357786
372.670807	957.994263	6305.468262	1688.436401	13.659574
373.036713	1017.157776	6530.744629	1576.935913	10.152703
373.402649	930.687988	6441.999512	1624.721802	12.592897
373.768524	942.065613	6360.080566	1654.303589	13.145736
374.134308	987.576050	6430.621582	1731.671387	13.670570
374.500122	944.341125	6487.509766	1692.987427	13.505747
374.865875	962.545288	6521.642578	1595.140137	11.379453
375.231567	962.545288	6482.958984	1617.895264	11.871393
375.597260	905.657288	6721.888672	1706.640625	13.771518
375.962891	946.616638	6874.348145	1708.916138	12.859886
376.328461	932.963501	6919.858887	1692.987427	12.694792
376.694031	960.269775	7229.329590	1799.937012	13.393831
377.059540	887.453125	7563.831055	1795.385864	13.599181
377.425049	964.820801	7793.658691	1795.385864	12.162612
377.790497	978.473938	8005.282227	1774.906250	11.334198
378.155945	960.269775	8260.140625	1818.141113	11.751870
378.521301	873.799988	8112.231445	1868.202637	13.737819
378.886597	901.106262	7937.016602	1831.794189	13.227683
379.251892	957.994263	7613.892578	1784.008301	12.410256
379.617157	976.198425	7299.870605	1854.549438	13.889888
379.982422	978.473938	7047.288086	1711.191650	12.073491
380.347595	973.922913	7104.175781	1754.426514	12.731997
380.712738	903.381775	7076.869629	1674.783325	12.495393
381.077820	985.300537	7258.911133	1802.212524	13.021401
381.442902	898.830688	7022.257324	1706.640625	13.192122
381.807953	989.851563	7124.655762	1763.528564	12.611275
382.172974	928.412476	6958.542480	1683.885376	12.528302
382.537933	939.790100	6953.991699	1745.324463	13.393870
382.902832	898.830688	6899.378906	1690.711914	13.196815
383.267700	914.759338	7256.635742	1761.253052	13.347685
383.632538	944.341125	7308.972656	1765.804199	12.906688
383.997345	948.892151	7479.636719	1795.385864	12.961672
384.362152	953.443237	7893.781738	1813.590088	12.393442
384.726898	930.687988	7588.861816	1865.927002	14.046479
385.091553	953.443237	7745.873047	1786.283813	12.261306
385.456238	973.922913	7638.923340	1761.253052	11.812904
385.820862	987.576050	7750.423828	1720.293701	10.834455
386.185425	889.728638	7579.759766	1804.488037	13.673470
386.549988	1005.780212	7736.770508	1834.069824	12.305613
386.914490	1005.780212	7921.087891	1834.069824	11.977625
387.278961	1010.331238	8046.241699	1870.478149	12.225097
387.643372	857.871338	7987.078125	1861.375977	14.075964
388.007782	912.483826	8053.068359	1779.457275	12.141491
388.372101	930.687988	8196.425781	1768.079712	11.525212
388.736450	983.024963	8089.476563	1852.273926	12.231829
389.100739	971.647400	8175.946289	1797.661377	11.465570
389.464966	892.004150	7996.180176	1779.457275	12.491993
389.829163	841.942688	7802.760742	1665.681274	11.833934
390.193329	912.483826	7714.015625	1729.395752	12.010705
390.557495	969.371887	7896.057129	1836.345337	12.516427
390.921570	1010.331238	8134.986816	1802.212524	11.114660
391.285614	937.514587	8200.976563	1804.488037	11.936091
391.649597	873.799988	8842.673828	1781.732788	11.393489
392.013550	944.341125	9313.707031	1847.722900	10.793909
392.377502	978.473938	9325.083984	1904.610962	11.095965
392.741455	964.820801	9393.349609	1872.753662	10.772139
393.105316	898.830688	9432.034180	1849.998413	11.146667
393.469086	983.024963	9020.164063	1804.488037	10.220840
393.832886	942.065613	8824.469727	1824.967651	11.200923
394.196655	973.922913	9006.511719	1824.967651	10.594900
394.560333	853.320313	9195.379883	1820.416626	11.593017
394.924042	878.351013	9391.074219	1859.100464	11.520983
395.287659	948.892151	9290.951172	1911.437500	11.538463
395.651245	1001.229126	9409.278320	1822.692139	9.769960
396.014771	898.830688	8956.450195	1904.610962	12.482349
396.378296	928.412476	8460.386719	1761.253052	11.057401
396.741791	921.585938	8303.375000	1663.405762	10.049323
397.105255	930.687988	8353.436523	1790.834839	11.587983
397.468628	983.024963	8155.466797	1754.426514	10.755075
397.832001	955.718750	8128.160156	1663.405762	9.866752
398.195313	951.167725	8132.711426	1690.711914	10.297844
398.558624	937.514587	8353.436523	1608.793213	9.051857
398.921844	917.034912	8266.966797	1793.110352	11.919504
399.285095	903.381775	8419.426758	1711.191650	10.747806
399.648254	887.453125	8458.110352	1695.262939	10.670273
400.011383	912.483826	8346.610352	1633.823975	9.703093
400.374451	912.483826	8119.058105	1683.885376	10.704137
400.737549	939.790100	8567.335938	1670.232300	9.576372
401.100586	882.902100	8018.935547	1749.875488	12.149234
401.463562	921.585938	8246.487305	1674.783325	10.282697
401.826508	928.412476	8451.284180	1713.467163	10.435572
402.189392	983.024963	8137.262207	1692.987427	9.923664
402.552246	971.647400	8330.681641	1786.283813	11.069882
402.915070	855.595825	8367.089844	1724.844727	11.572250
403.277893	948.892151	8756.204102	1729.395752	9.997085
403.640656	985.300537	8758.479492	1756.702026	9.923887
404.003326	907.932800	9031.541992	1738.497925	10.224090
404.366028	946.616638	9131.665039	1747.599976	9.785933
404.728699	955.718750	9582.217773	1695.262939	8.572935
405.091248	1003.504700	9750.606445	1758.977539	8.636836
405.453857	942.065613	9789.290039	1765.804199	9.310700
405.816345	983.024963	9832.525391	1697.538574	8.074057
406.178833	882.902100	9834.800781	1713.467163	9.278089
406.541260	1008.055725	9841.627930	1786.283813	8.809891
406.903687	992.127075	9680.065430	1615.619751	7.176532
407.266052	967.096313	9213.583984	1720.293701	9.133554
407.628387	1028.535400	9163.522461	1811.314575	9.622377
407.990662	955.718750	9170.348633	1688.436401	8.919667
408.352905	896.555176	9163.522461	1606.517700	8.587945
408.715118	914.759338	9256.818359	1583.762451	8.019641
409.077332	937.514587	8901.836914	1686.160889	9.400001
409.439484	914.759338	9197.655273	1672.507813	9.148353
409.801575	898.830688	9347.839844	1631.548462	8.672234
410.163605	980.749451	9466.166992	1652.028076	7.910967
410.525635	989.851563	9618.625977	1615.619751	7.252110
410.887604	912.483826	9702.820313	1645.201538	8.335490
411.249573	892.004150	9655.035156	1738.497925	9.659828
411.611481	948.892151	9689.167969	1686.160889	8.435304
411.973328	921.585938	9347.839844	1620.170776	8.290574
412.335144	976.198425	9457.064453	1586.037964	7.190770
412.696930	973.922913	9411.553711	1563.282837	6.984898
413.058685	939.790100	9611.799805	1451.782227	5.903962
413.420410	919.310425	9470.717773	1524.598877	7.078232
413.782104	889.728638	9591.320313	1542.803101	7.505230
414.143707	912.483826	9645.932617	1549.629639	7.295466
414.505310	882.902100	9709.647461	1583.762451	7.940190
414.866852	930.687988	9862.107422	1456.333252	5.885349
415.228394	921.585938	9748.331055	1576.935913	7.424594
415.589874	948.892151	10046.424805	1588.313477	7.028514
415.951324	951.167725	10230.741211	1590.588989	6.890632
416.312683	935.239075	10326.313477	1606.517700	7.148049
416.674072	1046.739624	10745.008789	1583.762451	5.537306
417.035370	923.861450	10838.305664	1590.588989	6.724810
417.396667	942.065613	11159.154297	1565.558350	6.102450
417.757935	951.167725	11131.847656	1640.650513	6.772463
418.119141	880.626526	11607.431641	1513.221313	5.897327
418.480286	896.555176	11741.687500	1485.915039	5.434326
418.841400	882.902100	12503.986328	1670.232300	6.775015
419.202484	946.616638	12779.325195	1652.028076	5.961538
419.563568	957.994263	13320.898438	1581.486938	5.043254
419.924591	973.922913	14374.464844	1638.375000	4.958397
420.285553	957.994263	14201.525391	1692.987427	5.549828
420.646484	996.678101	15457.613281	1711.191650	4.940991
421.007355	960.269775	15459.888672	1763.528564	5.539861
421.368225	946.616638	16247.218750	1772.630737	5.398572
421.729065	912.483826	16852.507813	1847.722900	5.867238
422.089874	942.065613	17362.224609	1863.651489	5.612527
422.450592	930.687988	17107.365234	1747.599976	5.049937
422.811279	937.514587	17086.884766	1888.682251	5.889813
423.171936	960.269775	16920.773438	1890.957764	5.831194
423.532593	1017.157776	16888.916016	1893.233276	5.519713
423.893127	953.443237	17055.029297	1834.069824	5.469192
424.253723	930.687988	17330.367188	1852.273926	5.619536
424.614197	996.678101	16875.261719	1820.416626	5.187733
424.974670	948.892151	17899.246094	1931.917114	5.799437
425.335052	919.310425	18165.482422	1970.601074	6.095791
425.695496	923.861450	16827.476563	1820.416626	5.637430
426.055817	928.412476	17532.888672	1831.794189	5.440591
426.416168	944.341125	17125.570313	1847.722900	5.582900
426.776398	889.728638	16201.708008	1788.559326	5.870114
427.136627	989.851563	15475.817383	1752.151001	5.262331
427.496826	998.953613	15198.203125	1811.314575	5.721154
427.856995	962.545288	14620.220703	1831.794189	6.364545
428.217102	873.799988	13951.217773	1731.671387	6.559945
428.577179	932.963501	13871.575195	1706.640625	5.979599
428.937195	905.657288	13673.604492	1708.916138	6.291214
429.297180	944.341125	13259.459961	1715.742676	6.263858
429.657135	937.514587	13168.438477	1672.507813	6.009303
430.017059	905.657288	13539.348633	1743.048950	6.628242
430.376984	869.248962	13245.806641	1631.548462	6.159221
430.736786	1003.504700	13063.764648	1781.732788	6.452830
431.096588	885.177612	12936.335938	1697.538574	6.740937
431.456360	967.096313	12949.989258	1677.058838	5.924801
431.816071	907.932800	12788.426758	1692.987427	6.607929
432.175781	955.718750	12906.753906	1513.221313	4.664889
432.535400	860.146851	12949.989258	1690.711914	6.869941
432.895020	930.687988	12893.100586	1615.619751	5.725699
433.254578	996.678101	12865.794922	1663.405762	5.617332
433.614105	907.932800	13391.439453	1636.099487	5.833030
433.973602	960.269775	13612.165039	1599.691162	5.053957
434.333038	951.167725	13621.267578	1763.528564	6.411637
434.692444	1026.259888	13430.124023	1645.201538	4.989910
435.051819	998.953613	13714.563477	1690.711914	5.440229
435.411133	917.034912	13723.666016	1572.384888	5.117271
435.770416	923.861450	13132.030273	1561.007324	5.219013
436.129669	962.545288	13684.982422	1576.935913	4.829190
436.488861	989.851563	13427.848633	1533.701050	4.372485
436.848083	989.851563	13662.226563	1604.242188	4.848268
437.207184	996.678101	13605.338867	1597.415649	4.764483
437.566254	978.473938	13837.442383	1563.282837	4.547868
437.925293	939.790100	13546.175781	1622.446289	5.415162
438.284363	955.718750	13644.022461	1615.619751	5.200861
438.643311	953.443237	14151.463867	1663.405762	5.379311
439.002258	866.973450	14372.189453	1592.864502	5.374894
439.361145	914.759338	14747.650391	1647.477051	5.296924
439.719971	948.892151	15084.427734	1672.507813	5.119124
440.078827	892.004150	15307.428711	1606.517700	4.956590
440.437592	985.300537	15739.777344	1665.681274	4.611351
440.796295	942.065613	16017.390625	1513.221313	3.788679
441.155029	998.953613	17264.376953	1611.068726	3.763290
441.513672	928.412476	17243.896484	1661.130127	4.490934
441.872253	878.351013	17064.130859	1811.314575	5.764094
442.230865	903.381775	16638.607422	1631.548462	4.627622
442.589386	944.341125	16777.414063	1574.660400	3.981029
442.947876	928.412476	16597.648438	1561.007324	4.037177
443.306335	894.279663	15971.880859	1599.691162	4.678539
443.664764	962.545288	15471.265625	1606.517700	4.438519
444.023102	921.585938	15612.348633	1606.517700	4.662330
444.381500	921.585938	15607.796875	1492.741699	3.889061
444.739777	955.718750	15573.664063	1631.548462	4.623288
445.098022	951.167725	16090.208008	1667.956787	4.734706
445.456238	930.687988	15876.308594	1576.935913	4.323995
445.814423	921.585938	16679.568359	1574.660400	4.144404
446.172577	937.514587	17330.367188	1572.384888	3.872848
446.530701	930.687988	17437.316406	1597.415649	4.039151
446.888733	962.545288	17799.123047	1752.151001	4.689823
447.246765	967.096313	18898.201172	1729.395752	4.251268
447.604736	957.994263	18215.544922	1736.222412	4.509494
447.962677	894.279663	18741.189453	1692.987427	4.475328
448.320587	935.239075	18732.087891	1745.324463	4.551847
448.678436	989.851563	18361.177734	1713.467163	4.165575
449.036255	996.678101	17869.664063	1656.579102	3.910991
449.394043	926.136963	16852.507813	1677.058838	4.714959
449.751770	939.790100	17264.376953	1711.191650	4.725397
450.109467	1008.055725	16652.261719	1786.283813	4.974545
450.467163	951.167725	16424.708984	1597.415649	4.176471
450.824768	948.892151	16411.056641	1749.875488	5.180280
451.182343	923.861450	16126.616211	1784.008301	5.657835
451.539886	937.514587	15573.664063	1788.559326	5.814676
451.897369	1017.157776	15889.961914	1672.507813	4.406365
452.254822	898.830688	15393.898438	1834.069824	6.452120
452.612274	942.065613	16176.677734	1865.927002	6.064227
452.969635	919.310425	15978.707031	1920.539551	6.648534
453.326965	921.585938	15942.298828	1979.703125	7.044387
453.684326	914.759338	15562.287109	1863.651489	6.478173
454.041534	942.065613	15245.989258	1911.437500	6.776965
454.398773	967.096313	14900.110352	1995.631714	7.382002
454.755951	976.198425	14602.016602	1865.927002	6.529726
455.113098	980.749451	14247.036133	1961.498901	7.392795
455.470215	1001.229126	14390.393555	2025.213501	7.647859
455.827240	930.687988	14363.086914	2109.407715	8.775199
456.184265	996.678101	13764.625000	2127.612061	8.857602
456.541260	935.239075	14162.841797	2150.367188	9.186307
456.898193	926.136963	14181.045898	2248.214600	9.974249
457.255096	910.208313	14274.341797	2248.214600	10.011920
457.611969	880.626526	14208.351563	2307.378174	10.705141
457.968781	953.443237	14347.158203	2357.439453	10.482500
458.325531	976.198425	14460.934570	2396.123291	10.529867
458.682312	989.851563	15207.305664	2573.614014	11.139565
459.039001	953.443237	15837.625000	2826.196777	12.582173
459.395630	951.167725	16599.923828	2833.023438	12.025593
459.752289	996.678101	18215.544922	3176.626953	12.660233
460.108856	955.718750	19514.867188	3388.250488	13.106915
460.465363	932.963501	19967.695313	3556.638916	13.783621
460.821899	948.892151	20136.083984	3640.833252	14.029886
461.178345	951.167725	19271.384766	3520.230713	14.023104
461.534760	964.820801	19114.375000	3563.465576	14.317953
461.891144	905.657288	18195.064453	3479.271240	14.885497
462.247467	960.269775	17105.089844	3449.689453	15.419309
462.603760	951.167725	16891.191406	3463.342773	15.760172
462.960052	894.279663	16115.238281	3390.525879	16.400059
463.316254	914.759338	15644.205078	3524.781738	17.719761
463.672424	967.096313	15300.601563	3568.016602	18.145739
464.028564	914.759338	14902.385742	3556.638916	18.887262
464.384644	942.065613	15022.988281	3517.955078	18.293470
464.740723	873.799988	15170.897461	3763.711426	20.213272
465.096741	896.555176	14872.803711	3686.343750	19.960926
465.452698	951.167725	14683.935547	3718.200928	20.149130
465.808655	1053.566162	14777.232422	3925.273438	20.925220
466.164520	928.412476	14647.527344	3934.375488	21.910763
466.520355	921.585938	15398.449219	4127.794922	22.147125
466.876190	937.514587	16094.758789	4175.580566	21.363157
467.231964	926.136963	15555.459961	4075.457764	21.527454
467.587677	960.269775	16208.535156	4469.123047	23.011492
467.943390	1003.504700	16279.076172	4428.163574	22.419188
468.299011	898.830688	15819.420898	4384.928711	23.364346
468.654633	939.790100	15619.174805	4303.009766	22.911177
469.010223	896.555176	15587.317383	4551.041504	24.876085
469.365723	969.371887	15123.111328	4553.316895	25.321543
469.721191	964.820801	15491.746094	4514.633301	24.436089
470.076660	964.820801	14708.966797	4255.224121	23.940397
470.432068	946.616638	15002.508789	4400.857422	24.575037
470.787445	905.657288	14918.314453	4578.347656	26.209806
471.142792	862.422363	14668.006836	4505.531250	26.388662
471.498016	955.718750	15191.376953	4860.512207	27.429667
471.853271	939.790100	15054.845703	4826.379395	27.535063
472.208496	957.994263	15111.733398	4817.277344	27.266880
472.563660	951.167725	15412.102539	4910.573730	27.380014
472.918762	969.371887	15521.327148	5151.779297	28.741205
473.273865	907.932800	15751.155273	5235.973145	29.158361
473.628876	907.932800	16433.810547	5367.953613	28.726370
473.983917	912.483826	16206.258789	5352.024902	29.028418
474.338837	942.065613	16169.850586	5449.872559	29.602514
474.693787	971.647400	16137.993164	5445.321289	29.497375
475.048645	1028.535400	15742.052734	5399.811035	29.709248
475.403503	880.626526	16213.085938	5634.189453	31.003265
475.758270	923.861450	16454.291016	5713.832520	30.842489
476.113037	971.647400	16313.208984	5779.822754	31.340847
476.467773	987.576050	16820.650391	5798.026855	30.382292
476.822418	996.678101	17623.908203	6339.601074	32.133572
477.177063	955.718750	17312.162109	6016.477051	30.940456
477.531647	923.861450	17673.970703	6412.417480	32.767284
477.886200	992.127075	18115.421875	6410.142090	31.641195
478.240723	971.647400	18568.250000	6594.459473	31.953962
478.595184	923.861450	18800.353516	6812.909180	32.942974
478.949585	923.861450	19319.171875	6867.521973	32.310738
479.303986	960.269775	19457.978516	7019.981445	32.759258
479.658325	1026.259888	19442.048828	7038.186035	32.645500
480.012634	930.687988	19603.611328	7008.604004	32.549355
480.366913	951.167725	20386.390625	7459.157227	33.485538
480.721130	989.851563	20914.312500	7461.432617	32.480583
481.075317	912.483826	21253.365234	7754.975098	33.639111
481.429474	919.310425	22197.705078	8485.416992	35.557693
481.783569	889.728638	23358.220703	8631.050781	34.454124
482.137604	969.371887	24639.339844	8879.082031	33.416649
482.491669	955.718750	26657.726563	10025.944336	35.289951
482.845612	921.585938	29668.240234	11227.419922	35.850552
483.199554	967.096313	33365.960938	12372.006836	35.201572
483.553436	926.136963	38749.843750	14847.773438	36.806644
483.907318	994.402588	46288.644531	17421.386719	36.267269
484.261139	973.922913	52205.000000	20142.910156	37.416714
484.614899	944.341125	54667.113281	21417.201172	38.108345
484.968628	912.483826	54116.437500	21326.181641	38.368759
485.322357	969.371887	51265.207031	19883.500000	37.605755
485.675964	885.177612	47594.792969	18600.107422	37.925659
486.029572	928.412476	43378.253906	16966.283203	37.780758
486.383148	948.892151	40620.320313	15726.124023	37.249050
486.736694	903.381775	38790.804688	14972.926758	37.135136
487.090149	946.616638	39154.886719	15528.154297	38.163303
487.443604	919.310425	40167.492188	15751.155273	37.789886
487.796997	873.799988	42199.535156	16681.843750	38.252300
488.150360	973.922913	43610.355469	17232.519531	38.133106
488.503693	939.790100	43660.417969	17437.316406	38.617233
488.856964	989.851563	42836.679688	17114.191406	38.531811
489.210175	996.678101	40602.117188	16117.513672	38.178688
489.563416	946.616638	38014.851563	15234.611328	38.545120
489.916565	967.096313	35768.910156	14799.987305	39.747616
490.269653	1053.566162	33482.011719	13935.289063	39.723530
490.622772	951.167725	32835.765625	13184.367188	38.367111
490.975769	882.902100	32824.386719	13746.420898	40.272137
491.328735	976.198425	34474.140625	14231.107422	39.569324
491.681732	892.004150	36585.824219	15041.192383	39.640442
492.034607	989.851563	38167.308594	16028.768555	40.451710
492.387482	967.096313	39232.253906	16529.382813	40.669601
492.740326	901.106262	38372.105469	15546.358398	39.084229
493.093079	957.994263	36462.945313	15020.712891	39.607769
493.445862	930.687988	32983.675781	13776.002930	40.075249
493.798523	921.585938	30585.275391	12585.905273	39.321877
494.151215	846.493713	28170.947266	11985.167969	40.764488
494.503815	917.034912	26241.306641	11047.653320	40.003593
494.856384	898.830688	24477.777344	10790.519531	41.951359
495.208923	955.718750	23940.753906	10185.231445	40.154442
495.561432	919.310425	23201.210938	9677.790039	39.307598
495.913879	973.922913	22336.511719	9973.607422	42.128250
496.266296	1003.504700	23110.189453	9880.311523	40.154400
496.618683	946.616638	23171.628906	10069.179688	41.046383
496.970978	946.616638	23879.314453	10376.375000	41.119274
497.323273	894.279663	23672.242188	10301.282227	41.298702
497.675507	964.820801	24120.519531	10601.651367	41.617531
498.027710	948.892151	24172.857422	10376.375000	40.593769
498.379852	921.585938	23870.212891	10260.323242	40.694099
498.731995	921.585938	23221.689453	10167.027344	41.459187
499.084076	928.412476	22894.015625	10016.842773	41.375740
499.436096	957.994263	22841.677734	10066.904297	41.624210
499.788086	921.585938	22238.664063	9884.862305	42.047398
500.140106	1035.361938	21908.714844	9695.994141	41.491329
500.491943	912.483826	21476.365234	9611.799805	42.303864
500.843842	923.861450	21305.701172	9331.911133	41.252655
501.195679	980.749451	20584.361328	9224.960938	42.054558
501.547455	873.799988	20231.656250	9106.633789	42.529678
501.899231	1001.229126	19924.460938	8970.102539	42.111588
502.250885	864.697876	19995.001953	9022.440430	42.643036
502.602600	1014.882263	19715.111328	8926.868164	42.309566
502.954193	892.004150	19863.021484	9011.062500	42.797169
503.305786	942.065613	19844.816406	8808.541016	41.615509
503.657379	948.892151	20204.349609	9074.777344	42.200428
504.008820	1035.361938	19876.673828	9145.318359	43.043480
504.360291	957.994263	20349.982422	9354.666016	43.299694
504.711700	907.932800	20288.542969	9275.022461	43.172482
505.063080	942.065613	20538.851563	9081.603516	41.535069
505.414368	973.922913	20459.207031	9156.695313	41.994629
505.765656	994.402588	20136.083984	9272.747070	43.247742
506.116943	926.136963	20179.318359	9145.318359	42.689991
506.468109	1003.504700	20111.052734	9102.083008	42.384182
506.819305	1001.229126	19776.550781	9020.164063	42.709972
507.170410	923.861450	19837.990234	9056.573242	42.998077
507.521484	976.198425	19913.082031	9040.644531	42.585922
507.872559	964.820801	20115.603516	9095.256836	42.454849
508.223480	912.483826	20415.972656	9293.226563	42.970482
508.574493	985.300537	20450.105469	9450.238281	43.488426
508.925385	901.106262	20764.126953	9491.197266	43.246647
509.276245	983.024963	21073.597656	9609.524414	42.938046
509.627045	985.300537	21235.160156	9793.841797	43.499271
509.977814	948.892151	21576.488281	9623.177734	42.051849
510.328613	953.443237	21649.304688	9812.045898	42.803738
510.679260	1026.259888	21840.449219	9909.893555	42.680660
511.029999	962.545288	22029.316406	10005.464844	42.925037
511.380585	985.300537	22309.205078	10064.628906	42.578171
511.731140	983.024963	22473.042969	10364.997070	43.657349
512.081726	969.371887	22609.574219	10285.354492	43.049423
512.432129	889.728638	22730.177734	10462.844727	43.832047
512.782654	992.127075	23114.740234	10553.865234	43.221558
513.133057	935.239075	22909.943359	10333.139648	42.766903
513.483398	892.004150	22725.626953	10207.986328	42.668056
513.833801	937.514587	22859.882813	10396.854492	43.149258
514.183960	898.830688	22532.207031	10289.905273	43.410118
514.534302	994.402588	22338.787109	10182.956055	43.049046
514.884460	932.963501	22400.226563	10396.854492	44.085220
515.234619	871.524475	22211.359375	10169.302734	43.570061
515.584717	928.412476	22099.857422	10094.209961	43.293209
515.934753	921.585938	22395.675781	10212.537109	43.265865
516.284851	953.443237	22493.523438	10098.761719	42.457214
516.634766	903.381775	22816.646484	10531.110352	43.935616
516.984741	885.177612	22711.972656	10410.507813	43.640533
517.334595	896.555176	23606.251953	10820.101563	43.697399
517.684448	1005.780212	24593.828125	11229.695313	43.343624
518.034363	1012.606750	25588.230469	11680.248047	43.407410
518.384094	901.106262	26298.193359	12242.301758	44.655495
518.733826	946.616638	27722.669922	12640.517578	43.672985
519.083496	901.106262	28175.498047	12902.203125	44.001335
519.433167	932.963501	28450.835938	12886.274414	43.438351
519.782776	980.749451	27954.773438	12959.090820	44.406952
520.132324	892.004150	27854.650391	12551.772461	43.244156
520.481873	919.310425	27131.035156	12549.497070	44.370171
520.831299	903.381775	26502.990234	12094.392578	43.715553
521.180786	905.657288	25560.925781	11816.779297	44.254730
521.530151	998.953613	25533.619141	11600.605469	43.210911
521.879517	957.994263	25080.791016	11468.625000	43.571362
522.228882	928.412476	24575.625000	11363.951172	44.130100
522.578064	955.718750	24891.921875	11241.073242	42.969868
522.927307	894.279663	24814.554688	11398.083984	43.911720
523.276489	969.371887	24725.808594	11320.715820	43.572796
523.625610	980.749451	25042.105469	11297.960938	42.878765
523.974792	930.687988	25433.496094	11623.360352	43.638557
524.323792	905.657288	25990.998047	11935.106445	43.967709
524.672852	896.555176	26853.421875	12417.516602	44.385021
525.021790	964.820801	27781.833984	12595.007813	43.368690
525.370728	907.932800	28746.654297	13364.133789	44.744160
525.719604	939.790100	30480.601563	13687.257813	43.152058
526.068420	957.994263	32041.609375	14720.343750	44.275253
526.417297	980.749451	33274.941406	15123.111328	43.792278
526.765991	905.657288	34094.128906	15423.480469	43.743572
527.114746	951.167725	35347.941406	15905.890625	43.477108
527.463379	973.922913	36383.300781	16565.791016	44.033157
527.812012	951.167725	38768.046875	17680.796875	44.238525
528.160706	998.953613	42026.593750	19432.947266	44.930672
528.509155	948.892151	46812.015625	21524.150391	44.862312
528.857727	946.616638	51590.609375	23674.517578	44.877781
529.206177	955.718750	54471.417969	25210.494141	45.322731
529.554565	955.718750	54412.253906	25303.791016	45.547421
529.902893	971.647400	53010.531250	24436.818359	45.091614
530.251221	910.208313	49868.039063	22741.554688	44.592140
530.599548	901.106262	45956.417969	20964.373047	44.530304
530.947876	930.687988	42479.421875	19050.660156	43.611370
531.296021	955.718750	39432.500000	17931.103516	44.118515
531.644165	942.065613	36918.050781	16675.015625	43.731812
531.992249	946.616638	35259.195313	16106.136719	44.180653
532.340454	948.892151	34246.589844	15628.277344	44.085281
532.688354	955.718750	34417.253906	15560.011719	43.645020
533.036438	953.443237	35850.832031	16265.422852	43.877148
533.384338	948.892151	37823.707031	17116.466797	43.844486
533.732239	882.902100	39896.707031	17890.144531	43.592884
534.080139	987.576050	40165.218750	17835.531250	43.004002
534.427917	976.198425	39487.113281	17840.083984	43.789883
534.775757	907.932800	37568.847656	16909.394531	43.647198
535.123474	901.106262	35800.769531	16422.433594	44.474144
535.471191	896.555176	34123.710938	15430.306641	43.740582
535.818848	901.106262	32644.621094	14963.825195	44.301075
536.166382	957.994263	32000.648438	14287.995117	42.940918
536.513977	962.545288	31848.189453	14513.271484	43.873867
536.861511	1008.055725	32558.152344	14727.170898	43.483593
537.208984	971.647400	32373.833984	14763.579102	43.920288
537.556396	885.177612	32442.099609	14536.027344	43.257862
537.903809	939.790100	31304.339844	14381.291016	44.267086
538.251160	944.341125	30808.275391	13803.309570	43.058521
538.598389	953.443237	29247.269531	13234.428711	43.405178
538.945740	905.657288	28630.603516	12808.906250	42.933353
539.292969	905.657288	28175.498047	13163.887695	44.951603
539.640137	910.208313	28091.304688	12929.508789	44.219337
539.987244	955.718750	28177.773438	12820.284180	43.584385
540.334351	939.790100	28826.296875	13168.438477	43.851490
540.681458	964.820801	30853.787109	14231.107422	44.385231
541.028442	951.167725	33766.453125	15712.470703	44.983009
541.375366	905.657288	37179.734375	17266.652344	45.103821
541.722290	951.167725	39869.398438	18547.769531	45.214291
542.069153	948.892151	41678.437500	19223.599609	44.868427
542.416016	917.034912	41632.929688	19084.792969	44.620800
542.762756	932.963501	40044.613281	18484.054688	44.874332
543.109558	887.453125	38617.863281	17776.369141	44.762077
543.456299	937.514587	37439.144531	17202.937500	44.560814
543.802917	921.585938	35916.820313	16483.873047	44.469734
544.149536	903.381775	34207.902344	15384.795898	43.481827
544.496094	953.443237	31763.994141	14749.925781	44.778435
544.842651	928.412476	30214.365234	13894.330078	44.273506
545.189148	992.127075	28510.000000	13370.959961	44.984703
545.535583	935.239075	27916.089844	13364.133789	46.065613
545.882019	926.136963	27299.423828	13157.061523	46.376186
546.228333	1010.331238	26939.890625	12952.264648	46.055290
546.574707	978.473938	27046.839844	13077.417969	46.412365
546.920898	910.208313	27144.687500	13029.631836	46.196548
547.267212	903.381775	27272.117188	13075.142578	46.159817
547.613342	910.208313	27005.880859	12824.834961	45.657482
547.959473	976.198425	26309.572266	12642.793945	46.052280
548.305664	994.402588	25727.039063	12110.321289	44.944336
548.651611	962.545288	24448.195313	11764.442383	45.993607
548.997742	935.239075	23883.867188	11040.827148	44.035694
549.343689	973.922913	22737.003906	10738.182617	44.866165
549.689575	894.279663	21719.845703	9980.434570	43.629810
550.035522	930.687988	21178.271484	9875.760742	44.178467
550.381287	917.034912	20429.625000	9402.452148	43.486881
550.727173	976.198425	19888.052734	8974.654297	42.293346
551.072876	898.830688	19462.529297	8963.276367	43.442020
551.418640	887.453125	19505.763672	8904.113281	43.057934
551.764282	885.177612	19291.865234	8829.020508	43.157372
552.109863	960.269775	19510.314453	8674.285156	41.584888
552.455505	898.830688	19694.632813	8722.071289	41.622276
552.801025	964.820801	19910.806641	8915.490234	41.964928
553.146545	930.687988	20411.421875	8635.601563	39.551453
553.491943	973.922913	20447.830078	8926.868164	40.838982
553.837341	926.136963	20445.554688	8776.683594	40.219166
554.182800	901.106262	19794.755859	8801.714844	41.816208
554.528015	978.473938	19428.396484	8565.060547	41.119884
554.873352	998.953613	19050.660156	8332.957031	40.627754
555.218628	1014.882263	19157.609375	8298.824219	40.147999
555.563721	887.453125	18595.556641	8287.446289	41.788738
555.908875	903.381775	18445.371094	8041.690430	40.692696
556.254028	935.239075	18147.279297	7889.230469	40.401897
556.599121	914.759338	18131.349609	7991.628906	41.104942
556.944031	951.167725	17751.337891	7618.443848	39.685768
557.289063	914.759338	17762.714844	7611.617188	39.748787
557.633972	978.473938	17557.917969	7354.483398	38.457317
557.978882	935.239075	17387.253906	7559.280273	40.262794
558.323792	964.820801	17503.306641	7361.309570	38.676384
558.668518	996.678101	17362.224609	7197.472168	37.889317
559.013306	978.473938	17232.519531	7347.656738	39.185215
559.358032	960.269775	17346.294922	7363.585449	39.077904
559.702637	901.106262	17141.498047	7247.533691	39.078045
560.047363	953.443237	17055.029297	7293.043945	39.372524
560.391846	930.687988	17284.855469	7315.799316	39.042717
560.736450	960.269775	16902.568359	7229.329590	39.323437
561.080933	892.004150	17373.601563	7265.737793	38.671818
561.425354	987.576050	17450.968750	7297.595215	38.327576
561.769775	944.341125	17655.765625	7320.350586	38.153595
562.114136	923.861450	17519.234375	7582.035156	40.120663
562.458496	921.585938	17596.601563	7313.523926	38.332424
562.802673	894.279663	17548.816406	7215.676270	37.956001
563.146912	953.443237	17400.908203	7176.992676	37.838959
563.491150	942.065613	17430.490234	7240.707031	38.200386
563.835266	960.269775	17255.273438	7229.329590	38.472279
564.179443	1012.606750	17389.529297	7229.329590	37.960262
564.523438	964.820801	16954.906250	7179.268066	38.864376
564.867493	905.657288	17353.121094	7136.033203	37.880466
565.211426	901.106262	17519.234375	7256.635742	38.244553
565.555359	901.106262	17412.285156	7245.258301	38.423370
565.899231	937.514587	17899.246094	7240.707031	37.161255
566.243042	948.892151	18572.800781	7743.597168	38.553905
566.586914	983.024963	18734.363281	7568.382324	37.097809
566.930603	962.545288	19460.253906	8059.894531	38.368801
567.274292	937.514587	19391.988281	7830.066895	37.348949
567.617981	946.616638	19494.386719	7832.342773	37.124283
567.961609	971.647400	18788.974609	7477.361328	36.513409
568.305237	898.830688	18518.187500	7638.923340	38.253906
568.648682	919.310425	18563.699219	7434.126465	36.922878
568.992188	860.146851	18031.226563	7315.799316	37.596077
569.335632	926.136963	18172.308594	7161.063965	36.152527
569.679016	942.065613	17947.033203	7124.655762	36.357555
570.022461	960.269775	17956.134766	7120.104492	36.243137
570.365662	942.065613	18076.736328	7254.360352	36.839314
570.708984	887.453125	17917.451172	7047.288086	36.170498
571.052185	935.239075	18033.501953	7126.931152	36.212402
571.395386	951.167725	18245.125000	7224.778320	36.276314
571.738525	951.167725	18748.015625	7531.973633	36.977367
572.081604	880.626526	19159.884766	7425.024414	35.802319
572.424683	923.861450	19605.886719	7511.494141	35.261875
572.767578	946.616638	19428.396484	7718.566406	36.641220
573.110596	985.300537	19640.019531	7513.769531	34.996338
573.453552	964.820801	19580.857422	7484.187988	35.020168
573.796387	896.555176	19237.251953	7302.146484	34.925560
574.139282	939.790100	19041.558594	7393.166992	35.650536
574.481995	928.412476	19112.099609	7179.268066	34.376171
574.824768	866.973450	18445.371094	7017.706055	34.990288
575.167480	946.616638	18668.373047	6988.124512	34.090908
575.510132	946.616638	18543.218750	7270.289063	35.936897
575.852722	921.585938	18854.964844	6890.276855	33.282578
576.195251	937.514587	18206.441406	6960.818359	34.879433
576.537842	923.861450	18019.849609	6881.174805	34.846264
576.880188	946.616638	17881.042969	6760.572266	34.332169
577.222717	978.473938	17498.755859	6644.520508	34.297516
577.565063	930.687988	17478.275391	6476.132324	33.512100
577.907410	978.473938	16711.423828	6482.958984	34.986984
578.249756	978.473938	16597.648438	6203.069824	33.449883
578.591919	1017.157776	16360.994141	6077.916016	32.982353
578.934204	973.922913	15908.166016	5966.415527	33.429832
579.276306	955.718750	15471.265625	5920.905273	34.205990
579.618469	955.718750	15232.335938	5802.578125	33.949635
579.960571	996.678101	14959.273438	5615.985352	33.083443
580.302551	967.096313	14765.854492	5729.761230	34.515171
580.644531	1023.984375	14865.977539	5654.669434	33.453888
580.986511	935.239075	14490.516602	5433.943848	33.187847
581.328369	917.034912	14590.639648	5524.964355	33.699451
581.670227	901.106262	14265.240234	5336.096191	33.185764
582.012024	928.412476	14358.536133	5306.514648	32.599117
582.353821	907.932800	14253.862305	5224.595703	32.344418
582.695496	907.932800	14313.025391	5179.085449	31.862165
583.037231	962.545288	14112.780273	5274.657227	32.791138
583.378845	942.065613	14090.024414	5267.830566	32.900658
583.720398	944.341125	14260.688477	5315.616699	32.826385
584.062012	864.697876	13769.176758	5056.207031	32.481045
584.403442	923.861450	14051.340820	5158.605469	32.258625
584.744934	969.371887	13823.789063	5174.534180	32.713753
585.086365	1003.504700	13721.390625	4890.094238	30.560030
585.427734	942.065613	13632.645508	4926.502441	31.396805
585.768982	1033.086426	13928.462891	4994.768066	30.721720
586.110291	1005.780212	13796.482422	5051.656250	31.631382
586.451599	951.167725	13443.777344	5015.248047	32.531876
586.792725	955.718750	13578.032227	4919.675781	31.404362
587.133850	937.514587	13646.297852	4912.849609	31.280216
587.474915	951.167725	13823.789063	4931.053711	30.917448
587.815979	976.198425	13521.144531	4710.328125	29.766006
588.157043	1012.606750	13737.319336	4965.186523	31.062231
588.497925	987.576050	13732.767578	4953.808594	31.119442
588.838867	989.851563	14071.820313	4833.206055	29.379023
589.179749	923.861450	14117.331055	4812.726563	29.475683
589.520569	869.248962	14037.687500	4840.032715	30.153793
589.861450	951.167725	14003.554688	4846.859375	29.846584
590.202087	942.065613	14429.077148	4890.094238	29.272820
590.542847	892.004150	14212.903320	4801.349121	29.347456
590.883484	960.269775	14376.740234	4721.705566	28.035955
591.224121	912.483826	14053.616211	4785.420410	29.471863
591.564636	987.576050	14365.363281	4698.950684	27.742813
591.905151	921.585938	14060.443359	4655.715332	28.420504
592.245667	903.381775	13871.575195	4742.185547	29.601685
592.585999	928.412476	13805.584961	4644.337891	28.856686
592.926453	1008.055725	13518.869141	4576.072266	28.519461
593.266724	946.616638	13805.584961	4505.531250	27.676516
593.607056	1026.259888	13655.400391	4519.184082	27.657656
593.947388	967.096313	13958.044922	4562.419434	27.675602
594.287476	889.728638	13771.452148	4446.367676	27.609962
594.627686	967.096313	14210.626953	4485.051270	26.563576
594.967773	969.371887	14353.985352	4514.633301	26.487591
595.307861	948.892151	14383.567383	4646.613281	27.523712
595.647888	976.198425	14394.944336	4514.633301	26.369341
595.987854	892.004150	14724.895508	4610.205078	26.879419
596.327820	953.443237	14788.609375	4589.725586	26.282896
596.667725	885.177612	14986.580078	4685.297363	26.948523
597.007568	946.616638	15919.543945	4828.655273	25.927052
597.347351	912.483826	16158.473633	4906.022949	26.194029
597.687073	969.371887	16611.302734	5015.248047	25.865582
598.026794	1010.331238	16474.771484	4912.849609	25.235432
598.366455	942.065613	16087.931641	4865.063477	25.901442
598.706116	937.514587	15332.458984	4764.940430	26.588680
599.045654	985.300537	15057.121094	4507.806641	25.032341
599.385193	944.341125	14408.597656	4332.591797	25.164782
599.724731	878.351013	14058.167969	4191.509277	25.138119
600.064087	957.994263	13955.769531	3966.232666	23.144255
600.403564	957.994263	13575.756836	3984.437012	23.985575
600.742920	930.687988	13248.082031	3868.385254	23.849989
601.082153	953.443237	13111.550781	3854.732178	23.862999
601.421387	992.127075	13307.246094	3952.579590	24.039171
601.760620	964.820801	13179.816406	3879.762939	23.863636
602.099854	962.545288	13136.582031	3838.803711	23.626167
602.438843	871.524475	13095.622070	3768.262451	23.696947
602.778015	894.279663	13694.083984	3963.957275	23.982224
603.117065	960.269775	13830.615234	4002.641113	23.638615
603.456055	937.514587	13923.912109	4039.049316	23.882950
603.794983	967.096313	14342.607422	4111.866211	23.511402
604.133850	914.759338	14943.344727	4111.866211	22.789946
604.472778	983.024963	15682.889648	4232.468750	22.105265
604.811584	917.034912	16056.075195	4423.612305	23.162481
605.150330	880.626526	16454.291016	4428.163574	22.779078
605.489075	930.687988	16552.138672	4466.847168	22.636560
605.827698	907.932800	16367.821289	4494.153809	23.196939
606.166382	935.239075	16219.912109	4369.000000	22.465387
606.504883	989.851563	15744.328125	4214.264648	21.853796
606.843445	957.994263	15161.794922	4207.437988	22.877283
607.181946	964.820801	14624.772461	4064.080078	22.688656
607.520386	921.585938	14292.545898	3886.589600	22.174950
607.858826	944.341125	13898.880859	3772.813477	21.833832
608.197083	873.799988	13757.798828	3818.323975	22.854115
608.535461	923.861450	13434.674805	3615.802490	21.516914
608.873718	992.127075	13675.879883	3768.262451	21.887333
609.211914	937.514587	14017.208008	3645.384277	20.702852
609.550171	910.208313	14442.730469	3804.670898	21.388937
609.888245	889.728638	14863.702148	3977.610352	22.097378
610.226318	960.269775	14854.599609	4059.529053	22.305927
610.564392	951.167725	15280.122070	3791.017578	19.818962
610.902344	926.136963	14586.087891	3779.640137	20.889557
611.240295	957.994263	14840.946289	3927.548828	21.389936
611.578247	998.953613	14435.904297	3829.701416	21.066891
611.916138	855.595825	14237.933594	3816.048340	22.122089
612.253845	937.514587	13930.738281	3690.894775	21.190893
612.591675	917.034912	13318.623047	3638.557861	21.944956
612.929382	960.269775	12990.948242	3558.914551	21.600151
613.267090	948.892151	12554.047852	3552.087891	22.431374
613.604736	898.830688	12645.069336	3401.903564	21.309568
613.942261	939.790100	12324.220703	3306.331787	20.787529
614.279785	942.065613	12269.608398	3319.984863	20.992365
614.617310	894.279663	11962.413086	3235.790527	21.155424
614.954712	976.198425	11809.953125	3372.321777	22.117201
615.292175	905.657288	11894.147461	3276.750000	21.577967
615.629517	935.239075	11805.402344	3401.903564	22.692066
615.966797	880.626526	11714.380859	3194.831299	21.361061
616.304138	907.932800	11611.982422	3199.382324	21.407312
616.641296	921.585938	11773.544922	3131.116699	20.360662
616.978516	962.545288	11759.891602	3172.075928	20.463646
617.315552	932.963501	11577.849609	3099.259277	20.350578
617.652771	1033.086426	11671.146484	3219.861816	20.556147
617.989685	944.341125	11916.902344	3149.320801	20.095396
618.326721	901.106262	11530.063477	3147.045166	21.130379
618.663696	912.483826	11491.379883	2955.901611	19.315981
619.000549	957.994263	11566.472656	3067.402100	19.884169
619.337463	930.687988	11746.238281	3087.881836	19.945297
619.674194	932.963501	11382.155273	3033.269287	20.100174
620.010986	985.300537	11377.604492	3133.392090	20.670023
620.347778	992.127075	11461.797852	3119.739014	20.321669
620.684387	976.198425	11475.451172	3074.228516	19.982660
621.020996	1053.566162	11338.919922	3117.463379	20.066372
621.357605	992.127075	11425.389648	3090.157227	20.109053
621.694214	976.198425	11470.900391	3046.922363	19.731134
622.030579	951.167725	11250.174805	3071.953125	20.592134
622.367065	923.861450	11077.235352	3071.953125	21.156433
622.703430	942.065613	11068.132813	3008.238525	20.404495
623.039795	926.136963	11218.317383	3010.513916	20.252045
623.376160	1008.055725	11040.827148	2887.635986	18.734407
623.712402	907.932800	10797.346680	2899.013428	20.133453
624.048645	946.616638	10906.571289	2892.187012	19.533926
624.384766	942.065613	10963.458984	2994.585449	20.481380
624.720886	1012.606750	10824.652344	2949.074951	19.735622
625.057007	953.443237	11284.307617	2939.972900	19.229074
625.392944	953.443237	11159.154297	2889.911377	18.974358
625.729004	948.892151	11288.858398	3060.575439	20.422537
626.064941	978.473938	11466.349609	3083.330566	20.069427
626.400818	994.402588	11737.136719	3012.789551	18.788391
626.736633	935.239075	11730.309570	3071.953125	19.793425
627.072449	953.443237	11746.238281	3062.851074	19.544592
627.408264	969.371887	11900.973633	3151.596191	19.962532
627.743896	971.647400	12085.291016	3112.912354	19.266993
628.079590	937.514587	12119.423828	3192.555664	20.166870
628.415161	946.616638	11976.066406	3065.126465	19.207754
628.750793	912.483826	11885.044922	3158.422852	20.468683
629.086365	957.994263	11755.340820	3012.789551	19.030560
629.421753	955.718750	11514.135742	3115.187988	20.452585
629.757263	973.922913	11313.889648	3117.463379	20.730633
630.092651	962.545288	11022.623047	2846.676514	18.728794
630.427917	976.198425	10958.908203	2951.350586	19.785730
630.763184	969.371887	10979.387695	2846.676514	18.754263
631.098511	841.942688	10779.141602	2862.605225	20.334328
631.433716	896.555176	10526.559570	2839.849854	20.179583
631.768799	901.106262	10456.018555	2735.176025	19.195047
632.103943	923.861450	10499.252930	2830.747803	19.914448
632.438965	969.371887	10371.824219	2794.339600	19.409487
632.773987	967.096313	10066.904297	2782.961914	19.954988
633.109070	939.790100	10192.057617	2794.339600	20.044271
633.443848	935.239075	10096.485352	2805.717041	20.417288
633.778870	926.136963	10137.445313	2710.145264	19.367588
634.113708	1035.361938	10522.007813	2821.645752	18.829456
634.448425	930.687988	10358.170898	2835.298828	20.202751
634.783264	960.269775	10296.731445	2801.166016	19.717279
635.117859	942.065613	10201.160156	2716.971924	19.169329
635.452576	973.922913	10303.558594	2694.216553	18.439024
635.787170	976.198425	9925.821289	2694.216553	19.196541
636.121704	953.443237	10178.404297	2678.288086	18.697584
636.456177	907.932800	9652.758789	2712.420898	20.634922
636.790588	892.004150	9896.240234	2641.879639	19.433914
637.125122	962.545288	9630.003906	2596.369141	18.850090
637.459412	901.106262	9545.809570	2509.899414	18.610161
637.793762	973.922913	9472.993164	2612.297852	19.277109
638.128052	887.453125	9356.941406	2575.889648	19.935520
638.462280	928.412476	9341.012695	2544.032227	19.204760
638.796509	978.473938	9031.541992	2534.930176	19.327496
639.130615	960.269775	9129.389648	2421.154053	17.883007
639.464722	919.310425	8735.724609	2430.256104	19.330420
639.798767	937.514587	9074.777344	2505.348389	19.267336
640.132751	892.004150	8883.632813	2539.481201	20.615034
640.466736	866.973450	8769.857422	2541.756836	21.192055
640.800598	980.749451	8644.703125	2559.960938	20.605701
641.134521	967.096313	8619.672852	2464.388916	19.565863
641.468262	898.830688	8601.468750	2418.878662	19.734121
641.802063	948.892151	8644.703125	2336.959961	18.036667
642.135803	939.790100	8678.835938	2384.745850	18.670980
642.469421	951.167725	8512.723633	2330.133301	18.236532
642.803101	964.820801	8282.895508	2405.225586	19.682838
643.136658	937.514587	8346.610352	2450.735840	20.423832
643.470215	998.953613	8519.549805	2361.990479	18.124054
643.803711	912.483826	8419.426758	2339.235352	19.005758
644.137085	994.402588	8467.212891	2423.429688	19.123020
644.470581	914.759338	8510.448242	2302.827148	18.274418
644.803833	973.922913	8298.824219	2359.715088	18.918921
645.137207	919.310425	8303.375000	2341.510986	19.260403
645.470459	953.443237	8385.293945	2423.429688	19.779549
645.803589	1003.504700	8196.425781	2405.225586	19.487507
646.136780	971.647400	8464.937500	2416.603027	19.283327
646.469849	964.820801	8130.436035	2496.246338	21.371864
646.802979	917.034912	8449.008789	2350.613037	19.033234
647.135986	939.790100	8282.895508	2375.643799	19.553768
647.468994	939.790100	8307.926758	2514.450439	21.371216
647.801941	944.341125	8239.661133	2346.062012	19.213976
648.134766	976.198425	8571.886719	2441.633789	19.292988
648.467651	885.177612	8474.039063	2409.776611	20.089958
648.800354	926.136963	8282.895508	2364.266113	19.548407
649.133179	914.759338	8198.701172	2336.959961	19.525152
649.465881	932.963501	8203.252930	2323.306641	19.123629
649.798462	957.994263	8237.385742	2302.827148	18.474524
650.131104	912.483826	8414.875977	2368.817139	19.411585
650.463623	937.514587	8412.600586	2377.919189	19.269405
650.796143	973.922913	8373.916992	2348.337402	18.573185
651.128662	962.545288	8471.763672	2248.214600	17.121214
651.461060	953.443237	8376.192383	2371.092773	19.098713
651.793396	914.759338	8360.263672	2355.164063	19.345966
652.125732	921.585938	8344.334961	2398.398926	19.895769
652.458008	967.096313	8137.262207	2352.888428	19.327196
652.790222	957.994263	8517.274414	2364.266113	18.603251
653.122437	885.177612	8271.518555	2437.082764	21.010473
653.454529	971.647400	8289.722656	2293.724854	18.065918
653.786621	896.555176	8276.069336	2382.470215	20.135675
654.118713	937.514587	8173.670898	2307.378174	18.930817
654.450623	917.034912	8091.751953	2334.684326	19.758961
654.782654	926.136963	8214.629883	2252.765625	18.201687
655.114502	903.381775	7993.904785	2418.878662	21.373554
655.446350	973.922913	7930.189941	2291.449463	18.940138
655.778198	953.443237	8100.854004	2289.173828	18.688314
656.109863	962.545288	7939.291992	2259.592041	18.590998
656.441650	978.473938	7859.648926	2302.827148	19.246035
656.773254	901.106262	7741.321777	2343.786377	21.091152
657.104919	921.585938	8000.730957	2302.827148	19.511414
657.436462	939.790100	7798.209961	2325.582275	20.205708
657.767944	923.861450	7998.455566	2334.684326	19.942102
658.099548	917.034912	7996.180176	2330.133301	19.961426
658.430908	955.718750	8228.283203	2432.531738	20.306633
658.762268	914.759338	8378.467773	2509.899414	21.371952
659.093628	928.412476	8692.489258	2453.011475	19.636578
659.424927	862.422363	8733.449219	2480.317627	20.555073
659.756226	942.065613	9247.716797	2623.675537	20.246574
660.087341	992.127075	9161.247070	2619.124512	19.916433
660.418518	923.861450	9270.471680	2587.267090	19.929115
660.749573	912.483826	9193.104492	2562.236328	19.923052
661.080627	957.994263	9172.624023	2632.777588	20.387812
661.411621	912.483826	9040.644531	2612.297852	20.912653
661.742554	907.932800	8690.213867	2480.317627	20.204678
662.073547	923.861450	8542.304688	2464.388916	20.221027
662.404297	994.402588	8398.947266	2450.735840	19.668098
662.735229	926.136963	8312.477539	2434.807373	20.425138
663.065979	957.994263	8073.547852	2377.919189	19.955227
663.396667	932.963501	8014.384277	2412.052002	20.886889
663.727417	976.198425	7641.198730	2400.674561	21.372482
664.057922	935.239075	7668.504883	2400.674561	21.764112
664.388611	869.248962	7579.759766	2298.276123	21.295355
664.719116	928.412476	7575.208984	2220.908203	19.445395
665.049622	969.371887	7388.616211	2293.724854	20.630981
665.380005	996.678101	7306.697266	2277.796387	20.302923
665.710388	885.177612	7379.514160	2298.276123	21.758936
666.040771	971.647400	7245.258301	2307.378174	21.291258
666.371033	930.687988	7320.350586	2209.530762	20.014246
666.701294	930.687988	7117.829102	2296.000488	22.066936
667.031555	939.790100	7145.135254	2307.378174	22.038874
667.361633	919.310425	7402.269043	2270.969727	20.849421
667.691772	889.728638	7445.503906	2207.255127	20.097187
668.021790	857.871338	7249.809082	2323.306641	22.926308
668.351807	926.136963	7249.809082	2286.898438	21.518534
668.681763	969.371887	7233.880859	2268.694336	20.741013
669.011719	901.106262	7318.074707	2252.765625	21.063831
669.341614	942.065613	7268.013672	2277.796387	21.115107
669.671387	932.963501	7258.911133	2316.480225	21.870504
670.001221	967.096313	7293.043945	2257.316650	20.395685
670.330933	928.412476	7295.319824	2270.969727	21.086491
670.660583	896.555176	7172.441406	2232.285889	21.283539
670.990173	905.657288	7131.482422	2314.204590	22.624268
671.319763	889.728638	7026.808105	2339.235352	23.618835
671.649292	937.514587	7060.940918	2277.796387	21.887775
671.978821	1001.229126	7115.553711	2264.143311	20.655006
672.308289	964.820801	6933.511719	2161.744873	20.053377
672.637695	989.851563	6938.062988	2227.734863	20.811018
672.966980	946.616638	7017.706055	2307.378174	22.413794
673.296326	914.759338	6926.685547	2298.276123	23.012871
673.625610	926.136963	6915.307617	2330.133301	23.442249
673.954773	914.759338	6856.144043	2211.806152	21.830717
674.283936	960.269775	6737.816895	2257.316650	22.449785
674.613037	921.585938	6744.643555	2202.704102	22.000782
674.942078	919.310425	6694.582031	2270.969727	23.404255
675.271118	932.963501	6765.123535	2314.204590	23.683182
675.600098	869.248962	6690.031250	2143.540527	21.892101
675.928955	912.483826	6594.459473	2204.979736	22.747297
676.257813	919.310425	6605.836914	2225.459229	22.969185
676.586670	978.473938	6649.071777	2129.887451	20.304977
676.915466	921.585938	6530.744629	2291.449463	24.421907
677.244141	955.718750	6498.887207	2259.592041	23.522165
677.572876	953.443237	6569.428711	2293.724854	23.865475
677.901489	957.994263	6592.183594	2218.632813	22.374798
678.230042	932.963501	6562.602051	2266.418701	23.686337
678.558594	951.167725	6585.357422	2193.602051	22.051697
678.887085	942.065613	6796.980469	2259.592041	22.502913
679.215515	917.034912	6703.684082	2309.653564	24.066063
679.543945	969.371887	6862.970703	2280.071777	22.239382
679.872253	912.483826	6915.307617	2377.919189	24.412434
680.200562	907.932800	7001.777344	2302.827148	22.890217
680.528809	917.034912	7277.115723	2366.541748	22.790697
680.856995	960.269775	7347.656738	2537.205811	24.688282
681.185120	951.167725	7404.544922	2407.500977	22.566996
681.513306	866.973450	7327.176758	2471.215576	24.832689
681.841309	914.759338	7356.758789	2450.735840	23.843164
682.169373	996.678101	7204.298828	2311.929199	21.187685
682.497314	928.412476	7381.789551	2434.807373	23.342739
682.825134	957.994263	7170.166016	2471.215576	24.358974
683.153076	946.616638	7022.257324	2380.194824	23.595505
683.480896	928.412476	7090.522949	2441.633789	24.556868
683.808655	969.371887	6928.960938	2382.470215	23.711340
684.136414	873.799988	6767.398926	2252.765625	23.397682
684.464050	960.269775	6571.704102	2305.102539	23.965935
684.791626	930.687988	6507.989258	2364.266113	25.703796
685.119263	1001.229126	6546.673340	2266.418701	22.814936
685.446838	912.483826	6558.050781	2323.306641	24.989922
685.774292	980.749451	6362.355957	2289.173828	24.312895
686.101685	960.269775	6287.264160	2218.632813	23.622385
686.429077	957.994263	6241.753418	2189.051025	23.298880
686.756348	937.514587	6407.866699	2195.877686	23.003328
687.083679	962.545288	6223.549316	2209.530762	23.702425
687.410950	896.555176	6275.886230	2286.898438	25.846025
687.738159	1001.229126	6259.957520	2361.990479	25.876244
688.065308	992.127075	6207.620605	2302.827148	25.130892
688.392395	921.585938	6366.907227	2286.898438	25.073130
688.719421	926.136963	6544.397949	2280.071777	24.098825
689.046448	1014.882263	6296.366211	2291.449463	24.170614
689.373413	919.310425	6262.233398	2236.836914	24.659283
689.700317	962.545288	6184.865723	2291.449463	25.446623
690.027100	978.473938	6100.671387	2250.489990	24.833406
690.353943	882.902100	6036.956543	2234.561523	26.225166
690.680725	935.239075	5986.895020	2277.796387	26.576580
691.007446	930.687988	5980.068848	2193.602051	25.011265
691.334106	964.820801	5970.966797	2207.255127	24.818180
691.660645	960.269775	5875.394531	2243.663574	26.111113
691.987244	983.024963	5752.516602	2070.723877	22.805344
692.313721	955.718750	5775.271973	2077.550537	23.276676
692.640259	973.922913	5597.781250	2134.438477	25.098425
692.966675	907.932800	5647.842773	2066.172852	24.435905
693.293030	832.840637	5606.883301	2132.163086	27.216400
693.619324	857.871338	5590.954590	2182.224365	27.980768
693.945618	996.678101	5470.352051	2102.581299	24.720247
694.271851	944.341125	5361.126953	2004.733887	24.008247
694.598083	901.106262	5593.229980	2072.999512	24.975756
694.924194	871.524475	5454.423340	2127.612061	27.408146
695.250244	894.279663	5538.617676	2093.479248	25.820679
695.576294	960.269775	5440.770020	2141.265137	26.358562
695.902283	855.595825	5443.045898	2168.571289	28.621029
696.228210	962.545288	5356.576172	2077.550537	25.375454
696.554138	923.861450	5402.086426	2118.509766	26.676826
696.879944	894.279663	5584.127930	2088.927979	25.473070
697.205750	903.381775	5593.229980	2193.602051	27.510916
697.531433	962.545288	5750.241211	2220.908203	26.283268
697.857178	971.647400	5798.026855	2173.122314	24.893917
698.182739	962.545288	5889.047852	2202.704102	25.173210
698.508423	971.647400	6232.651367	2280.071777	24.870241
698.833984	985.300537	6385.111328	2405.225586	26.295832
699.159485	978.473938	6710.510742	2414.327637	25.049627
699.484924	960.269775	6769.674316	2432.531738	25.342735
699.810303	960.269775	6935.787598	2541.756836	26.466110
700.135681	953.443237	6851.593262	2530.379150	26.736111
700.460999	987.576050	6774.225586	2407.500977	24.537947
700.786255	1001.229126	6505.713867	2512.175049	27.449362
701.111450	998.953613	6485.234375	2361.990479	24.844461
701.436646	889.728638	6271.335449	2316.480225	26.511627
701.761719	889.728638	6011.925781	2309.653564	27.721012
702.086792	1044.463989	5916.354004	2204.979736	23.820646
702.411865	919.310425	5700.179688	2168.571289	26.130413
702.736816	978.473938	5456.698730	2179.948975	26.829273
703.061646	1001.229126	5413.463867	2070.723877	24.239298
703.386536	948.892151	5210.942871	2054.795166	25.947676
703.711365	976.198425	5081.237793	1993.356201	24.778271
704.036194	885.177612	5019.798828	2034.315552	27.793066
704.360901	948.892151	4969.737305	2013.835938	26.485571
704.685547	994.402588	5115.370605	1977.427612	23.854227
705.010132	989.851563	4885.542969	1936.468262	24.299068
705.334717	1023.984375	4739.909668	1950.121338	24.923454
705.659302	903.381775	4810.451172	1963.774414	27.140358
705.983765	889.728638	4892.369629	1970.601074	27.003981
706.308228	892.004150	4883.267578	1995.631714	27.651083
706.632568	926.136963	4685.297363	1952.396851	27.300241
706.956909	935.239075	4796.797852	1945.570313	26.163818
707.281189	989.851563	4708.052734	1963.774414	26.193388
707.605408	980.749451	4667.093262	1863.651489	23.950617
707.929626	905.657288	4830.930664	1961.498901	26.898548
708.253784	1010.331238	4862.788086	1863.651489	22.150028
708.577820	951.167725	4783.144531	1904.610962	24.881237
708.901855	973.922913	4844.583984	1984.254150	26.102291
709.225830	921.585938	4855.961426	1970.601074	26.662811
709.549805	919.310425	4867.338867	2036.591064	28.299711
709.873718	837.391663	4849.134766	2022.937988	29.551901
710.197510	1028.535400	4824.104004	1988.805176	25.299761
710.521362	935.239075	4906.022949	1979.703125	26.303726
710.845093	964.820801	5088.064453	1952.396851	23.951435
711.168701	987.576050	5053.931641	2050.244141	26.133183
711.492432	948.892151	4985.666016	1952.396851	24.859076
711.816040	921.585938	4997.043457	2034.315552	27.303183
712.139587	942.065613	5138.125977	2072.999512	26.952276
712.463074	898.830688	5201.840332	2013.835938	25.912218
712.786499	937.514587	5065.309082	2036.591064	26.626240
713.109924	1001.229126	5065.309082	2032.040039	25.363941
713.433350	971.647400	5119.921875	2002.458252	24.849146
713.756592	921.585938	4960.635254	1902.335449	24.281693
714.079834	907.932800	4983.390625	1925.090576	24.958124
714.403015	973.922913	4744.460938	1950.121338	25.890162
714.726196	1001.229126	4953.808594	1931.917114	23.546345
715.049255	869.248962	4833.206055	1966.049927	27.669348
715.372375	905.657288	4735.358887	1904.610962	26.084373
715.695435	998.953613	4710.328125	1954.672363	25.751072
716.018311	967.096313	4774.042480	1918.264038	24.985058
716.341248	983.024963	4880.992188	1931.917114	24.343256
716.664063	946.616638	4769.491699	1881.855713	24.464287
716.987000	953.443237	4680.746094	1972.876587	27.350431
717.309692	864.697876	4744.460938	1909.161987	26.920822
717.632385	978.473938	4767.216309	1861.375977	23.303301
717.955078	937.514587	4571.521484	1852.273926	25.172197
718.277649	932.963501	4594.276367	1870.478149	25.605968
718.600220	983.024963	4505.531250	1820.416626	23.772610
718.922791	901.106262	4425.888184	1881.855713	27.824400
719.245300	971.647400	4441.816406	1790.834839	23.606558
719.567688	919.310425	4341.693848	1811.314575	26.063829
719.890015	912.483826	4177.855957	1699.814087	24.111502
720.212341	967.096313	4127.794922	1677.058838	22.462202
720.534607	928.412476	4080.008789	1765.804199	26.570400
720.856873	994.402588	4175.580566	1824.967651	26.108727
721.179016	937.514587	4114.141602	1706.640625	24.212036
721.501160	980.749451	4202.886719	1672.507813	21.468929
721.823242	905.657288	4027.671875	1704.365112	25.583090
722.145264	983.024963	3927.548828	1647.477051	22.565689
722.467224	971.647400	3932.099854	1711.191650	24.980785
722.789185	973.922913	3957.130615	1674.783325	23.493517
723.111023	921.585938	3838.803711	1615.619751	23.790949
723.432861	919.310425	3909.344727	1667.956787	25.038054
723.754578	973.922913	3932.099854	1740.773438	25.923079
724.076294	937.514587	3843.354736	1711.191650	26.624901
724.397949	960.269775	3779.640137	1724.844727	27.118643
724.719666	946.616638	3982.161377	1642.926025	22.938532
725.041260	892.004150	3731.854004	1642.926025	26.442308
725.362732	971.647400	3893.416016	1663.405762	23.676016
725.684265	912.483826	3920.722412	1738.497925	27.458397
726.005676	912.483826	3841.079102	1663.405762	25.641029
726.327087	912.483826	3829.701416	1574.660400	22.698910
726.648438	994.402588	3938.926514	1695.262939	23.802162
726.969666	969.371887	3943.477539	1686.160889	24.100992
727.290894	976.198425	3904.793701	1597.415649	21.212124
727.612061	978.473938	3936.650879	1727.120239	25.307692
727.933228	971.647400	4009.467773	1758.977539	25.917601
728.254395	903.381775	4070.906738	1697.538574	25.071840
728.575378	987.576050	4130.070313	1681.609863	22.085445
728.896301	957.994263	4034.498291	1747.599976	25.665682
729.217285	935.239075	4084.559814	1727.120239	25.144506
729.538147	912.483826	4093.661865	1670.232300	23.819744
729.858948	1033.086426	4084.559814	1752.151001	23.564505
730.179810	953.443237	4107.314941	1718.018188	24.242424
730.500549	980.749451	4159.651855	1754.426514	24.337868
730.821228	962.545288	4086.835449	1727.120239	24.471958
731.141846	942.065613	4098.212891	1765.804199	26.099499
731.462402	892.004150	4016.294189	1824.967651	29.861616
731.782898	921.585938	4193.784668	1797.661377	26.773296
732.103455	973.922913	4280.254395	1640.650513	20.165176
732.423889	955.718750	4166.478516	1747.599976	24.663359
732.744263	971.647400	4141.447754	1681.609863	22.397703
733.064636	921.585938	4186.958496	1686.160889	23.414631
733.384888	962.545288	4271.152344	1740.773438	23.521324
733.705200	942.065613	4248.397461	1720.293701	23.537508
734.025330	953.443237	4145.999023	1683.885376	22.879543
734.345520	923.861450	4280.254395	1718.018188	23.661016
734.665527	976.198425	4234.744141	1720.293701	22.835196
734.985596	923.861450	4082.284424	1797.661377	27.665705
735.305542	967.096313	3918.446777	1683.885376	24.286816
735.625549	953.443237	3882.038574	1706.640625	25.718727
735.945435	907.932800	3932.099854	1667.956787	25.131681
736.265259	964.820801	3861.558838	1736.222412	26.630009
736.585083	930.687988	3861.558838	1718.018188	26.863354
736.904785	937.514587	3759.160400	1679.334351	26.290323
737.224426	930.687988	3852.456787	1645.201538	24.454828
737.544128	944.341125	3752.333740	1613.344238	23.824959
737.863708	978.473938	3720.476563	1677.058838	25.477179
738.183289	905.657288	3695.445801	1629.272949	25.938011
738.502808	1003.504700	3777.364502	1620.170776	22.231335
738.822205	823.738525	3763.711426	1692.987427	29.566561
739.141541	971.647400	3841.079102	1611.068726	22.283901
739.460938	1010.331238	3918.446777	1729.395752	24.726133
739.780212	973.922913	3995.814453	1688.436401	23.644577
740.099426	960.269775	3913.895752	1706.640625	25.269648
740.418640	937.514587	3954.855225	1658.854614	23.906483
740.737793	921.585938	3845.630127	1743.048950	28.093386
741.056885	928.412476	3920.722412	1677.058838	25.019011
741.375977	946.616638	3845.630127	1561.007324	21.193096
741.694946	951.167725	3754.609375	1677.058838	25.892857
742.013855	928.412476	3718.200928	1713.467163	28.140293
742.332703	907.932800	3688.619141	1579.211426	24.140753
742.651550	905.657288	3606.700439	1674.783325	28.475147
742.970398	919.310425	3558.914551	1626.997314	26.810343
743.289124	892.004150	3606.700439	1567.833862	24.895224
743.607788	957.994263	3563.465576	1554.180664	22.882095
743.926453	935.239075	3470.169189	1747.599976	32.046677
744.245056	967.096313	3492.924316	1540.527588	22.702703
744.563599	985.300537	3417.832275	1640.650513	26.941065
744.882141	971.647400	3454.240479	1631.548462	26.581121
745.200500	907.932800	3438.312012	1597.415649	27.248203
745.518860	896.555176	3451.965088	1588.313477	27.070345
745.837219	919.310425	3517.955078	1649.752563	28.108582
746.155518	901.106262	3440.587402	1601.966675	27.598566
746.473755	919.310425	3411.005615	1554.180664	25.479448
746.791992	923.861450	3365.495361	1654.303589	29.916122
747.110107	964.820801	3370.046387	1611.068726	26.868496
747.428162	964.820801	3281.301025	1567.833862	26.031435
747.746216	919.310425	3445.138428	1704.365112	31.081081
748.064148	887.453125	3392.801514	1611.068726	28.882833
748.382080	930.687988	3322.260254	1624.721802	29.019981
748.700073	1008.055725	3417.832275	1622.446289	25.495749
749.017822	951.167725	3404.179199	1626.997314	27.551016
749.335632	1001.229126	3331.362549	1702.089600	30.078129
749.653320	939.790100	3438.312012	1551.905151	24.499086
749.971008	930.687988	3399.628174	1570.109375	25.898619
750.288696	948.892151	3385.974854	1617.895264	27.450981
750.606262	983.024963	3458.791504	1601.966675	25.000002
750.923828	921.585938	3349.566650	1601.966675	28.022493
751.241272	876.075500	3304.056152	1556.456177	28.022491
751.558716	946.616638	3358.668701	1592.864502	26.792452
751.876038	946.616638	3420.107666	1574.660400	25.390987
752.193481	951.167725	3354.117676	1597.415649	26.893940
752.510681	987.576050	3322.260254	1683.885376	29.824564
752.827942	992.127075	3326.811523	1561.007324	24.366472
753.145081	903.381775	3272.198975	1533.701050	26.609030
753.462219	937.514587	3263.096924	1570.109375	27.201565
753.779297	1001.229126	3226.688477	1538.252075	24.130880
754.096375	976.198425	3224.413086	1601.966675	27.834009
754.413330	973.922913	3210.759766	1554.180664	25.940994
754.730286	983.024963	3190.280273	1526.874512	24.639177
755.047119	953.443237	3137.943115	1574.660400	28.437498
755.363892	935.239075	3142.494141	1645.201538	32.164948
755.680725	983.024963	3162.973877	1576.935913	27.244259
755.997498	957.994263	3331.362549	1542.803101	24.640461
756.314148	962.545288	3267.647949	1524.598877	24.383018
756.630737	935.239075	3213.035400	1576.935913	28.171825
756.947327	946.616638	3192.555664	1590.588989	28.672745
757.263855	914.759338	3194.831299	1531.425537	27.045908
757.580261	910.208313	3096.983887	1444.955688	24.453691
757.896729	887.453125	3128.841064	1638.375000	33.502541
758.213074	989.851563	3228.964111	1617.895264	28.048779
758.529419	930.687988	3249.443604	1504.119263	24.730129
758.845642	910.208313	3199.382324	1538.252075	27.435387
759.161865	946.616638	3381.423828	1679.334351	30.093460
759.478149	967.096313	3367.770752	1608.793213	26.729860
759.794189	894.279663	3365.495361	1638.375000	30.110497
760.110229	957.994263	3322.260254	1665.681274	29.932629
760.426270	985.300537	3324.535889	1597.415649	26.167316
760.742249	917.034912	3329.086914	1622.446289	29.245281
761.058105	989.851563	3276.750000	1570.109375	25.373135
761.374023	955.718750	3354.117676	1724.844727	32.068310
761.689819	942.065613	3299.505127	1606.517700	28.185329
762.005554	930.687988	3351.842041	1640.650513	29.323311
762.321289	955.718750	3242.617188	1692.987427	32.238804
762.636902	948.892151	3290.403076	1670.232300	30.806610
762.952515	983.024963	3449.689453	1690.711914	28.690037
763.268127	946.616638	3463.342773	1715.742676	30.560577
763.583618	917.034912	3618.078125	1647.477051	27.042963
763.899048	962.545288	4036.773926	1749.875488	25.610659
764.214478	976.198425	4378.102051	1859.100464	25.953176
764.529785	973.922913	4696.674805	1986.529663	27.200489
764.845093	1033.086426	4796.797852	2072.999512	27.629990
765.160400	910.208313	4769.491699	1868.202637	24.823114
765.475586	971.647400	4541.939453	1947.845825	27.342257
765.790771	976.198425	4423.612305	1890.957764	26.534655
766.105835	960.269775	4262.050293	1824.967651	26.188835
766.420837	889.728638	3847.905762	1793.110352	30.538458
766.735840	932.963501	3845.630127	1772.630737	28.828129
767.050842	912.483826	3761.435791	1756.702026	29.632589
767.365662	939.790100	3583.945313	1631.548462	26.161791
767.680542	912.483826	3529.332764	1677.058838	29.217392
767.995300	894.279663	3470.169189	1663.405762	29.858658
768.309998	896.555176	3533.883789	1642.926025	28.300261
768.624817	853.320313	3461.067139	1583.762451	28.010469
768.939392	910.208313	3308.607178	1565.558350	27.324480
769.254028	937.514587	3310.882813	1583.762451	27.229145
769.568481	948.892151	3101.534912	1617.895264	31.078222
769.882935	914.759338	3108.361328	1538.252075	28.423239
770.197388	935.239075	3233.515137	1608.793213	29.306929
770.511841	932.963501	3256.270264	1563.282837	27.130268
770.826172	944.341125	3099.259277	1595.140137	30.200636
771.140442	892.004150	3112.912354	1506.394775	27.663937
771.454651	951.167725	2976.381104	1508.670288	27.528090
771.768860	946.616638	3083.330566	1554.180664	28.434505
772.082886	896.555176	2965.003662	1545.078613	31.353134
772.397034	973.922913	3005.962891	1592.864502	30.459124
772.711060	957.994263	2951.350586	1522.323364	28.310497
773.025024	887.453125	2994.585449	1456.333252	26.997835
773.338928	946.616638	2919.493164	1449.506714	25.490196
773.652771	923.861450	2805.717041	1513.221313	31.318018
773.966614	971.647400	2839.849854	1492.741699	27.892818
774.280457	955.718750	2848.952148	1488.190552	28.124994
774.594116	910.208313	2892.187012	1449.506714	27.210100
774.907776	887.453125	2805.717041	1508.670288	32.384342
775.221375	848.769287	2780.686523	1433.578125	30.270905
775.534912	953.443237	2746.553711	1451.782227	27.791874
775.848450	894.279663	2730.625000	1431.302612	29.244116
776.161926	967.096313	2748.829102	1438.129150	26.436783
776.475342	917.034912	2614.573486	1479.088501	33.109917
776.788696	946.616638	2771.584229	1424.476074	26.184546
777.101990	944.341125	2737.451416	1547.354126	33.629440
777.415283	971.647400	2737.451416	1454.057739	27.319586
777.728516	921.585938	2851.227539	1524.598877	31.249996
778.041626	967.096313	2616.848877	1438.129150	28.551725
778.354736	962.545288	2705.594238	1383.516602	24.151434
778.667725	951.167725	2723.798340	1442.680176	27.727856
778.980774	932.963501	2707.869873	1383.516602	25.384613
779.293640	921.585938	2694.216553	1424.476074	28.369709
779.606567	987.576050	2653.257324	1463.159912	28.551912
779.919434	967.096313	2721.522949	1401.720825	24.773024
780.232239	946.616638	2698.767578	1397.169800	25.714291
780.544983	907.932800	2744.278076	1401.720825	26.889717
780.857666	860.146851	2619.124512	1394.894287	30.401035
781.170227	953.443237	2707.869873	1454.057739	28.534365
781.482849	978.473938	2607.746826	1394.894287	25.558661
781.795410	976.198425	2519.001465	1438.129150	29.941006
782.107910	985.300537	2578.165039	1374.414551	24.428570
782.420288	944.341125	2498.521729	1394.894287	28.989754
782.732666	1008.055725	2591.818115	1458.608887	28.448278
783.044983	912.483826	2471.215576	1406.271851	31.678835
783.357300	948.892151	2550.858887	1331.179688	23.863636
783.669495	969.371887	2514.450439	1360.761475	25.331371
783.981689	914.759338	2623.675537	1419.924927	29.560581
784.293762	983.024963	2425.705078	1358.485962	26.025242
784.605835	923.861450	2539.481201	1394.894287	29.154932
784.917908	882.902100	2521.277100	1317.526489	26.527773
785.229858	905.657288	2464.388916	1306.148926	25.693430
785.541748	876.075500	2489.419678	1369.863525	30.606489
785.853577	967.096313	2434.807373	1388.067749	28.682173
786.165405	844.218201	2443.909424	1419.924927	35.988617
786.477173	953.443237	2503.072998	1315.250977	23.348011
786.788879	935.239075	2371.092773	1244.709839	21.553083
787.100525	967.096313	2396.123291	1408.547363	30.891722
787.412109	967.096313	2427.980713	1331.179688	24.922121
787.723694	1035.361938	2382.470215	1340.281738	22.635138
788.035156	921.585938	2450.735840	1292.495850	24.255955
788.346558	919.310425	2432.531738	1338.006226	27.669172
788.658081	985.300537	2459.837891	1351.659302	24.845675
788.969360	962.545288	2539.481201	1438.129150	30.158731
789.280640	971.647400	2580.440674	1517.772339	33.946247
789.591919	996.678101	2687.390137	1408.547363	24.360699
789.903076	937.514587	2712.420898	1433.578125	27.948717
790.214172	955.718750	2628.226563	1469.986450	30.748299
790.525269	967.096313	2528.103516	1392.618774	27.259481
790.836365	953.443237	2534.930176	1417.649414	29.352514
791.147339	983.024963	2473.491211	1394.894287	27.633589
791.458191	957.994263	2437.082764	1403.996338	30.153847
791.769104	957.994263	2402.949951	1301.597900	23.779528
792.079895	960.269775	2430.256104	1310.699951	23.839008
792.390686	892.004150	2412.052002	1324.353149	28.443117
792.701416	882.902100	2509.899414	1292.495850	25.174826
793.012085	944.341125	2289.173828	1310.699951	27.241962
793.322693	928.412476	2341.510986	1317.526489	27.536226
793.633240	973.922913	2327.857666	1335.730713	26.722691
793.943787	948.892151	2282.347412	1301.597900	26.450512
794.254272	944.341125	2266.418701	1328.904175	29.087782
794.564636	912.483826	2243.663574	1338.006226	31.965813
794.875000	967.096313	2371.092773	1360.761475	28.038900
795.185303	903.381775	2334.684326	1381.241089	33.386326
795.495544	937.514587	2175.397949	1338.006226	32.352940
795.805786	937.514587	2339.235352	1328.904175	27.922081
796.115906	994.402588	2368.817139	1340.281738	25.165562
796.426025	980.749451	2355.164063	1344.832764	26.490065
796.736023	971.647400	2352.888428	1442.680176	34.102142
797.045959	901.106262	2346.062012	1401.720825	34.645664
797.355896	921.585938	2264.143311	1385.792114	34.576263
797.665833	953.443237	2359.715088	1401.720825	31.877022
797.975708	955.718750	2364.266113	1392.618774	31.017773
798.285461	885.177612	2446.184814	1338.006226	29.008745
798.595154	903.381775	2323.306641	1344.832764	31.089745
798.904846	919.310425	2311.929199	1294.771362	26.960783
799.214478	930.687988	2298.276123	1353.934937	30.948421
799.524109	957.994263	2327.857666	1347.108276	28.405315
799.833557	1012.606750	2218.632813	1267.465088	21.132074
800.143005	942.065613	2220.908203	1319.802124	29.537374
800.452393	951.167725	2166.295898	1331.179688	31.273405
800.761780	869.248962	2189.051025	1392.618774	39.655178
801.071106	1003.504700	2277.796387	1306.148926	23.749994
801.380371	896.555176	2107.132324	1324.353149	35.338348
801.689575	917.034912	2152.642578	1281.118164	29.465927
801.998718	873.799988	2164.020264	1322.077637	34.744274
802.307800	919.310425	2104.856689	1349.383789	36.276386
802.616882	996.678101	2138.989502	1287.944824	25.498014
802.925903	946.616638	2216.357178	1265.189575	25.089611
803.234863	942.065613	2107.132324	1326.628662	33.007816
803.543701	892.004150	2204.979736	1256.087524	27.729637
803.852539	992.127075	2104.856689	1240.158813	22.290386
804.161316	944.341125	2050.244141	1237.883301	26.543209
804.470032	928.412476	2123.060791	1260.638550	27.809530
804.778809	944.341125	2143.540527	1285.669312	28.463003
805.087341	903.381775	2118.509766	1365.312500	38.014988
805.395935	926.136963	2170.846924	1265.189575	27.239487
805.704468	985.300537	2066.172852	1297.046875	28.842106
806.012939	969.371887	2086.652588	1260.638550	26.069244
806.321350	951.167725	2138.989502	1228.781250	23.371649
806.629761	937.514587	2161.744873	1394.894287	37.360596
806.938049	928.412476	2191.326416	1349.383789	33.333332
807.246277	896.555176	2195.877686	1344.832764	34.500870
807.554504	969.371887	2223.183838	1342.557251	29.764061
807.862671	1010.331238	2111.683350	1315.250977	27.685946
808.170715	948.892151	2209.530762	1299.322388	27.797832
808.478821	953.443237	2154.918213	1267.465088	26.136362
808.786804	1008.055725	2104.856689	1278.842651	24.688791
809.094727	953.443237	2068.448486	1290.220337	30.204082
809.402649	1019.433350	2134.438477	1233.332275	19.183672
809.710510	996.678101	2123.060791	1297.046875	26.666672
810.018311	996.678101	2134.438477	1276.567139	24.599998
810.326050	960.269775	2032.040039	1281.118164	29.936302
810.633667	930.687988	2107.132324	1299.322388	31.334623
810.941345	898.830688	2041.142212	1208.301514	27.091631
811.248901	914.759338	2054.795166	1278.842651	31.936127
811.556396	944.341125	1927.366089	1283.393677	34.490738
811.863892	955.718750	1993.356201	1281.118164	31.359644
812.171326	885.177612	1991.080688	1267.465088	34.567902
812.478699	969.371887	2025.213501	1215.128052	23.275856
812.786011	944.341125	1906.886475	1272.016113	34.042549
813.093262	939.790100	2000.182739	1253.812012	29.613741
813.400391	932.963501	1959.223389	1258.363037	31.707323
813.707642	987.576050	1929.641602	1258.363037	28.743965
814.014709	921.585938	1920.539551	1192.372925	27.107063
814.321716	978.473938	1959.223389	1226.505737	25.290028
814.628723	985.300537	1847.722900	1151.413574	19.261217
814.935669	989.851563	1972.876587	1219.679199	23.379633
815.242554	928.412476	1877.304688	1315.250977	40.767380
815.549438	944.341125	2047.968750	1253.812012	28.041241
815.856201	992.127075	1945.570313	1231.056763	25.059666
816.162964	957.994263	1988.805176	1219.679199	25.386318
816.469604	996.678101	1977.427612	1278.842651	28.770298
816.776184	871.524475	1979.703125	1233.332275	32.648869
817.082825	889.728638	2050.244141	1297.046875	35.098045
817.389343	957.994263	2011.560425	1265.189575	29.157667
817.695801	957.994263	2018.386963	1240.158813	26.609440
818.002197	946.616638	2009.284912	1237.883301	27.408993
818.308533	939.790100	2022.937988	1281.118164	31.512598
818.614868	953.443237	1943.294800	1244.709839	29.425282
818.921143	978.473938	2009.284912	1260.638550	27.373068
819.227356	901.106262	2013.835938	1196.923950	26.584864
819.533447	823.738525	2000.182739	1171.893188	29.593809
819.839539	919.310425	2068.448486	1333.455200	36.039600
820.145569	919.310425	2134.438477	1331.179688	33.895134
820.451538	889.728638	2204.979736	1331.179688	33.564014
820.757568	903.381775	2309.653564	1401.720825	35.436897
821.063416	994.402588	2496.246338	1417.649414	28.181814
821.369263	932.963501	2721.522949	1431.302612	27.862597
821.675049	946.616638	2660.083740	1561.007324	35.856579
821.980713	878.351013	2767.033203	1588.313477	37.590363
822.286438	964.820801	3213.035400	1649.752563	30.465586
822.592102	932.963501	4059.529053	1811.314575	28.093161
822.897583	937.514587	5884.496582	2450.735840	30.588776
823.203125	935.239075	8271.518555	3274.474365	31.885855
823.508545	932.963501	9903.066406	3740.956299	31.303907
823.813965	957.994263	10421.885742	3709.098877	29.069485
824.119263	978.473938	9375.145508	3536.159424	30.460707
824.424622	962.545288	7884.679688	3065.126465	30.374750
824.729858	887.453125	6753.745605	2762.482178	31.962761
825.035095	987.576050	5838.986328	2598.644775	33.208256
825.340149	887.453125	5072.135742	2198.153076	31.321371
825.645264	892.004150	4689.848145	2118.509766	32.294788
825.950256	942.065613	4200.611328	1950.121338	30.935757
826.255310	967.096313	4082.284424	2022.937988	33.893353
826.560242	987.576050	3797.844238	1815.865601	29.473684
826.865112	971.647400	3597.598389	1811.314575	31.975737
827.169922	892.004150	3338.188965	1731.671387	34.325584
827.474670	935.239075	3618.078125	1706.640625	28.753180
827.779419	948.892151	4177.855957	1870.478149	28.541229
828.084045	996.678101	4651.164551	2032.040039	28.331257
828.388672	921.585938	5012.972168	2232.285889	32.035595
828.693176	855.595825	4974.288574	2148.091553	31.381212
828.997681	903.381775	4305.285156	2082.101563	34.648830
829.302124	896.555176	3811.497314	1872.753662	33.489464
829.606567	946.616638	3467.893799	1706.640625	30.144405
829.910828	919.310425	3128.841064	1620.170776	31.719873
830.215149	960.269775	2839.849854	1476.812988	27.481842
830.519348	910.208313	2682.839111	1504.119263	33.504490
830.823547	937.514587	2682.839111	1524.598877	33.637543
831.127686	928.412476	2473.491211	1408.547363	31.075108
831.431763	896.555176	2391.572266	1338.006226	29.528160
831.735779	917.034912	2220.908203	1331.179688	31.762655
832.039734	967.096313	2161.744873	1281.118164	26.285709
832.343628	971.647400	2214.081787	1274.291626	24.358973
832.647461	973.922913	2161.744873	1349.383789	31.609186
832.951233	957.994263	2057.070801	1317.526489	32.712212
833.255127	946.616638	2098.030273	1363.036987	36.166012
833.558777	969.371887	2132.163086	1342.557251	32.093925
833.862366	967.096313	2257.316650	1444.955688	37.037037
834.165955	946.616638	2587.267090	1454.057739	30.929264
834.469482	1010.331238	3008.238525	1529.150024	25.968113
834.773010	948.892151	3347.291016	1672.507813	30.170780
835.076416	1012.606750	3479.271240	1711.191650	28.321033
835.379822	946.616638	3415.556641	1677.058838	29.585257
835.683105	998.953613	3115.187988	1588.313477	27.849461
835.986389	946.616638	2899.013428	1547.354126	30.769232
836.289612	910.208313	2803.441650	1463.159912	29.206732
836.592773	928.412476	2582.716064	1429.027100	30.261351
836.895874	939.790100	2393.847900	1342.557251	27.699528
837.198914	1008.055725	2284.622803	1374.414551	28.698751
837.501892	910.208313	2232.285889	1383.516602	35.800339
837.804871	939.790100	2070.723877	1333.455200	34.808853
838.107666	955.718750	2032.040039	1246.985352	27.061306
838.410583	992.127075	1984.254150	1201.474976	21.100916
838.713379	914.759338	1856.824951	1285.669312	39.371990
839.016052	953.443237	1811.314575	1240.158813	33.421745
839.318787	973.922913	1822.692139	1219.679199	28.954430
839.621338	919.310425	1886.406738	1153.689087	24.235296
839.923889	923.861450	1770.355225	1226.505737	35.752689
840.226440	996.678101	1699.814087	1158.240112	22.977350
840.528931	907.932800	1859.100464	1194.648438	30.143543
840.831299	910.208313	1952.396851	1235.607788	31.222710
841.133606	903.381775	2075.274902	1274.291626	31.650486
841.435913	973.922913	2075.274902	1347.108276	33.884293
841.738220	942.065613	1972.876587	1251.536499	30.022078
842.040405	901.106262	1877.304688	1174.168701	27.972023
842.342529	876.075500	1740.773438	1155.964600	32.368423
842.644592	930.687988	1831.794189	1176.444214	27.272726
842.946594	980.749451	1722.569214	1194.648438	28.834360
843.248596	960.269775	1681.609863	1146.862427	25.867500
843.550598	953.443237	1677.058838	1194.648438	33.333332
843.852478	946.616638	1622.446289	1105.903076	23.569021
844.154236	951.167725	1535.976563	1140.035889	32.295712
844.455994	969.371887	1556.456177	1201.474976	39.534882
844.757690	919.310425	1547.354126	1130.933838	33.695652
845.059326	967.096313	1526.874512	1165.066650	35.365852
845.360962	1001.229126	1533.701050	1064.943726	11.965814
845.662476	953.443237	1515.496826	1128.658325	31.174089
845.963989	905.657288	1474.537476	1135.484863	40.399998
846.265381	910.208313	1463.159912	1158.240112	44.855968
846.566772	921.585938	1488.190552	1067.219238	25.702808
846.868042	985.300537	1415.373901	1135.484863	34.920631
847.169373	987.576050	1479.088501	1146.862427	32.407394
847.470581	946.616638	1465.435425	1030.810913	16.228069
847.771729	846.493713	1490.466064	1105.903076	40.282688
848.072815	967.096313	1417.649414	1087.698975	26.767691
848.373901	942.065613	1435.853638	1140.035889	40.092159
848.674866	964.820801	1474.537476	1069.494751	20.535713
848.975891	926.136963	1454.057739	1085.423462	30.172424
849.276794	939.790100	1469.986450	1074.045776	25.321878
849.577637	923.861450	1451.782227	1080.872437	29.741392
849.878357	971.647400	1363.036987	1124.107300	38.953487
850.179077	983.024963	1397.169800	1060.392700	18.681324
850.479736	946.616638	1374.414551	1142.311401	45.744675
850.780396	953.443237	1401.720825	960.269775	1.522837
851.080994	994.402588	1429.027100	1060.392700	15.183247
851.381470	973.922913	1403.996338	1044.463989	16.402102
851.681946	948.892151	1369.863525	1051.290649	24.324337
851.982361	955.718750	1394.894287	1058.117188	23.316061
852.282715	985.300537	1390.343262	1083.147949	24.157307
852.583008	903.381775	1322.077637	1058.117188	36.956520
852.883240	930.687988	1433.578125	1019.433350	17.647068
853.183411	939.790100	1322.077637	1017.157776	20.238085
853.483521	901.106262	1333.455200	1087.698975	43.157898
853.783630	917.034912	1399.445313	946.616638	6.132066
854.083679	964.820801	1381.241089	962.545288	-0.546446
854.383667	896.555176	1401.720825	1023.984375	25.225231
854.683533	955.718750	1333.455200	1112.729614	41.566246
854.983337	998.953613	1381.241089	1026.259888	7.142864
855.283203	935.239075	1392.618774	1071.770264	29.850733
855.582886	962.545288	1324.353149	1060.392700	27.044025
855.882629	964.820801	1388.067749	1049.015137	19.892485
856.182312	996.678101	1413.098389	1128.658325	31.693995
856.481873	932.963501	1403.996338	1069.494751	28.985506
856.781372	923.861450	1351.659302	1039.912964	27.127653
857.080872	1030.810913	1331.179688	996.678101	-11.363635
857.380310	960.269775	1356.210449	1135.484863	44.252865
857.679688	926.136963	1403.996338	1094.525513	35.238098
857.979004	876.075500	1342.557251	1039.912964	35.121944
858.278259	992.127075	1331.179688	1119.556274	37.583900
858.577454	994.402588	1417.649414	1055.841675	14.516136
858.876648	1021.708862	1317.526489	1087.698975	22.307701
859.175720	1019.433350	1408.547363	1071.770264	13.450277
859.474792	912.483826	1372.139038	1033.086426	26.237623
859.773743	980.749451	1278.842651	1014.882263	11.450383
860.072693	960.269775	1326.628662	1033.086426	19.875771
860.371521	989.851563	1365.312500	1051.290649	16.363644
860.670349	1005.780212	1253.812012	1067.219238	24.770624
860.969116	951.167725	1294.771362	1076.321289	36.423817
861.267883	976.198425	1328.904175	1064.943726	25.161285
861.566589	946.616638	1265.189575	1019.433350	22.857155
861.865112	987.576050	1308.424438	1012.606750	7.801411
862.163635	937.514587	1406.271851	1030.810913	19.902908
862.462158	967.096313	1394.894287	1033.086426	15.425531
862.760620	944.341125	1353.934937	1067.219238	29.999992
863.059021	914.759338	1294.771362	998.953613	22.155687
863.357361	935.239075	1349.383789	1039.912964	25.274714
863.655640	919.310425	1356.210449	1014.882263	21.874990
863.953857	898.830688	1358.485962	1062.668213	35.643566
864.251953	937.514587	1285.669312	1044.463989	30.718929
864.550110	962.545288	1388.067749	1083.147949	28.342255
864.848206	980.749451	1440.404663	1028.535400	10.396042
865.146179	969.371887	1303.873413	1019.433350	14.965989
865.444092	878.351013	1340.281738	1108.178589	49.753689
865.741943	942.065613	1344.832764	1055.841675	28.248594
866.039795	896.555176	1363.036987	996.678101	21.463415
866.337646	876.075500	1342.557251	1053.566162	38.048790
866.635376	914.759338	1351.659302	1001.229126	19.791668
866.933044	953.443237	1297.046875	1049.015137	27.814577
867.230652	992.127075	1324.353149	1060.392700	20.547943
867.528198	976.198425	1317.526489	994.402588	5.333333
867.825745	996.678101	1292.495850	1067.219238	23.846148
868.123230	873.799988	1322.077637	1042.188477	37.563435
868.420593	914.759338	1331.179688	1014.882263	24.043716
868.717896	951.167725	1367.588013	955.718750	1.092892
869.015198	928.412476	1299.322388	1094.525513	44.785278
869.312439	980.749451	1351.659302	1055.841675	20.245411
869.609619	992.127075	1342.557251	1096.801025	29.870131
869.906738	873.799988	1331.179688	1083.147949	45.771152
870.203796	994.402588	1312.975464	1039.912964	14.285704
870.500854	942.065613	1310.699951	962.545288	5.555553
870.797791	926.136963	1349.383789	1096.801025	40.322586
871.094666	905.657288	1272.016113	1026.259888	32.919254
871.391602	953.443237	1308.424438	1028.535400	21.153843
871.688293	967.096313	1331.179688	1083.147949	31.875017
871.985107	946.616638	1360.761475	1071.770264	30.219772
872.281738	955.718750	1326.628662	1137.760376	49.079742
872.578369	926.136963	1292.495850	1089.974487	44.720501
872.874939	928.412476	1331.179688	1089.974487	40.112999
873.171509	862.422363	1358.485962	1083.147949	44.495422
873.467957	994.402588	1397.169800	1033.086426	9.604515
873.764343	914.759338	1331.179688	1030.810913	27.868853
874.060669	907.932800	1331.179688	1035.361938	30.107519
874.356995	967.096313	1306.148926	1076.321289	32.214756
874.653198	971.647400	1328.904175	980.749451	2.547762
874.949463	973.922913	1363.036987	1023.984375	12.865498
875.245544	937.514587	1294.771362	1026.259888	24.840761
875.541626	901.106262	1358.485962	1083.147949	39.800999
875.837646	928.412476	1344.832764	1096.801025	40.437164
876.133606	907.932800	1347.108276	1051.290649	32.642498
876.429565	885.177612	1349.383789	983.024963	21.078424
876.725403	992.127075	1310.699951	1117.280762	39.285732
877.021179	946.616638	1249.260864	955.718750	3.007529
877.316956	964.820801	1285.669312	1096.801025	41.134747
877.612610	919.310425	1360.761475	1042.188477	27.835035
877.908203	885.177612	1310.699951	1085.423462	47.058834
878.203857	928.412476	1312.975464	1005.780212	20.118353
878.499390	905.657288	1283.393677	989.851563	22.289162
878.794800	992.127075	1365.312500	1092.250000	26.829269
879.090271	889.728638	1326.628662	1053.566162	37.500004
879.385559	980.749451	1319.802124	1064.943726	24.832211
879.680847	948.892151	1429.027100	1071.770264	25.592411
879.976196	932.963501	1442.680176	1087.698975	30.357153
880.271301	951.167725	1567.833862	1105.903076	25.092241
880.566467	917.034912	1485.915039	1135.484863	38.399998
880.861572	978.473938	1697.538574	1140.035889	22.468349
881.156555	957.994263	1797.661377	1151.413574	23.035236
881.451477	887.453125	1993.356201	1292.495850	36.625519
881.746460	932.963501	2537.205811	1492.741699	34.893620
882.041321	1003.504700	3372.321777	1661.130127	27.761765
882.336121	926.136963	4132.345703	2025.213501	34.279633
882.630798	907.932800	4478.225098	1988.805176	30.274057
882.925537	998.953613	4528.286621	2007.009399	28.562218
883.220215	937.514587	4159.651855	2041.142212	34.251419
883.514771	1010.331238	3813.772949	1849.998413	29.951298
883.809326	1001.229126	3622.629150	1752.151001	28.645834
884.103760	914.759338	3306.331787	1722.569214	33.777351
884.398132	1037.637451	3135.667725	1601.966675	26.898050
884.692505	1035.361938	2924.044189	1595.140137	29.638559
884.986816	962.545288	2848.952148	1531.425537	30.156816
885.281067	907.932800	2664.634766	1495.017212	33.419693
885.575256	964.820801	2473.491211	1394.894287	28.506788
885.869385	971.647400	2257.316650	1340.281738	28.672565
886.163452	1008.055725	2020.662476	1267.465088	25.617977
886.457458	948.892151	1975.152100	1256.087524	29.933483
886.751465	964.820801	1849.998413	1249.260864	32.133671
887.045410	926.136963	1747.599976	1215.128052	35.180050
887.339233	866.973450	1681.609863	1178.719727	38.268150
887.632996	939.790100	1613.344238	1155.964600	32.094601
887.926758	935.239075	1561.007324	1058.117188	19.636360
888.220398	960.269775	1488.190552	1112.729614	28.879303
888.514099	937.514587	1438.129150	1044.463989	21.363623
888.807678	983.024963	1385.792114	1135.484863	37.853111
889.101196	928.412476	1474.537476	1033.086426	19.166666
889.394653	862.422363	1422.200562	1076.321289	38.211372
889.688049	951.167725	1385.792114	994.402588	9.947639
889.981384	987.576050	1369.863525	1058.117188	18.452379
890.274719	889.728638	1365.312500	1094.525513	43.062199
890.567932	932.963501	1372.139038	1160.515625	51.813480
>>>>>End Processed Spectral Data<<<<<
