Jaz Data File
++++++++++++++++++++++++++++++++++++
Date: Wed Feb 07 06:53:59 2024
User: jaz
Dark Spectrum Present: Yes
Reference Spectrum Present: Yes
Processed Spectrum Present: Yes
Spectrometers: JAZA3692
Integration Time (usec): 49800 (JAZA3692)
Spectra Averaged: 1 (JAZA3692)
Boxcar Smoothing: 0 (JAZA3692)
Correct for Electrical Dark: No (JAZA3692)
Strobe/Lamp Enabled: Yes (JAZA3692)
Correct for Detector Non-linearity: No (JAZA3692)
Correct for Stray Light: No (JAZA3692)
Number of Pixels in Processed Spectrum: 2048
>>>>>Begin Processed Spectral Data<<<<<
W	D	R	S	P
190.244385	0.000000	0.000000	0.000000	0.000000
190.627136	0.000000	0.000000	0.000000	0.000000
191.009842	912.483826	932.963501	894.279663	-88.888924
191.392532	962.545288	928.412476	901.106262	179.999893
191.775177	957.994263	923.861450	885.177612	213.333282
192.157791	955.718750	953.443237	926.136963	1300.005371
192.540390	928.412476	907.932800	967.096313	-188.888916
192.922943	869.248962	1008.055725	910.208313	29.508181
193.305481	880.626526	978.473938	866.973450	-13.953436
193.687958	944.341125	946.616638	967.096313	1000.002686
194.070419	944.341125	971.647400	894.279663	-183.333191
194.452866	955.718750	967.096313	944.341125	-100.000534
194.835251	969.371887	951.167725	862.422363	587.500366
195.217621	978.473938	953.443237	901.106262	309.091125
195.599960	948.892151	1017.157776	910.208313	-56.666641
195.982254	955.718750	914.759338	919.310425	88.888786
196.364517	905.657288	971.647400	978.473938	110.344788
196.746750	1008.055725	944.341125	951.167725	89.285660
197.128952	976.198425	948.892151	967.096313	33.333408
197.511139	953.443237	935.239075	973.922913	-112.499962
197.893280	932.963501	1033.086426	957.994263	25.000031
198.275391	939.790100	901.106262	935.239075	11.764668
198.657471	930.687988	980.749451	978.473938	95.454559
199.039520	964.820801	955.718750	932.963501	350.001343
199.421539	960.269775	946.616638	889.728638	516.666138
199.803513	914.759338	960.269775	953.443237	85.000061
200.185471	948.892151	1053.566162	855.595825	-89.130363
200.567383	962.545288	1030.810913	903.381775	-86.666626
200.949265	1005.780212	935.239075	907.932800	138.709717
201.331131	964.820801	928.412476	896.555176	187.500046
201.712967	1080.872437	944.341125	864.697876	158.333328
202.094742	873.799988	1030.810913	855.595825	-11.594201
202.476517	885.177612	1001.229126	953.443237	58.823555
202.858231	928.412476	951.167725	869.248962	-259.999420
203.239944	942.065613	985.300537	1005.780212	147.368362
203.621582	946.616638	957.994263	967.096313	179.999573
204.003235	907.932800	923.861450	937.514587	185.714340
204.384827	903.381775	985.300537	901.106262	-2.777767
204.766388	928.412476	935.239075	894.279663	-499.997314
205.147934	1003.504700	955.718750	953.443237	104.761887
205.529449	980.749451	957.994263	976.198425	19.999947
205.910904	896.555176	964.820801	857.871338	-56.666641
206.292343	962.545288	985.300537	948.892151	-59.999947
206.673767	964.820801	1012.606750	862.422363	-214.285660
207.055115	892.004150	1001.229126	912.483826	18.749992
207.436462	937.514587	1001.229126	948.892151	17.857092
207.817780	942.065613	944.341125	878.351013	-2800.010742
208.199051	930.687988	1042.188477	955.718750	22.449015
208.580307	887.453125	973.922913	907.932800	23.684198
208.961517	901.106262	1005.780212	960.269775	56.521717
209.342712	948.892151	944.341125	898.830688	1100.004028
209.723846	944.341125	932.963501	967.096313	-199.999466
210.104965	914.759338	930.687988	921.585938	42.857361
210.486069	917.034912	1021.708862	876.075500	-39.130474
210.867111	871.524475	942.065613	994.402588	174.193558
211.248123	973.922913	1069.494751	948.892151	-26.190519
211.629120	937.514587	976.198425	921.585938	-41.176498
212.010071	946.616638	967.096313	853.320313	-455.555695
212.390991	994.402588	930.687988	994.402588	-0.000000
212.771881	907.932800	980.749451	930.687988	31.249979
213.152756	989.851563	953.443237	937.514587	143.750015
213.533569	992.127075	983.024963	955.718750	399.998657
213.914368	1008.055725	992.127075	985.300537	142.856979
214.295135	962.545288	1017.157776	910.208313	-95.833344
214.675858	994.402588	1026.259888	898.830688	-300.000000
215.056549	928.412476	1033.086426	889.728638	-36.956509
215.437225	926.136963	1026.259888	946.616638	20.454531
215.817841	951.167725	976.198425	914.759338	-145.454926
216.198441	873.799988	1055.841675	921.585938	26.250004
216.579025	983.024963	960.269775	866.973450	510.000244
216.959549	932.963501	973.922913	853.320313	-194.444168
217.340057	967.096313	1008.055725	923.861450	-105.555382
217.720535	953.443237	917.034912	896.555176	156.250153
218.100967	926.136963	1010.331238	953.443237	32.432461
218.481369	951.167725	910.208313	905.657288	111.111061
218.861740	996.678101	910.208313	910.208313	100.000000
219.242065	994.402588	996.678101	839.667175	-6800.023926
219.622391	926.136963	992.127075	953.443237	41.379341
220.002670	946.616638	951.167725	942.065613	-99.998657
220.382919	951.167725	992.127075	946.616638	-11.111227
220.763123	983.024963	953.443237	853.320313	438.462067
221.143295	978.473938	962.545288	919.310425	371.428284
221.523453	948.892151	957.994263	930.687988	-199.999329
221.903549	955.718750	1003.504700	885.177612	-147.618988
222.283630	910.208313	1055.841675	851.044800	-40.624973
222.663696	919.310425	1042.188477	882.902100	-29.629641
223.043701	948.892151	1030.810913	857.871338	-111.111069
223.423676	964.820801	1058.117188	928.412476	-39.024368
223.803635	1033.086426	1042.188477	942.065613	-1000.003357
224.183548	1008.055725	998.953613	873.799988	1474.995483
224.563431	951.167725	987.576050	855.595825	-262.500122
224.943283	960.269775	1026.259888	951.167725	-13.793053
225.323105	873.799988	1069.494751	898.830688	12.790685
225.702881	885.177612	978.473938	953.443237	73.170753
226.082642	910.208313	1042.188477	1014.882263	79.310364
226.462357	903.381775	1028.535400	917.034912	10.909102
226.842041	955.718750	1037.637451	946.616638	-11.111153
227.221695	892.004150	1019.433350	907.932800	12.500000
227.601318	987.576050	1058.117188	921.585938	-93.548409
227.980911	930.687988	1044.463989	869.248962	-53.999989
228.360474	917.034912	1012.606750	926.136963	9.523779
228.739990	962.545288	1133.209351	960.269775	-1.333329
229.119476	905.657288	1149.138062	869.248962	-14.953265
229.498932	821.463013	1149.138062	932.963501	34.027763
229.878372	885.177612	1210.577026	878.351013	-2.097914
230.257736	901.106262	1240.158813	873.799988	-8.053699
230.637115	944.341125	1233.332275	942.065613	-0.787399
231.016449	935.239075	1142.311401	926.136963	-4.395619
231.395737	871.524475	1133.209351	917.034912	17.391314
231.774994	898.830688	1183.270874	896.555176	-0.799997
232.154221	926.136963	1153.689087	926.136963	0.000000
232.533417	939.790100	1117.280762	930.687988	-5.128220
232.912582	921.585938	1133.209351	944.341125	10.752680
233.291702	935.239075	1121.831787	896.555176	-20.731731
233.670792	944.341125	1185.546387	937.514587	-2.830178
234.049866	942.065613	1126.382813	894.279663	-25.925930
234.428894	955.718750	1149.138062	917.034912	-19.999987
234.807892	951.167725	1121.831787	869.248962	-48.000008
235.186874	944.341125	1128.658325	903.381775	-22.222208
235.565781	882.902100	1151.413574	907.932800	9.322022
235.944687	1019.433350	1149.138062	960.269775	-45.614052
236.323547	967.096313	1199.199463	930.687988	-15.686270
236.702377	955.718750	1199.199463	996.678101	16.822420
237.081177	985.300537	1169.617676	896.555176	-48.148186
237.459946	932.963501	1274.291626	894.279663	-11.333328
237.838669	953.443237	1210.577026	907.932800	-17.699127
238.217361	894.279663	1151.413574	983.024963	34.513264
238.596039	948.892151	1083.147949	942.065613	-5.084725
238.974670	914.759338	1174.168701	862.422363	-20.175438
239.353271	905.657288	1169.617676	907.932800	0.862066
239.731842	957.994263	1140.035889	921.585938	-20.000000
240.110367	914.759338	1240.158813	914.759338	0.000000
240.488876	896.555176	1192.372925	880.626526	-5.384616
240.867340	971.647400	1244.709839	994.402588	8.333327
241.245789	901.106262	1303.873413	917.034912	3.954804
241.624176	935.239075	1376.690063	967.096313	7.216484
242.002548	932.963501	1281.118164	960.269775	7.843145
242.380890	887.453125	1401.720825	985.300537	19.026552
242.759186	957.994263	1529.150024	951.167725	-1.195215
243.137451	944.341125	1622.446289	1051.290649	15.771820
243.515686	939.790100	1670.232300	967.096313	3.738313
243.893890	928.412476	1683.885376	992.127075	8.433737
244.272049	869.248962	1665.681274	998.953613	16.285709
244.650192	1026.259888	1590.588989	953.443237	-12.903224
245.028290	932.963501	1590.588989	964.820801	4.844292
245.406357	928.412476	1510.945801	987.576050	10.156256
245.784393	912.483826	1497.292725	967.096313	9.338518
246.162384	973.922913	1433.578125	948.892151	-5.445551
246.540359	889.728638	1549.629639	926.136963	5.517241
246.918289	955.718750	1620.170776	914.759338	-6.164390
247.296204	964.820801	1795.385864	1023.984375	7.123292
247.674057	1005.780212	1995.631714	1026.259888	2.068964
248.051895	996.678101	2339.235352	1026.259888	2.203391
248.429703	919.310425	2359.715088	1026.259888	7.424960
248.807465	907.932800	2325.582275	1058.117188	10.593902
249.185196	1001.229126	2093.479248	1010.331238	0.833336
249.562897	946.616638	1959.223389	1019.433350	7.191016
249.940567	889.728638	1884.131226	989.851563	10.068651
250.318192	976.198425	1642.926025	1005.780212	4.436862
250.695801	960.269775	1667.956787	973.922913	1.929262
251.073349	1019.433350	1661.130127	964.820801	-8.510647
251.450882	992.127075	1567.833862	967.096313	-4.347832
251.828400	985.300537	1563.282837	987.576050	0.393699
252.205872	914.759338	1613.344238	1062.668213	21.172642
252.583313	905.657288	1633.823975	1080.872437	24.062506
252.960693	978.473938	1733.946899	1001.229126	3.012045
253.338074	983.024963	1768.079712	1012.606750	3.768118
253.715408	951.167725	1722.569214	855.595825	-12.389385
254.092682	928.412476	1720.293701	935.239075	0.862074
254.469955	894.279663	1570.109375	937.514587	6.397310
254.847198	930.687988	1658.854614	1037.637451	14.687499
255.224365	866.973450	1565.558350	962.545288	13.680777
255.601563	919.310425	1535.976563	992.127075	11.808116
255.978683	1005.780212	1576.935913	930.687988	-13.147417
256.355743	896.555176	1576.935913	1019.433350	18.060207
256.732819	937.514587	1526.874512	996.678101	10.038605
257.109894	894.279663	1586.037964	969.371887	10.855269
257.486877	932.963501	1558.731689	996.678101	10.181822
257.863831	887.453125	1688.436401	1080.872437	24.147734
258.240753	1008.055725	1818.141113	985.300537	-2.808986
258.617645	914.759338	1788.559326	1044.463989	14.843746
258.994507	967.096313	1797.661377	987.576050	2.465760
259.371307	964.820801	1984.254150	996.678101	3.125001
259.748108	971.647400	2209.530762	976.198425	0.367646
260.124878	951.167725	2364.266113	1023.984375	5.152978
260.501617	919.310425	2555.409912	1049.015137	7.927679
260.878296	946.616638	2846.676514	996.678101	2.634731
261.254944	960.269775	2983.207764	1028.535400	3.374578
261.631561	851.044800	2924.044189	1067.219238	10.428099
262.008179	962.545288	2555.409912	1064.943726	6.428571
262.384735	928.412476	2252.765625	1092.250000	12.371136
262.761261	905.657288	2025.213501	1012.606750	9.552845
263.137695	873.799988	1952.396851	1039.912964	15.400839
263.514191	937.514587	1986.529663	1003.504700	6.290673
263.890594	976.198425	1934.192627	1080.872437	10.926373
264.267029	957.994263	1925.090576	1023.984375	6.823531
264.643341	898.830688	1868.202637	996.678101	10.093898
265.019653	953.443237	1790.834839	1003.504700	5.978262
265.395935	926.136963	1865.927002	989.851563	6.779663
265.772217	953.443237	1815.865601	996.678101	5.013189
266.148407	989.851563	1897.784302	1030.810913	4.511276
266.524597	976.198425	1884.131226	1044.463989	7.518790
266.900726	939.790100	2088.927979	1021.708862	7.128715
267.276855	937.514587	2136.714111	1042.188477	8.728647
267.652924	992.127075	2198.153076	1055.841675	5.283020
268.028992	1005.780212	2191.326416	953.443237	-4.414588
268.404999	996.678101	2204.979736	921.585938	-6.214687
268.781006	935.239075	2198.153076	1005.780212	5.585585
269.156921	946.616638	2195.877686	987.576050	3.278691
269.532837	967.096313	2245.938965	983.024963	1.245552
269.908661	901.106262	2209.530762	1030.810913	9.913040
270.284546	901.106262	2093.479248	1037.637451	11.450376
270.660339	976.198425	2141.265137	1021.708862	3.906252
271.036133	976.198425	2195.877686	980.749451	0.373133
271.411835	885.177612	2195.877686	964.820801	6.076385
271.787537	967.096313	2407.500977	971.647400	0.315959
272.163239	978.473938	2748.829102	1076.321289	5.526990
272.538849	939.790100	2796.614990	1101.352051	8.700979
272.914459	946.616638	2848.952148	1037.637451	4.784688
273.290070	864.697876	2673.737061	1076.321289	11.698112
273.665588	960.269775	2607.746826	1078.596802	7.182317
274.041046	960.269775	2562.236328	1033.086426	4.545454
274.416565	942.065613	2466.664551	978.473938	2.388059
274.791962	953.443237	2523.552490	1087.698975	8.550726
275.167389	905.657288	2421.154053	1030.810913	8.258257
275.542755	930.687988	2255.041016	935.239075	0.343646
275.918060	930.687988	2302.827148	1008.055725	5.638476
276.293365	948.892151	2402.949951	1037.637451	6.103285
276.668640	976.198425	2437.082764	1023.984375	3.271029
277.043854	955.718750	2400.674561	1058.117188	7.086614
277.419037	919.310425	2523.552490	1014.882263	5.957445
277.794189	928.412476	2544.032227	1064.943726	8.450705
278.169312	983.024963	2466.664551	992.127075	0.613499
278.544373	987.576050	2532.654541	987.576050	0.000000
278.919464	1028.535400	2437.082764	1103.627563	5.331178
279.294464	976.198425	2437.082764	1049.015137	4.984427
279.669464	928.412476	2450.735840	1060.392700	8.669658
280.044403	969.371887	2311.929199	948.892151	-1.525427
280.419312	985.300537	2439.358398	1069.494751	5.790293
280.794189	998.953613	2521.277100	1085.423462	5.680123
281.169037	1030.810913	2603.195801	1069.494751	2.460202
281.543854	935.239075	2644.155273	1042.188477	6.258317
281.918671	960.269775	2701.043213	1087.698975	7.320263
282.293365	955.718750	2853.503174	1092.250000	7.194244
282.668091	980.749451	3012.789551	1117.280762	6.718928
283.042786	957.994263	2980.932129	1105.903076	7.311584
283.417419	973.922913	3112.912354	1101.352051	5.957446
283.792053	923.861450	3008.238525	1115.005249	9.170309
284.166595	989.851563	2974.105713	1023.984375	1.720183
284.541138	921.585938	2782.961914	1135.484863	11.491441
284.915619	937.514587	2835.298828	1085.423462	7.793767
285.290100	898.830688	2935.421875	1030.810913	6.480448
285.664520	983.024963	3015.064941	1053.566162	3.471447
286.038940	935.239075	3035.544678	1110.454102	8.342359
286.413300	932.963501	3231.239502	1108.178589	7.623762
286.787628	944.341125	3231.239502	1124.107300	7.860698
287.161896	964.820801	3345.015625	1160.515625	8.221799
287.536194	930.687988	3317.709229	1240.158813	12.964728
287.910400	937.514587	3231.239502	1219.679199	12.301589
288.284607	939.790100	3060.575439	1149.138062	9.871247
288.658752	878.351013	2978.656738	1171.893188	13.976165
289.032867	926.136963	2869.431641	1196.923950	13.934427
289.406921	960.269775	3005.962891	1149.138062	9.232484
289.781006	960.269775	3010.513916	1203.750488	11.875693
290.154999	964.820801	2921.768799	1183.270874	11.162794
290.529022	953.443237	3110.636963	1124.107300	7.911392
290.902954	928.412476	3438.312012	1235.607788	12.239347
291.276825	971.647400	3392.801514	1242.434326	11.184209
291.650757	930.687988	3370.046387	1326.628662	16.231344
292.024597	948.892151	3253.994629	1249.260864	13.030601
292.398407	971.647400	3217.586426	1276.567139	13.576492
292.772156	914.759338	3267.647949	1294.771362	16.150871
293.145905	946.616638	3056.024414	1306.148926	17.044230
293.519592	962.545288	2983.207764	1310.699951	17.229729
293.893280	942.065613	2971.830078	1260.638550	15.695069
294.266907	976.198425	3108.361328	1201.474976	10.565636
294.640533	937.514587	3372.321777	1269.740601	13.644859
295.014069	912.483826	3445.138428	1406.271851	19.496857
295.387604	910.208313	3495.199951	1340.281738	16.637323
295.761078	898.830688	3586.220703	1410.822876	19.051651
296.134552	917.034912	3620.353516	1381.241089	17.171715
296.507996	882.902100	3704.547852	1306.148926	14.999999
296.881378	921.585938	3743.231689	1372.139038	15.967742
297.254730	921.585938	3736.405273	1392.618774	16.734034
297.628021	964.820801	3982.161377	1424.476074	15.233788
298.001282	953.443237	4161.927734	1454.057739	15.602835
298.374573	910.208313	4032.222900	1406.271851	15.889213
298.747803	953.443237	4171.029785	1451.782227	15.487975
299.121002	885.177612	3811.497314	1378.965576	16.874025
299.494141	1014.882263	3652.210938	1360.761475	13.114756
299.867188	944.341125	3463.342773	1410.822876	18.518517
300.240265	935.239075	3483.822266	1344.832764	16.071426
300.613312	914.759338	3351.842041	1383.516602	19.234360
300.986328	919.310425	3288.127441	1344.832764	17.963497
301.359314	976.198425	3340.464600	1274.291626	12.608276
301.732239	898.830688	3326.811523	1417.649414	21.368319
302.105103	1053.566162	3499.750977	1381.241089	13.395347
302.477997	976.198425	3440.587402	1278.842651	12.280701
302.850830	944.341125	3381.423828	1356.210449	16.900095
303.223602	946.616638	3228.964111	1340.281738	17.248255
303.596375	923.861450	3144.769775	1283.393677	16.188522
303.969116	894.279663	3160.698486	1333.455200	19.377508
304.341766	957.994263	3112.912354	1347.108276	18.057022
304.714478	923.861450	3108.361328	1212.852539	13.229164
305.087067	910.208313	3119.739014	1308.424438	18.022655
305.459656	898.830688	3208.484375	1285.669312	16.748772
305.832214	841.942688	3074.228516	1297.046875	20.387362
306.204681	964.820801	3017.340576	1317.526489	17.184034
306.577148	935.239075	3056.024414	1301.597900	17.274677
306.949646	930.687988	3242.617188	1281.118164	15.157478
307.322021	912.483826	3110.636963	1276.567139	16.563147
307.694397	994.402588	3128.841064	1290.220337	13.859278
308.066742	923.861450	3158.422852	1244.709839	14.358450
308.439026	928.412476	3288.127441	1274.291626	14.657667
308.811279	926.136963	3315.433838	1351.659302	17.809521
309.183502	964.820801	3397.352539	1367.588013	16.557531
309.555695	917.034912	3634.006836	1324.353149	14.991625
309.927887	980.749451	3606.700439	1344.832764	13.864818
310.299988	983.024963	3513.404053	1378.965576	15.647482
310.672058	892.004150	3670.415039	1419.924927	19.000816
311.044128	894.279663	3677.241699	1381.241089	17.497955
311.416168	969.371887	3611.251465	1374.414551	15.331610
311.788147	917.034912	3586.220703	1433.578125	19.352089
312.160065	1014.882263	3775.089111	1408.547363	14.262159
312.531982	983.024963	3531.608398	1388.067749	15.892859
312.903870	926.136963	3542.985840	1367.588013	16.869566
313.275696	907.932800	3429.209961	1244.709839	13.357399
313.647491	992.127075	3381.423828	1344.832764	14.761903
314.019318	964.820801	3360.944336	1269.740601	12.725546
314.391022	1012.606750	3340.464600	1326.628662	13.489738
314.762726	939.790100	3451.965088	1342.557251	16.032606
315.134369	946.616638	3533.883789	1349.383789	15.567282
315.505981	926.136963	3738.680664	1326.628662	14.239484
315.877594	948.892151	3779.640137	1417.649414	16.559484
316.249146	992.127075	3611.251465	1306.148926	11.989573
316.620636	978.473938	3426.934326	1317.526489	13.847581
316.992157	1008.055725	3381.423828	1301.597900	12.368169
317.363586	983.024963	3370.046387	1258.363037	11.534797
317.735016	937.514587	3306.331787	1249.260864	13.160419
318.106354	992.127075	3363.219727	1269.740601	11.708252
318.477722	912.483826	3356.393066	1233.332275	13.128493
318.849060	912.483826	3347.291016	1281.118164	15.140186
319.220306	969.371887	3374.597412	1319.802124	14.569537
319.591522	921.585938	3456.516113	1221.954712	11.849194
319.962738	942.065613	3495.199951	1287.944824	13.547239
320.333923	932.963501	3529.332764	1265.189575	12.795795
320.705017	948.892151	3556.638916	1360.761475	15.794068
321.076111	903.381775	3476.995850	1308.424438	15.738283
321.447144	942.065613	3340.464600	1283.393677	14.231497
321.818176	892.004150	3203.933350	1290.220337	17.224411
322.189178	969.371887	3272.198975	1340.281738	16.106716
322.560120	919.310425	3385.974854	1356.210449	17.712179
322.931030	873.799988	3279.025391	1253.812012	15.799436
323.301910	894.279663	3454.240479	1347.108276	17.688889
323.672729	932.963501	3679.517090	1338.006226	14.747308
324.043549	926.136963	3706.823486	1383.516602	16.448442
324.414337	919.310425	3902.518066	1356.210449	14.645311
324.785095	939.790100	4211.988770	1401.720825	14.116830
325.155792	955.718750	4180.131836	1360.761475	12.561750
325.526428	983.024963	4034.498291	1376.690063	12.900821
325.897034	932.963501	4045.875977	1365.312500	13.888889
326.267670	937.514587	3979.885986	1376.690063	14.435302
326.638184	928.412476	3952.579590	1353.934937	14.070733
327.008728	951.167725	4068.631104	1306.148926	11.386860
327.379211	935.239075	4148.274414	1381.241089	13.881018
327.749634	907.932800	4041.324951	1262.914063	11.328977
328.120026	910.208313	3731.854004	1383.516602	16.774193
328.490417	907.932800	3811.497314	1390.343262	16.614422
328.860748	962.545288	3768.262451	1287.944824	11.597731
329.231079	971.647400	3743.231689	1349.383789	13.628898
329.601318	912.483826	3663.588379	1363.036987	16.377174
329.971558	951.167725	3684.068115	1294.771362	12.572856
330.341736	903.381775	3772.813477	1326.628662	14.750199
330.711914	901.106262	3693.170166	1369.863525	16.788916
331.082062	944.341125	3818.323975	1340.281738	13.776721
331.452148	939.790100	3715.925537	1272.016113	11.967212
331.822174	969.371887	3772.813477	1306.148926	12.012985
332.192200	973.922913	3895.691650	1328.904175	12.149533
332.562134	903.381775	3745.507324	1299.322388	13.931145
332.932129	994.402588	3934.375488	1392.618774	13.544893
333.302063	978.473938	4084.559814	1312.975464	10.769230
333.671906	1021.708862	4209.713379	1347.108276	10.206994
334.041718	928.412476	4207.437988	1292.495850	11.103402
334.411499	937.514587	4257.499512	1451.782227	15.490060
334.781281	939.790100	4196.060547	1394.894287	13.976240
335.151001	953.443237	4305.285156	1501.843750	16.361170
335.520721	1014.882263	4198.335938	1340.281738	10.221587
335.890350	921.585938	4086.835449	1408.547363	15.384614
336.259979	880.626526	4168.753906	1444.955688	17.162630
336.629547	955.718750	4152.825684	1260.638550	9.537366
336.999084	967.096313	4223.366699	1415.373901	13.766596
337.368622	953.443237	4027.671875	1340.281738	12.583271
337.738098	851.044800	4105.039551	1424.476074	17.622379
338.107513	885.177612	4198.335938	1369.863525	14.629121
338.476898	894.279663	4177.855957	1413.098389	15.800417
338.846252	951.167725	4148.274414	1358.485962	12.740214
339.215576	973.922913	4414.510254	1440.404663	13.558201
339.584869	896.555176	4293.907715	1308.424438	12.123241
339.954132	1044.463989	4205.162598	1317.526489	8.639308
340.323334	928.412476	4134.621094	1353.934937	13.271828
340.692505	894.279663	3948.028564	1351.659302	14.977643
341.061646	953.443237	3857.007813	1335.730713	13.166144
341.430786	894.279663	4073.182129	1376.690063	15.175377
341.799896	983.024963	4275.703613	1358.485962	11.402905
342.168915	923.861450	4218.815430	1349.383789	12.914363
342.537903	937.514587	4225.642090	1363.036987	12.941177
342.906830	948.892151	4273.428223	1458.608887	15.331965
343.275757	992.127075	4421.336914	1444.955688	13.205042
343.644684	969.371887	4537.388672	1328.904175	10.076530
344.013550	944.341125	4541.939453	1374.414551	11.954459
344.382355	960.269775	4628.409180	1388.067749	11.662533
344.751129	985.300537	4894.645020	1440.404663	11.641443
345.119873	887.453125	4990.217285	1492.741699	14.753190
345.488586	1012.606750	5217.769043	1467.710938	10.822513
345.857269	992.127075	5415.739746	1561.007324	12.860083
346.225891	926.136963	5443.045898	1526.874512	13.299748
346.594482	955.718750	5484.005371	1488.190552	11.758792
346.963043	907.932800	5374.780273	1472.261963	12.633723
347.331543	885.177612	5208.666992	1472.261963	13.578948
347.700043	942.065613	5058.482910	1433.578125	11.940298
348.068512	992.127075	5024.350098	1422.200562	10.665915
348.436951	878.351013	4887.818848	1465.435425	14.642452
348.805328	1005.780212	4628.409180	1429.027100	11.683418
349.173645	957.994263	4612.480469	1497.292725	14.757162
349.541931	946.616638	4592.000977	1467.710938	14.294633
349.910217	912.483826	4783.144531	1469.986450	14.403294
350.278473	939.790100	4940.155762	1458.608887	12.969284
350.646667	901.106262	4935.604492	1522.323364	15.397630
351.014801	932.963501	5019.798828	1449.506714	12.639197
351.382935	1012.606750	4880.992188	1447.231201	11.235293
351.751007	964.820801	4965.186523	1481.364014	12.912399
352.119049	914.759338	4962.910645	1424.476074	12.591346
352.487091	957.994263	4987.941406	1454.057739	12.309428
352.855072	948.892151	5063.033691	1474.537476	12.776549
353.222992	957.994263	5154.054688	1501.843750	12.960955
353.590881	953.443237	5160.881348	1506.394775	13.142239
353.958740	912.483826	5449.872559	1583.762451	14.794382
354.326599	887.453125	5481.729492	1438.129150	11.986132
354.694397	882.902100	5809.404785	1595.140137	14.457274
355.062134	912.483826	5784.374023	1629.272949	14.712752
355.429840	878.351013	5707.006348	1508.670288	13.053722
355.797516	946.616638	5970.966797	1681.609863	14.628623
356.165192	896.555176	6157.559082	1581.486938	13.019032
356.532776	892.004150	6303.192383	1642.926025	13.877208
356.900360	967.096313	6435.172852	1556.456177	10.778193
357.267883	976.198425	6426.070801	1626.997314	11.941544
357.635376	978.473938	6906.205566	1820.416626	14.203455
358.002808	960.269775	7277.115723	1699.814087	11.707494
358.370270	964.820801	7568.382324	1815.865601	12.887664
358.737640	937.514587	7561.555664	1768.079712	12.538647
359.105011	905.657288	7302.146484	1761.253052	13.376021
359.472321	926.136963	6967.644531	1697.538574	12.768362
359.839569	978.473938	6837.939941	1733.946899	12.893206
360.206787	921.585938	6915.307617	1754.426514	13.895216
360.574005	907.932800	7170.166016	1731.671387	13.154070
360.941193	873.799988	7390.891602	1768.079712	13.722067
361.308319	887.453125	8055.343750	1840.896362	13.301587
361.675415	944.341125	8335.232422	1870.478149	12.530789
362.042450	932.963501	8831.295898	2093.479248	14.693174
362.409424	971.647400	9766.535156	1986.529663	11.539456
362.776428	898.830688	9736.953125	2034.315552	12.847581
363.143402	901.106262	9163.522461	2018.386963	13.522447
363.510284	978.473938	8594.641602	1938.743774	12.608308
363.877136	971.647400	7727.668457	1897.784302	13.708319
364.243988	937.514587	7384.064941	1747.599976	12.566184
364.610779	894.279663	6935.787598	1692.987427	13.220338
364.977539	905.657288	6712.786133	1665.681274	13.087775
365.344269	983.024963	6717.337402	1679.334351	12.142858
365.710938	926.136963	6544.397949	1718.018188	14.094775
366.077576	937.514587	6505.713867	1688.436401	13.485901
366.444183	866.973450	6355.529785	1674.783325	14.718076
366.810760	1001.229126	6332.774414	1729.395752	13.657702
367.177277	998.953613	6530.744629	1611.068726	11.065406
367.543823	894.279663	6564.877441	1677.058838	13.804174
367.910248	930.687988	6469.305664	1601.966675	12.119968
368.276642	928.412476	6328.223145	1615.619751	12.726507
368.643036	939.790100	6305.468262	1663.405762	13.486006
369.009399	885.177612	6214.447266	1549.629639	12.467976
369.375671	892.004150	6000.548340	1640.650513	14.654790
369.741974	951.167725	6168.937012	1551.905151	11.513299
370.108215	923.861450	6089.293457	1622.446289	13.524228
370.474396	910.208313	6066.538574	1574.660400	12.886144
370.840546	932.963501	5993.721680	1572.384888	12.634892
371.206665	994.402588	6200.793945	1551.905151	10.708041
371.572784	955.718750	6289.539551	1729.395752	14.505118
371.938843	935.239075	6485.234375	1595.140137	11.890120
372.304840	905.657288	6705.959961	1754.426514	14.633188
372.670807	957.994263	6305.468262	1752.151001	14.851063
373.036713	1017.157776	6530.744629	1665.681274	11.762280
373.402649	930.687988	6441.999512	1583.762451	11.849710
373.768524	942.065613	6360.080566	1793.110352	15.707685
374.134308	987.576050	6430.621582	1656.579102	12.290970
374.500122	944.341125	6487.509766	1720.293701	13.998358
374.865875	962.545288	6521.642578	1738.497925	13.958249
375.231567	962.545288	6482.958984	1706.640625	13.478978
375.597260	905.657288	6721.888672	1626.997314	12.402189
375.962891	946.616638	6874.348145	1733.946899	13.282151
376.328461	932.963501	6919.858887	1809.039063	14.633220
376.694031	960.269775	7229.329590	1672.507813	11.361162
377.059540	887.453125	7563.831055	1795.385864	13.599181
377.425049	964.820801	7793.658691	1856.824951	13.062312
377.790497	978.473938	8005.282227	1811.314575	11.852332
378.155945	960.269775	8260.140625	2011.560425	14.401496
378.521301	873.799988	8112.231445	1954.672363	14.932410
378.886597	901.106262	7937.016602	1779.457275	12.483829
379.251892	957.994263	7613.892578	1790.834839	12.512820
379.617157	976.198425	7299.870605	1859.100464	13.961856
379.982422	978.473938	7047.288086	1779.457275	13.198351
380.347595	973.922913	7104.175781	1740.773438	12.509280
380.712738	903.381775	7076.869629	1761.253052	13.896055
381.077820	985.300537	7258.911133	1756.702026	12.295974
381.442902	898.830688	7022.257324	1745.324463	13.823857
381.807953	989.851563	7124.655762	1786.283813	12.982195
382.172974	928.412476	6958.542480	1804.488037	14.528303
382.537933	939.790100	6953.991699	1642.926025	11.691259
382.902832	898.830688	6899.378906	1765.804199	14.448238
383.267700	914.759338	7256.635742	1761.253052	13.347685
383.632538	944.341125	7308.972656	1799.937012	13.442976
383.997345	948.892151	7479.636719	1804.488037	13.101047
384.362152	953.443237	7893.781738	1802.212524	12.229508
384.726898	930.687988	7588.861816	1824.967651	13.431306
385.091553	953.443237	7745.873047	1886.406738	13.735343
385.456238	973.922913	7638.923340	1863.651489	13.349265
385.820862	987.576050	7750.423828	1863.651489	12.954239
386.185425	889.728638	7579.759766	1790.834839	13.469387
386.549988	1005.780212	7736.770508	1784.008301	11.561866
386.914490	1005.780212	7921.087891	1836.345337	12.010530
387.278961	1010.331238	8046.241699	1870.478149	12.225097
387.643372	857.871338	7987.078125	1829.518677	13.629108
388.007782	912.483826	8053.068359	1868.202637	13.384322
388.372101	930.687988	8196.425781	1893.233276	13.247729
388.736450	983.024963	8089.476563	1931.917114	13.352545
389.100739	971.647400	8175.946289	1802.212524	11.528744
389.464966	892.004150	7996.180176	1849.998413	13.484946
389.829163	841.942688	7802.760742	1797.661377	13.729977
390.193329	912.483826	7714.015625	1856.824951	13.884242
390.557495	969.371887	7896.057129	1774.906250	11.629436
390.921570	1010.331238	8134.986816	1738.497925	10.220377
391.285614	937.514587	8200.976563	1749.875488	11.184211
391.649597	873.799988	8842.673828	1888.682251	12.735579
392.013550	944.341125	9313.707031	1918.264038	11.636758
392.377502	978.473938	9325.083984	1986.529663	12.077427
392.741455	964.820801	9393.349609	1943.294800	11.609072
393.105316	898.830688	9432.034180	1895.508789	11.679999
393.469086	983.024963	9020.164063	1863.651489	10.956965
393.832886	942.065613	8824.469727	1897.784302	12.124710
394.196655	973.922913	9006.511719	1897.784302	11.501415
394.560333	853.320313	9195.379883	1961.498901	13.284232
394.924042	878.351013	9391.074219	1975.152100	12.884255
395.287659	948.892151	9290.951172	1947.845825	11.974906
395.651245	1001.229126	9409.278320	1886.406738	10.527741
396.014771	898.830688	8956.450195	1859.100464	11.917537
396.378296	928.412476	8460.386719	1733.946899	10.694864
396.741791	921.585938	8303.375000	1754.426514	11.282368
397.105255	930.687988	8353.436523	1768.079712	11.281424
397.468628	983.024963	8155.466797	1706.640625	10.088833
397.832001	955.718750	8128.160156	1615.619751	9.200507
398.195313	951.167725	8132.711426	1708.916138	10.551331
398.558624	937.514587	8353.436523	1711.191650	10.432649
398.921844	917.034912	8266.966797	1661.130127	10.123838
399.285095	903.381775	8419.426758	1697.538574	10.566153
399.648254	887.453125	8458.110352	1736.222412	11.211303
400.011383	912.483826	8346.610352	1692.987427	10.498928
400.374451	912.483826	8119.058105	1774.906250	11.967162
400.737549	939.790100	8567.335938	1733.946899	10.411695
401.100586	882.902100	8018.935547	1743.048950	12.053572
401.463562	921.585938	8246.487305	1638.375000	9.785648
401.826508	928.412476	8451.284180	1681.609863	10.012099
402.189392	983.024963	8137.262207	1770.355225	11.005090
402.552246	971.647400	8330.681641	1772.630737	10.884354
402.915070	855.595825	8367.089844	1711.191650	11.390488
403.277893	948.892151	8756.204102	1708.916138	9.734772
403.640656	985.300537	8758.479492	1727.120239	9.543324
404.003326	907.932800	9031.541992	1781.732788	10.756303
404.366028	946.616638	9131.665039	1688.436401	9.063107
404.728699	955.718750	9582.217773	1804.488037	9.839093
405.091248	1003.504700	9750.606445	1749.875488	8.532779
405.453857	942.065613	9789.290039	1804.488037	9.747943
405.816345	983.024963	9832.525391	1797.661377	9.205451
406.178833	882.902100	9834.800781	1770.355225	9.913574
406.541260	1008.055725	9841.627930	1733.946899	8.217414
406.903687	992.127075	9680.065430	1727.120239	8.459926
407.266052	967.096313	9213.583984	1683.885376	8.692053
407.628387	1028.535400	9163.522461	1793.110352	9.398601
407.990662	955.718750	9170.348633	1740.773438	9.556787
408.352905	896.555176	9163.522461	1677.058838	9.441234
408.715118	914.759338	9256.818359	1704.365112	9.465359
409.077332	937.514587	8901.836914	1611.068726	8.457143
409.439484	914.759338	9197.655273	1667.956787	9.093408
409.801575	898.830688	9347.839844	1638.375000	8.753031
410.163605	980.749451	9466.166992	1608.793213	7.401448
410.525635	989.851563	9618.625977	1599.691162	7.067511
410.887604	912.483826	9702.820313	1601.966675	7.843645
411.249573	892.004150	9655.035156	1613.344238	8.231627
411.611481	948.892151	9689.167969	1636.099487	7.862536
411.973328	921.585938	9347.839844	1633.823975	8.452606
412.335144	976.198425	9457.064453	1517.772339	6.385832
412.696930	973.922913	9411.553711	1601.966675	7.443366
413.058685	939.790100	9611.799805	1561.007324	7.163475
413.420410	919.310425	9470.717773	1626.997314	8.275678
413.782104	889.728638	9591.320313	1469.986450	6.668410
414.143707	912.483826	9645.932617	1590.588989	7.764460
414.505310	882.902100	9709.647461	1551.905151	7.579272
414.866852	930.687988	9862.107422	1488.190552	6.242037
415.228394	921.585938	9748.331055	1670.232300	8.481567
415.589874	948.892151	10046.424805	1576.935913	6.903452
415.951324	951.167725	10230.741211	1561.007324	6.571850
416.312683	935.239075	10326.313477	1631.548462	7.414587
416.674072	1046.739624	10745.008789	1606.517700	5.771938
417.035370	923.861450	10838.305664	1640.650513	7.229745
417.396667	942.065613	11159.154297	1601.966675	6.458797
417.757935	951.167725	11131.847656	1640.650513	6.772463
418.119141	880.626526	11607.431641	1520.047852	5.960968
418.480286	896.555176	11741.687500	1570.109375	6.210659
418.841400	882.902100	12503.986328	1588.313477	6.070100
419.202484	946.616638	12779.325195	1608.793213	5.596154
419.563568	957.994263	13320.898438	1688.436401	5.908338
419.924591	973.922913	14374.464844	1722.569214	5.586687
420.285553	957.994263	14201.525391	1713.467163	5.704467
420.646484	996.678101	15457.613281	1879.580200	6.105429
421.007355	960.269775	15459.888672	1827.243164	5.979284
421.368225	946.616638	16247.218750	1870.478149	6.038073
421.729065	912.483826	16852.507813	1863.651489	5.967165
422.089874	942.065613	17362.224609	1861.375977	5.598670
422.450592	930.687988	17107.365234	1886.406738	5.908004
422.811279	937.514587	17086.884766	1884.131226	5.861632
423.171936	960.269775	16920.773438	1829.518677	5.446250
423.532593	1017.157776	16888.916016	1849.998413	5.247312
423.893127	953.443237	17055.029297	1918.264038	5.992085
424.253723	930.687988	17330.367188	1845.447388	5.577910
424.614197	996.678101	16875.261719	1913.713013	5.775294
424.974670	948.892151	17899.246094	1870.478149	5.436972
425.335052	919.310425	18165.482422	1913.713013	5.765932
425.695496	923.861450	16827.476563	1863.651489	5.909286
426.055817	928.412476	17532.888672	1906.886475	5.892833
426.416168	944.341125	17125.570313	1911.437500	5.976655
426.776398	889.728638	16201.708008	1865.927002	6.375390
427.136627	989.851563	15475.817383	1786.283813	5.497958
427.496826	998.953613	15198.203125	1765.804199	5.400641
427.856995	962.545288	14620.220703	1786.283813	6.031323
428.217102	873.799988	13951.217773	1720.293701	6.472942
428.577179	932.963501	13871.575195	1768.079712	6.454450
428.937195	905.657288	13673.604492	1772.630737	6.790234
429.297180	944.341125	13259.459961	1704.365112	6.171471
429.657135	937.514587	13168.438477	1711.191650	6.325582
430.017059	905.657288	13539.348633	1745.324463	6.646254
430.376984	869.248962	13245.806641	1724.844727	6.913035
430.736786	1003.504700	13063.764648	1681.609863	5.622642
431.096588	885.177612	12936.335938	1733.946899	7.043052
431.456360	967.096313	12949.989258	1697.538574	6.095709
431.816071	907.932800	12788.426758	1556.456177	5.458724
432.175781	955.718750	12906.753906	1690.711914	6.150038
432.535400	860.146851	12949.989258	1622.446289	6.305288
432.895020	930.687988	12893.100586	1631.548462	5.858856
433.254578	996.678101	12865.794922	1706.640625	5.981595
433.614105	907.932800	13391.439453	1672.507813	6.124681
433.973602	960.269775	13612.165039	1763.528564	6.348920
434.333038	951.167725	13621.267578	1740.773438	6.232040
434.692444	1026.259888	13430.124023	1715.742676	5.558613
435.051819	998.953613	13714.563477	1626.997314	4.939156
435.411133	917.034912	13723.666016	1645.201538	5.685856
435.770416	923.861450	13132.030273	1738.497925	6.672880
436.129669	962.545288	13684.982422	1604.242188	5.043820
436.488861	989.851563	13427.848633	1665.681274	5.433589
436.848083	989.851563	13662.226563	1567.833862	4.560963
437.207184	996.678101	13605.338867	1604.242188	4.818625
437.566254	978.473938	13837.442383	1554.180664	4.477083
437.925293	939.790100	13546.175781	1554.180664	4.873646
438.284363	955.718750	13644.022461	1617.895264	5.218795
438.643311	953.443237	14151.463867	1579.211426	4.741379
439.002258	866.973450	14372.189453	1663.405762	5.897220
439.361145	914.759338	14747.650391	1595.140137	4.918573
439.719971	948.892151	15084.427734	1658.854614	5.022537
440.078827	892.004150	15307.428711	1588.313477	4.830307
440.437592	985.300537	15739.777344	1652.028076	4.518815
440.796295	942.065613	16017.390625	1638.375000	4.618868
441.155029	998.953613	17264.376953	1652.028076	4.015109
441.513672	928.412476	17243.896484	1633.823975	4.323571
441.872253	878.351013	17064.130859	1720.293701	5.201743
442.230865	903.381775	16638.607422	1722.569214	5.206074
442.589386	944.341125	16777.414063	1611.068726	4.210980
442.947876	928.412476	16597.648438	1601.966675	4.298577
443.306335	894.279663	15971.880859	1640.650513	4.950196
443.664764	962.545288	15471.265625	1535.976563	3.952321
444.023102	921.585938	15612.348633	1586.037964	4.522924
444.381500	921.585938	15607.796875	1595.140137	4.586303
444.739777	955.718750	15573.664063	1624.721802	4.576588
445.098022	951.167725	16090.208008	1661.130127	4.689613
445.456238	930.687988	15876.308594	1606.517700	4.521924
445.814423	921.585938	16679.568359	1642.926025	4.577617
446.172577	937.514587	17330.367188	1633.823975	4.247640
446.530701	930.687988	17437.316406	1729.395752	4.838709
446.888733	962.545288	17799.123047	1677.058838	4.243817
447.246765	967.096313	18898.201172	1688.436401	4.022842
447.604736	957.994263	18215.544922	1663.405762	4.087553
447.962677	894.279663	18741.189453	1781.732788	4.972587
448.320587	935.239075	18732.087891	1761.253052	4.641349
448.678436	989.851563	18361.177734	1711.191650	4.152476
449.036255	996.678101	17869.664063	1784.008301	4.666217
449.394043	926.136963	16852.507813	1722.569214	5.000714
449.751770	939.790100	17264.376953	1745.324463	4.934485
450.109467	1008.055725	16652.261719	1827.243164	5.236363
450.467163	951.167725	16424.708984	1809.039063	5.544118
450.824768	948.892151	16411.056641	1779.457275	5.371597
451.182343	923.861450	16126.616211	1877.304688	6.271516
451.539886	937.514587	15573.664063	1740.773438	5.488184
451.897369	1017.157776	15889.961914	1779.457275	5.125459
452.254822	898.830688	15393.898438	1781.732788	6.091052
452.612274	942.065613	16176.677734	1859.100464	6.019417
452.969635	919.310425	15978.707031	1884.131226	6.406769
453.326965	921.585938	15942.298828	1911.437500	6.589911
453.684326	914.759338	15562.287109	1913.713013	6.819948
454.041534	942.065613	15245.989258	1979.703125	7.254215
454.398773	967.096313	14900.110352	1975.152100	7.235016
454.755951	976.198425	14602.016602	2002.458252	7.531729
455.113098	980.749451	14247.036133	1947.845825	7.289880
455.470215	1001.229126	14390.393555	2002.458252	7.477906
455.827240	930.687988	14363.086914	2100.305664	8.707438
456.184265	996.678101	13764.625000	2118.509766	8.786312
456.541260	935.239075	14162.841797	2150.367188	9.186307
456.898193	926.136963	14181.045898	2314.204590	10.472102
457.255096	910.208313	14274.341797	2382.470215	11.016516
457.611969	880.626526	14208.351563	2448.460449	11.763703
457.968781	953.443237	14347.158203	2457.562500	11.230038
458.325531	976.198425	14460.934570	2471.215576	11.086736
458.682312	989.851563	15207.305664	2687.390137	11.939821
459.039001	953.443237	15837.625000	2908.115479	13.132547
459.395630	951.167725	16599.923828	2917.217773	12.563619
459.752289	996.678101	18215.544922	3144.769775	12.475222
460.108856	955.718750	19514.867188	3388.250488	13.106915
460.465363	932.963501	19967.695313	3570.292236	13.855349
460.821899	948.892151	20136.083984	3577.118652	13.697818
461.178345	951.167725	19271.384766	3725.027588	15.140977
461.534760	964.820801	19114.375000	3679.517090	14.957372
461.891144	905.657288	18195.064453	3622.629150	15.714663
462.247467	960.269775	17105.089844	3520.230713	15.856236
462.603760	951.167725	16891.191406	3581.669678	16.502497
462.960052	894.279663	16115.238281	3581.669678	17.655853
463.316254	914.759338	15644.205078	3586.220703	18.136877
463.672424	967.096313	15300.601563	3538.434814	17.939356
464.028564	914.759338	14902.385742	3588.496338	19.115017
464.384644	942.065613	15022.988281	3686.343750	19.489334
464.740723	873.799988	15170.897461	3743.231689	20.070028
465.096741	896.555176	14872.803711	3729.578613	20.270271
465.452698	951.167725	14683.935547	3816.048340	20.861641
465.808655	1053.566162	14777.232422	3834.252441	20.261978
466.164520	928.412476	14647.527344	3820.599365	21.081440
466.520355	921.585938	15398.449219	4216.540039	22.760138
466.876190	937.514587	16094.758789	4168.753906	21.318119
467.231964	926.136963	15555.459961	4098.212891	21.682999
467.587677	960.269775	16208.535156	4455.469727	22.921951
467.943390	1003.504700	16279.076172	4585.174316	23.447042
468.299011	898.830688	15819.420898	4439.541016	23.730366
468.654633	939.790100	15619.174805	4475.949219	24.089287
469.010223	896.555176	15587.317383	4651.164551	25.557623
469.365723	969.371887	15123.111328	4537.388672	25.209005
469.721191	964.820801	15491.746094	4587.449707	24.937340
470.076660	964.820801	14708.966797	4664.817871	26.920530
470.432068	946.616638	15002.508789	4708.052734	26.760563
470.787445	905.657288	14918.314453	4687.572754	26.989283
471.142792	862.422363	14668.006836	4746.736328	28.135818
471.498016	955.718750	15191.376953	4749.011719	26.646418
471.853271	939.790100	15054.845703	4887.818848	27.970339
472.208496	957.994263	15111.733398	4985.666016	28.456593
472.563660	951.167725	15412.102539	4981.115234	27.867823
472.918762	969.371887	15521.327148	5147.228027	28.709929
473.273865	907.932800	15751.155273	5197.289551	28.897747
473.628876	907.932800	16433.810547	5411.188477	29.004839
473.983917	912.483826	16206.258789	5490.831543	29.936020
474.338837	942.065613	16169.850586	5486.280762	29.841604
474.693787	971.647400	16137.993164	5429.392578	29.392347
475.048645	1028.535400	15742.052734	5465.800781	30.157749
475.403503	880.626526	16213.085938	5709.281738	31.493027
475.758270	923.861450	16454.291016	5809.404785	31.457876
476.113037	971.647400	16313.208984	5734.312500	31.044201
476.467773	987.576050	16820.650391	5982.344238	31.546419
476.822418	996.678101	17623.908203	6118.875488	30.806076
477.177063	955.718750	17312.162109	6253.131348	32.387314
477.531647	923.861450	17673.970703	6371.458008	32.522755
477.886200	992.127075	18115.421875	6562.602051	32.531559
478.240723	971.647400	18568.250000	6790.154297	33.066078
478.595184	923.861450	18800.353516	6897.103516	33.413952
478.949585	923.861450	19319.171875	6974.471191	32.892132
479.303986	960.269775	19457.978516	7083.696289	33.103703
479.658325	1026.259888	19442.048828	7113.277832	33.053257
480.012634	930.687988	19603.611328	7322.625977	34.231052
480.366913	951.167725	20386.390625	7561.555664	34.012409
480.721130	989.851563	20914.312500	7686.709473	33.611237
481.075317	912.483826	21253.365234	8014.384277	34.914417
481.429474	919.310425	22197.705078	8321.579102	34.787720
481.783569	889.728638	23358.220703	8749.377930	34.980759
482.137604	969.371887	24639.339844	9138.491211	34.512589
482.491669	955.718750	26657.726563	10271.701172	36.246128
482.845612	921.585938	29668.240234	11115.918945	35.462677
483.199554	967.096313	33365.960938	12818.008789	36.578171
483.553436	926.136963	38749.843750	15141.315430	37.582722
483.907318	994.402588	46288.644531	17516.958984	36.478271
484.261139	973.922913	52205.000000	20452.380859	38.020782
484.614899	944.341125	54667.113281	21556.007813	38.366718
484.968628	912.483826	54116.437500	21997.458984	39.630466
485.322357	969.371887	51265.207031	20520.646484	38.872551
485.675964	885.177612	47594.792969	18668.373047	38.071808
486.029572	928.412476	43378.253906	17039.099609	37.952293
486.383148	948.892151	40620.320313	15969.605469	37.862797
486.736694	903.381775	38790.804688	15480.368164	38.474476
487.090149	946.616638	39154.886719	15407.551758	37.847660
487.443604	919.310425	40167.492188	15833.074219	37.998608
487.796997	873.799988	42199.535156	16779.689453	38.489067
488.150360	973.922913	43610.355469	17621.632813	39.045734
488.503693	939.790100	43660.417969	17614.806641	39.032703
488.856964	989.851563	42836.679688	17221.140625	38.787380
489.210175	996.678101	40602.117188	16609.025391	39.419708
489.563416	946.616638	38014.851563	15268.744141	38.637199
489.916565	967.096313	35768.910156	14977.477539	40.257618
490.269653	1053.566162	33482.011719	13946.666992	39.758614
490.622772	951.167725	32835.765625	13559.828125	39.544674
490.975769	882.902100	32824.386719	13373.235352	39.103798
491.328735	976.198425	34474.140625	13987.625977	38.842468
491.681732	892.004150	36585.824219	15289.224609	40.335331
492.034607	989.851563	38167.308594	16158.473633	40.800591
492.387482	967.096313	39232.253906	16449.740234	40.461468
492.740326	901.106262	38372.105469	15965.053711	40.201614
493.093079	957.994263	36462.945313	15123.111328	39.896175
493.445862	930.687988	32983.675781	13919.360352	40.522499
493.798523	921.585938	30585.275391	12938.611328	40.510891
494.151215	846.493713	28170.947266	12076.188477	41.097599
494.503815	917.034912	26241.306641	11056.755859	40.039536
494.856384	898.830688	24477.777344	10597.100586	41.131054
495.208923	955.718750	23940.753906	10353.620117	40.887043
495.561432	919.310425	23201.210938	10032.771484	40.900734
495.913879	973.922913	22336.511719	9675.514648	40.732853
496.266296	1003.504700	23110.189453	9939.474609	40.422024
496.618683	946.616638	23171.628906	10069.179688	41.046383
496.970978	946.616638	23879.314453	10421.885742	41.317730
497.323273	894.279663	23672.242188	10137.445313	40.579422
497.675507	964.820801	24120.519531	10535.661133	41.332546
498.027710	948.892151	24172.857422	10364.997070	40.544777
498.379852	921.585938	23870.212891	10057.801758	39.811600
498.731995	921.585938	23221.689453	10449.191406	42.724491
499.084076	928.412476	22894.015625	10176.128906	42.100899
499.436096	957.994263	22841.677734	10169.302734	42.092129
499.788086	921.585938	22238.664063	9789.290039	41.599060
500.140106	1035.361938	21908.714844	9707.372070	41.545837
500.491943	912.483826	21476.365234	9577.666992	42.137882
500.843842	923.861450	21305.701172	9409.278320	41.632244
501.195679	980.749451	20584.361328	9259.093750	42.228672
501.547455	873.799988	20231.656250	9004.235352	42.000706
501.899231	1001.229126	19924.460938	9008.787109	42.316017
502.250885	864.697876	19995.001953	9265.920898	43.915779
502.602600	1014.882263	19715.111328	8867.704102	41.993187
502.954193	892.004150	19863.021484	9056.573242	43.037067
503.305786	942.065613	19844.816406	9209.032227	43.734203
503.657379	948.892151	20204.349609	8986.031250	41.739540
504.008820	1035.361938	19876.673828	9279.574219	43.756039
504.360291	957.994263	20349.982422	9261.370117	42.818588
504.711700	907.932800	20288.542969	9184.001953	42.702835
505.063080	942.065613	20538.851563	9213.583984	42.208549
505.414368	973.922913	20459.207031	9063.399414	41.515827
505.765656	994.402588	20136.083984	9020.164063	41.928196
506.116943	926.136963	20179.318359	9209.032227	43.020920
506.468109	1003.504700	20111.052734	9259.093750	43.205902
506.819305	1001.229126	19776.550781	9158.971680	43.449284
507.170410	923.861450	19837.990234	9102.083008	43.238689
507.521484	976.198425	19913.082031	9063.399414	42.706085
507.872559	964.820801	20115.603516	9138.491211	42.680607
508.223480	912.483826	20415.972656	9243.165039	42.713802
508.574493	985.300537	20450.105469	9534.432617	43.920975
508.925385	901.106262	20764.126953	9265.920898	42.112499
509.276245	983.024963	21073.597656	9511.676758	42.451012
509.627045	985.300537	21235.160156	9796.117188	43.510506
509.977814	948.892151	21576.488281	9689.167969	42.371761
510.328613	953.443237	21649.304688	9755.157227	42.528858
510.679260	1026.259888	21840.449219	10003.189453	43.128895
511.029999	962.545288	22029.316406	9971.332031	42.763016
511.380585	985.300537	22309.205078	10201.160156	43.218441
511.731140	983.024963	22473.042969	10251.221680	43.127914
512.081726	969.371887	22609.574219	10182.956055	42.576237
512.432129	889.728638	22730.177734	10385.476563	43.477806
512.782654	992.127075	23114.740234	10369.547852	42.388397
513.133057	935.239075	22909.943359	10626.682617	44.102722
513.483398	892.004150	22725.626953	10597.100586	44.450233
513.833801	937.514587	22859.882813	10556.140625	43.875851
514.183960	898.830688	22532.207031	10230.741211	43.136631
514.534302	994.402588	22338.787109	10335.415039	43.763325
514.884460	932.963501	22400.226563	10421.885742	44.201824
515.234619	871.524475	22211.359375	10392.303711	44.615059
515.584717	928.412476	22099.857422	10007.740234	42.884781
515.934753	921.585938	22395.675781	10164.750977	43.043339
516.284851	953.443237	22493.523438	10346.792969	43.608704
516.634766	903.381775	22816.646484	10412.783203	43.395638
516.984741	885.177612	22711.972656	10660.815430	44.787327
517.334595	896.555176	23606.251953	10785.968750	43.547096
517.684448	1005.780212	24593.828125	11509.583984	44.530193
518.034363	1012.606750	25588.230469	11666.594727	43.351852
518.384094	901.106262	26298.193359	12053.433594	43.911835
518.733826	946.616638	27722.669922	12453.925781	42.976124
519.083496	901.106262	28175.498047	12813.458008	43.675957
519.433167	932.963501	28450.835938	12906.753906	43.512775
519.782776	980.749451	27954.773438	12874.896484	44.094822
520.132324	892.004150	27854.650391	12660.998047	43.649254
520.481873	919.310425	27131.035156	12463.027344	44.040279
520.831299	903.381775	26502.990234	12265.056641	44.382221
521.180786	905.657288	25560.925781	11896.422852	44.577759
521.530151	998.953613	25533.619141	11621.084961	43.294376
521.879517	957.994263	25080.791016	11445.870117	43.477032
522.228882	928.412476	24575.625000	11491.379883	44.668976
522.578064	955.718750	24891.921875	11461.797852	43.892002
522.927307	894.279663	24814.554688	11482.278320	44.263699
523.276489	969.371887	24725.808594	11482.278320	44.252872
523.625610	980.749451	25042.105469	11375.328125	43.200306
523.974792	930.687988	25433.496094	11746.238281	44.140045
524.323792	905.657288	25990.998047	11976.066406	44.130993
524.672852	896.555176	26853.421875	12328.771484	44.043129
525.021790	964.820801	27781.833984	12515.364258	43.071697
525.370728	907.932800	28746.654297	13295.868164	44.498940
525.719604	939.790100	30480.601563	14012.657227	44.253582
526.068420	957.994263	32041.609375	14558.782227	43.755489
526.417297	980.749451	33274.941406	15330.183594	44.433483
526.765991	905.657288	34094.128906	15671.511719	44.490913
527.114746	951.167725	35347.941406	16001.461914	43.754959
527.463379	973.922913	36383.300781	16715.976563	44.457298
527.812012	951.167725	38768.046875	17692.173828	44.268608
528.160706	998.953613	42026.593750	19421.570313	44.902943
528.509155	948.892151	46812.015625	21408.099609	44.609272
528.857727	946.616638	51590.609375	24100.041016	45.718006
529.206177	955.718750	54471.417969	25483.556641	45.832977
529.554565	955.718750	54412.253906	25463.078125	45.845394
529.902893	971.647400	53010.531250	24937.431641	46.053612
530.251221	910.208313	49868.039063	23041.923828	45.205669
530.599548	901.106262	45956.417969	21189.650391	45.030304
530.947876	930.687988	42479.421875	19387.437500	44.421932
531.296021	955.718750	39432.500000	17658.041016	43.408833
531.644165	942.065613	36918.050781	16743.281250	43.921566
531.992249	946.616638	35259.195313	16199.432617	44.452553
532.340454	948.892151	34246.589844	15459.888672	43.579575
532.688354	955.718750	34417.253906	15912.716797	44.699078
533.036438	953.443237	35850.832031	16549.863281	44.692223
533.384338	948.892151	37823.707031	17239.345703	44.177719
533.732239	882.902100	39896.707031	17633.009766	42.933796
534.080139	987.576050	40165.218750	18126.798828	43.747456
534.427917	976.198425	39487.113281	17787.746094	43.653980
534.775757	907.932800	37568.847656	16904.843750	43.634785
535.123474	901.106262	35800.769531	16192.606445	43.815609
535.471191	896.555176	34123.710938	15166.345703	42.946171
535.818848	901.106262	32644.621094	14661.180664	43.347668
536.166382	957.994263	32000.648438	14547.404297	43.776573
536.513977	962.545288	31848.189453	14467.761719	43.726517
536.861511	1008.055725	32558.152344	14429.077148	42.538765
537.208984	971.647400	32373.833984	14918.314453	44.413044
537.556396	885.177612	32442.099609	14447.281250	42.976635
537.903809	939.790100	31304.339844	14130.984375	43.442749
538.251160	944.341125	30808.275391	13712.288086	42.753735
538.598389	953.443237	29247.269531	13259.459961	43.493645
538.945740	905.657288	28630.603516	13009.152344	43.655613
539.292969	905.657288	28175.498047	12629.140625	42.990658
539.640137	910.208313	28091.304688	12645.069336	43.172878
539.987244	955.718750	28177.773438	12838.488281	43.651260
540.334351	939.790100	28826.296875	13273.113281	44.226849
540.681458	964.820801	30853.787109	14258.413086	44.476585
541.028442	951.167725	33766.453125	15516.776367	44.386658
541.375366	905.657288	37179.734375	16986.763672	44.332226
541.722290	951.167725	39869.398438	18233.748047	44.407413
542.069153	948.892151	41678.437500	18966.466797	44.237110
542.416016	917.034912	41632.929688	18547.769531	43.301846
542.762756	932.963501	40044.613281	18302.013672	44.408894
543.109558	887.453125	38617.863281	17860.562500	44.985222
543.456299	937.514587	37439.144531	17109.640625	44.305218
543.802917	921.585938	35916.820313	16447.464844	44.365696
544.149536	903.381775	34207.902344	15314.254883	43.270023
544.496094	953.443237	31763.994141	14328.954102	43.412113
544.842651	928.412476	30214.365234	13785.105469	43.900547
545.189148	992.127075	28510.000000	13179.816406	44.290085
545.535583	935.239075	27916.089844	13109.275391	45.121021
545.882019	926.136963	27299.423828	12651.895508	44.460739
546.228333	1010.331238	26939.890625	12704.232422	45.098728
546.574707	978.473938	27046.839844	12656.446289	44.797489
546.920898	910.208313	27144.687500	12651.895508	44.756702
547.267212	903.381775	27272.117188	12615.487305	44.416634
547.613342	910.208313	27005.880859	12315.118164	43.704220
547.959473	976.198425	26309.572266	11919.177734	43.195904
548.305664	994.402588	25727.039063	11589.227539	42.837425
548.651611	962.545288	24448.195313	11229.695313	43.716698
548.997742	935.239075	23883.867188	10977.112305	43.758053
549.343689	973.922913	22737.003906	10367.272461	43.161858
549.689575	894.279663	21719.845703	9805.218750	42.788460
550.035522	930.687988	21178.271484	9764.259766	43.627785
550.381287	917.034912	20429.625000	9204.481445	42.472301
550.727173	976.198425	19888.052734	9067.950195	42.786667
551.072876	898.830688	19462.529297	8874.531250	42.963963
551.418640	887.453125	19505.763672	8676.560547	41.835735
551.764282	885.177612	19291.865234	8706.142578	42.489799
552.109863	960.269775	19510.314453	8672.009766	41.572624
552.455505	898.830688	19694.632813	8778.958984	41.924938
552.801025	964.820801	19910.806641	8826.745117	41.496517
553.146545	930.687988	20411.421875	8940.521484	41.116692
553.491943	973.922913	20447.830078	8949.623047	40.955830
553.837341	926.136963	20445.554688	8983.755859	41.280018
554.182800	901.106262	19794.755859	8797.163086	41.792118
554.528015	978.473938	19428.396484	8612.846680	41.378887
554.873352	998.953613	19050.660156	8435.355469	41.195007
555.218628	1014.882263	19157.609375	8451.284180	40.988338
555.563721	887.453125	18595.556641	8107.680664	40.773579
555.908875	903.381775	18445.371094	7984.802734	40.368401
556.254028	935.239075	18147.279297	7836.893555	40.097828
556.599121	914.759338	18131.349609	7652.576660	39.135609
556.944031	951.167725	17751.337891	7752.699219	40.484894
557.289063	914.759338	17762.714844	7661.678711	40.045925
557.633972	978.473938	17557.917969	7809.587402	41.202309
557.978882	935.239075	17387.253906	7723.117676	41.258644
558.323792	964.820801	17503.306641	7525.147461	39.667030
558.668518	996.678101	17362.224609	7491.014648	39.682980
559.013306	978.473938	17232.519531	7425.024414	39.661205
559.358032	960.269775	17346.294922	7429.575195	39.480629
559.702637	901.106262	17141.498047	7356.758789	39.750595
560.047363	953.443237	17055.029297	7270.289063	39.231201
560.391846	930.687988	17284.855469	7249.809082	38.639210
560.736450	960.269775	16902.568359	7113.277832	38.595486
561.080933	892.004150	17373.601563	7315.799316	38.975559
561.425354	987.576050	17450.968750	7372.687500	38.783691
561.769775	944.341125	17655.765625	7409.095703	38.684643
562.114136	923.861450	17519.234375	7527.422852	39.791584
562.458496	921.585938	17596.601563	7293.043945	38.209606
562.802673	894.279663	17548.816406	7247.533691	38.147285
563.146912	953.443237	17400.908203	7215.676270	38.074154
563.491150	942.065613	17430.490234	7179.268066	37.827766
563.835266	960.269775	17255.273438	7090.522949	37.620445
564.179443	1012.606750	17389.529297	7158.788574	37.529526
564.523438	964.820801	16954.906250	7283.941895	39.518993
564.867493	905.657288	17353.121094	7070.042969	37.479252
565.211426	901.106262	17519.234375	7331.728027	38.696423
565.555359	901.106262	17412.285156	7220.227539	38.271770
565.899231	937.514587	17899.246094	7531.973633	38.878452
566.243042	948.892151	18572.800781	7461.432617	36.952873
566.586914	983.024963	18734.363281	7677.607422	37.713116
566.930603	962.545288	19460.253906	7850.546875	37.237053
567.274292	937.514587	19391.988281	7927.914551	37.879158
567.617981	946.616638	19494.386719	7734.495117	36.596737
567.961609	971.647400	18788.974609	7686.709473	37.688377
568.305237	898.830688	18518.187500	7440.953125	37.130314
568.648682	919.310425	18563.699219	7477.361328	37.167912
568.992188	860.146851	18031.226563	7393.166992	38.046646
569.335632	926.136963	18172.308594	7090.522949	35.743504
569.679016	942.065613	17947.033203	7001.777344	35.634953
570.022461	960.269775	17956.134766	6985.848633	35.453205
570.365662	942.065613	18076.736328	7183.819336	36.427628
570.708984	887.453125	17917.451172	7170.166016	36.892036
571.052185	935.239075	18033.501953	7145.135254	36.318871
571.395386	951.167725	18245.125000	7274.839844	36.565788
571.738525	951.167725	18748.015625	7283.941895	35.583687
572.081604	880.626526	19159.884766	7340.830078	35.341717
572.424683	923.861450	19605.886719	7388.616211	34.604145
572.767578	946.616638	19428.396484	7479.636719	35.348438
573.110596	985.300537	19640.019531	7495.565430	34.898754
573.453552	964.820801	19580.857422	7481.912598	35.007942
573.796387	896.555176	19237.251953	7422.749023	35.583130
574.139282	939.790100	19041.558594	7217.952148	34.682590
574.481995	928.412476	19112.099609	7192.921387	34.451256
574.824768	866.973450	18445.371094	7142.859863	35.702263
575.167480	946.616638	18668.373047	7065.492188	34.527477
575.510132	946.616638	18543.218750	7131.482422	35.148067
575.852722	921.585938	18854.964844	7010.879395	33.955082
576.195251	937.514587	18206.441406	6976.746582	34.971668
576.537842	923.861450	18019.849609	6956.267090	35.285503
576.880188	946.616638	17881.042969	6922.134277	35.286213
577.222717	978.473938	17498.755859	6692.306641	34.586777
577.565063	930.687988	17478.275391	6558.050781	34.007149
577.907410	978.473938	16711.423828	6396.488770	34.437374
578.249756	978.473938	16597.648438	6171.212402	33.245918
578.591919	1017.157776	16360.994141	6187.141113	33.694202
578.934204	973.922913	15908.166016	6159.834961	34.724976
579.276306	955.718750	15471.265625	5898.149902	34.049225
579.618469	955.718750	15232.335938	5834.435547	34.172779
579.960571	996.678101	14959.273438	5609.158691	33.034550
580.302551	967.096313	14765.854492	5604.607910	33.608181
580.644531	1023.984375	14865.977539	5529.515625	32.549728
580.986511	935.239075	14490.516602	5529.515625	33.892899
581.328369	917.034912	14590.639648	5436.219238	33.050426
581.670227	901.106262	14265.240234	5438.494629	33.951981
582.012024	928.412476	14358.536133	5367.953613	33.056591
582.353821	907.932800	14253.862305	5258.728516	32.600170
582.695496	907.932800	14313.025391	5295.136719	32.727890
583.037231	962.545288	14112.780273	5133.574707	31.718287
583.378845	942.065613	14090.024414	5210.942871	32.467987
583.720398	944.341125	14260.688477	5008.421387	30.519482
584.062012	864.697876	13769.176758	5163.156738	33.309822
584.403442	923.861450	14051.340820	5160.881348	32.275959
584.744934	969.371887	13823.789063	5245.075684	33.262524
585.086365	1003.504700	13721.390625	5129.023926	32.438717
585.427734	942.065613	13632.645508	4824.104004	30.589920
585.768982	1033.086426	13928.462891	4969.737305	30.527615
586.110291	1005.780212	13796.482422	4869.614746	30.208149
586.451599	951.167725	13443.777344	4951.533203	32.021858
586.792725	955.718750	13578.032227	4728.532227	29.890032
587.133850	937.514587	13646.297852	4749.011719	29.991047
587.474915	951.167725	13823.789063	4951.533203	31.076542
587.815979	976.198425	13521.144531	4944.706543	31.634317
588.157043	1012.606750	13737.319336	4815.001953	29.881973
588.497925	987.576050	13732.767578	4796.797852	29.887520
588.838867	989.851563	14071.820313	4717.154785	28.491913
589.179749	923.861450	14117.331055	4862.788086	29.855124
589.520569	869.248962	14037.687500	4858.236816	30.292034
589.861450	951.167725	14003.554688	4892.369629	30.195259
590.202087	942.065613	14429.077148	4751.287598	28.243631
590.542847	892.004150	14212.903320	4899.196289	30.081993
590.883484	960.269775	14376.740234	4944.706543	29.698099
591.224121	912.483826	14053.616211	4735.358887	29.090910
591.564636	987.576050	14365.363281	4733.083496	27.997959
591.905151	921.585938	14060.443359	4698.950684	28.749567
592.245667	903.381775	13871.575195	4683.021973	29.145464
592.585999	928.412476	13805.584961	4623.858398	28.697649
592.926453	1008.055725	13518.869141	4555.592773	28.355766
593.266724	946.616638	13805.584961	4632.960449	28.667492
593.607056	1026.259888	13655.400391	4403.132813	26.738739
593.947388	967.096313	13958.044922	4419.061523	26.572081
594.287476	889.728638	13771.452148	4546.490723	28.387213
594.627686	967.096313	14210.626953	4450.918457	26.305843
594.967773	969.371887	14353.985352	4498.704590	26.368582
595.307861	948.892151	14383.567383	4387.204102	25.592819
595.647888	976.198425	14394.944336	4569.245605	26.776325
595.987854	892.004150	14724.895508	4607.929688	26.862970
596.327820	953.443237	14788.609375	4482.775879	25.509867
596.667725	885.177612	14986.580078	4819.553223	27.900597
597.007568	946.616638	15919.543945	4808.175293	25.790270
597.347351	912.483826	16158.473633	4958.359863	26.537312
597.687073	969.371887	16611.302734	4935.604492	25.356413
598.026794	1010.331238	16474.771484	4876.440918	24.999996
598.366455	942.065613	16087.931641	4803.624512	25.495794
598.706116	937.514587	15332.458984	4667.093262	25.908947
599.045654	985.300537	15057.121094	4653.439941	26.067270
599.385193	944.341125	14408.597656	4375.826660	25.485889
599.724731	878.351013	14058.167969	4157.376465	24.879141
600.064087	957.994263	13955.769531	4027.671875	23.616947
600.403564	957.994263	13575.756836	4052.702637	24.526602
600.742920	930.687988	13248.082031	3970.783691	24.681322
601.082153	953.443237	13111.550781	3913.895752	24.349617
601.421387	992.127075	13307.246094	3913.895752	23.725054
601.760620	964.820801	13179.816406	3888.864990	23.938150
602.099854	962.545288	13136.582031	3948.028564	24.523363
602.438843	871.524475	13095.622070	3872.936523	24.553240
602.778015	894.279663	13694.083984	4048.151611	24.640001
603.117065	960.269775	13830.615234	3895.691650	22.807638
603.456055	937.514587	13923.912109	3988.988037	23.497459
603.794983	967.096313	14342.607422	3968.508301	22.439608
604.133850	914.759338	14943.344727	4314.387207	24.233578
604.472778	983.024963	15682.889648	4182.407227	21.764706
604.811584	917.034912	16056.075195	4348.520020	22.666464
605.150330	880.626526	16454.291016	4444.092285	22.881357
605.489075	930.687988	16552.138672	4441.816406	22.476326
605.827698	907.932800	16367.821289	4389.479492	22.519869
606.166382	935.239075	16219.912109	4346.244629	22.316511
606.504883	989.851563	15744.328125	4214.264648	21.853796
606.843445	957.994263	15161.794922	4086.835449	22.028198
607.181946	964.820801	14624.772461	4075.457764	22.771948
607.520386	921.585938	14292.545898	3920.722412	22.430225
607.858826	944.341125	13898.880859	3795.568604	22.009485
608.197083	873.799988	13757.798828	3709.098877	22.006357
608.535461	923.861450	13434.674805	3731.854004	22.444525
608.873718	992.127075	13675.879883	3845.630127	22.497307
609.211914	937.514587	14017.208008	3690.894775	21.050800
609.550171	910.208313	14442.730469	3870.660889	21.876577
609.888245	889.728638	14863.702148	3966.232666	22.015957
610.226318	960.269775	14854.599609	4039.049316	22.158531
610.564392	951.167725	15280.122070	3918.446777	20.708273
610.902344	926.136963	14586.087891	3929.824463	21.989006
611.240295	957.994263	14840.946289	3963.957275	21.652187
611.578247	998.953613	14435.904297	3895.691650	21.558001
611.916138	855.595825	14237.933594	3836.528076	22.275122
612.253845	937.514587	13930.738281	3629.455566	20.718037
612.591675	917.034912	13318.623047	3593.047363	21.577982
612.929382	960.269775	12990.948242	3502.026611	21.127295
613.267090	948.892151	12554.047852	3426.934326	21.352943
613.604736	898.830688	12645.069336	3395.077148	21.251455
613.942261	939.790100	12324.220703	3413.281250	21.726965
614.279785	942.065613	12269.608398	3329.086914	21.072718
614.617310	894.279663	11962.413086	3228.964111	21.093750
614.954712	976.198425	11809.953125	3206.208740	20.583910
615.292175	905.657288	11894.147461	3272.198975	21.536551
615.629517	935.239075	11805.402344	3190.280273	20.745239
615.966797	880.626526	11714.380859	3137.943115	20.835960
616.304138	907.932800	11611.982422	3231.239502	21.704931
616.641296	921.585938	11773.544922	3147.045166	20.507442
616.978516	962.545288	11759.891602	3062.851074	19.452053
617.315552	932.963501	11577.849609	3044.646729	19.837536
617.652771	1033.086426	11671.146484	3288.127441	21.197859
617.989685	944.341125	11916.902344	3112.912354	19.763582
618.326721	901.106262	11530.063477	3172.075928	21.365875
618.663696	912.483826	11491.379883	3176.626953	21.402451
619.000549	957.994263	11566.472656	3160.698486	20.763618
619.337463	930.687988	11746.238281	3167.524902	20.681673
619.674194	932.963501	11382.155273	3005.962891	19.838852
620.010986	985.300537	11377.604492	3076.504150	20.122618
620.347778	992.127075	11461.797852	3142.494141	20.539015
620.684387	976.198425	11475.451172	3035.544678	19.614216
621.020996	1053.566162	11338.919922	3110.636963	20.000000
621.357605	992.127075	11425.389648	3065.126465	19.869139
621.694214	976.198425	11470.900391	3060.575439	19.861231
622.030579	951.167725	11250.174805	2960.452637	19.509502
622.367065	923.861450	11077.235352	3033.269287	20.775436
622.703430	942.065613	11068.132813	3042.371338	20.741573
623.039795	926.136963	11218.317383	2935.421875	19.522442
623.376160	1008.055725	11040.827148	2969.554688	19.550919
623.712402	907.932800	10797.346680	2976.381104	20.915781
624.048645	946.616638	10906.571289	2921.768799	19.830935
624.384766	942.065613	10963.458984	2985.483398	20.390554
624.720886	1012.606750	10824.652344	2924.044189	19.480520
625.057007	953.443237	11284.307617	3030.993652	20.110130
625.392944	953.443237	11159.154297	2899.013428	19.063543
625.729004	948.892151	11288.858398	3058.300049	20.400532
626.064941	978.473938	11466.349609	3015.064941	19.418528
626.400818	994.402588	11737.136719	3122.014648	19.805126
626.736633	935.239075	11730.309570	3188.004639	20.868467
627.072449	953.443237	11746.238281	3222.137451	21.020452
627.408264	969.371887	11900.973633	3197.106689	20.378851
627.743896	971.647400	12085.291016	3210.759766	20.147419
628.079590	937.514587	12119.423828	3251.719238	20.695971
628.415161	946.616638	11976.066406	3112.912354	19.641012
628.750793	912.483826	11885.044922	3231.239502	21.132309
629.086365	957.994263	11755.340820	3053.749023	19.409906
629.421753	955.718750	11514.135742	3083.330566	20.150860
629.757263	973.922913	11313.889648	2921.768799	18.838030
630.092651	962.545288	11022.623047	2962.728027	19.882378
630.427917	976.198425	10958.908203	2901.289063	19.284248
630.763184	969.371887	10979.387695	2858.054199	18.867926
631.098511	841.942688	10779.141602	2878.533936	20.494621
631.433716	896.555176	10526.559570	2880.809326	20.604916
631.768799	901.106262	10456.018555	2894.462402	20.862110
632.103943	923.861450	10499.252930	2908.115479	20.722433
632.438965	969.371887	10371.824219	2858.054199	20.087126
632.773987	967.096313	10066.904297	2785.237549	19.979996
633.109070	939.790100	10192.057617	2746.553711	19.527794
633.443848	935.239075	10096.485352	2694.216553	19.200199
633.778870	926.136963	10137.445313	2862.605225	21.022728
634.113708	1035.361938	10522.007813	2757.931152	18.157833
634.448425	930.687988	10358.170898	2678.288086	18.537294
634.783264	960.269775	10296.731445	2726.073975	18.912991
635.117859	942.065613	10201.160156	2753.380127	19.562544
635.452576	973.922913	10303.558594	2746.553711	19.000000
635.787170	976.198425	9925.821289	2719.247314	19.476227
636.121704	953.443237	10178.404297	2737.451416	19.338924
636.456177	907.932800	9652.758789	2680.563477	20.270622
636.790588	892.004150	9896.240234	2628.226563	19.282284
637.125122	962.545288	9630.003906	2673.737061	19.742716
637.459412	901.106262	9545.809570	2648.706299	20.215849
637.793762	973.922913	9472.993164	2676.012451	20.026773
638.128052	887.453125	9356.941406	2664.634766	20.983341
638.462280	928.412476	9341.012695	2557.685303	19.367054
638.796509	978.473938	9031.541992	2532.654541	19.299236
639.130615	960.269775	9129.389648	2427.980713	17.966574
639.464722	919.310425	8735.724609	2564.511963	21.048035
639.798767	937.514587	9074.777344	2503.072998	19.239374
640.132751	892.004150	8883.632813	2432.531738	19.276766
640.466736	866.973450	8769.857422	2521.277100	20.932913
640.800598	980.749451	8644.703125	2480.317627	19.566507
641.134521	967.096313	8619.672852	2425.705078	19.060362
641.468262	898.830688	8601.468750	2425.705078	19.822746
641.802063	948.892151	8644.703125	2427.980713	19.219398
642.135803	939.790100	8678.835938	2377.919189	18.582771
642.469421	951.167725	8512.723633	2443.909424	19.741198
642.803101	964.820801	8282.895508	2346.062012	18.874380
643.136658	937.514587	8346.610352	2373.368164	19.379606
643.470215	998.953613	8519.549805	2371.092773	18.245085
643.803711	912.483826	8419.426758	2375.643799	19.490755
644.137085	994.402588	8467.212891	2350.613037	18.148600
644.470581	914.759338	8510.448242	2341.510986	18.783703
644.803833	973.922913	8298.824219	2325.582275	18.452936
645.137207	919.310425	8303.375000	2330.133301	19.106319
645.470459	953.443237	8385.293945	2405.225586	19.534601
645.803589	1003.504700	8196.425781	2321.031250	18.316990
646.136780	971.647400	8464.937500	2453.011475	19.769207
646.469849	964.820801	8130.436035	2350.613037	19.339474
646.802979	917.034912	8449.008789	2418.878662	19.939577
647.135986	939.790100	8282.895508	2480.317627	20.979239
647.468994	939.790100	8307.926758	2318.755615	18.715256
647.801941	944.341125	8239.661133	2393.847900	19.868996
648.134766	976.198425	8571.886719	2350.613037	18.094667
648.467651	885.177612	8474.039063	2387.021240	19.790106
648.800354	926.136963	8282.895508	2414.327637	20.228889
649.133179	914.759338	8198.701172	2453.011475	21.118402
649.465881	932.963501	8203.252930	2421.154053	20.469481
649.798462	957.994263	8237.385742	2321.031250	18.724600
650.131104	912.483826	8414.875977	2373.368164	19.472246
650.463623	937.514587	8412.600586	2478.042236	20.608828
650.796143	973.922913	8373.916992	2389.296875	19.126692
651.128662	962.545288	8471.763672	2398.398926	19.121214
651.461060	953.443237	8376.192383	2416.603027	19.711832
651.793396	914.759338	8360.263672	2416.603027	20.171148
652.125732	921.585938	8344.334961	2484.868652	21.060698
652.458008	967.096313	8137.262207	2296.000488	18.533800
652.790222	957.994263	8517.274414	2325.582275	18.091511
653.122437	885.177612	8271.518555	2412.052002	20.671595
653.454529	971.647400	8289.722656	2325.582275	18.501242
653.786621	896.555176	8276.069336	2434.807373	20.844898
654.118713	937.514587	8173.670898	2364.266113	19.716980
654.450623	917.034912	8091.751953	2300.551514	19.283222
654.782654	926.136963	8214.629883	2275.520752	18.513893
655.114502	903.381775	7993.904785	2348.337402	20.378689
655.446350	973.922913	7930.189941	2268.694336	18.613022
655.778198	953.443237	8100.854004	2321.031250	19.134035
656.109863	962.545288	7939.291992	2343.786377	19.797783
656.441650	978.473938	7859.648926	2325.582275	19.576721
656.773254	901.106262	7741.321777	2305.102539	20.525616
657.104919	921.585938	8000.730957	2286.898438	19.286404
657.436462	939.790100	7798.209961	2291.449463	19.708029
657.767944	923.861450	7998.455566	2368.817139	20.424574
658.099548	917.034912	7996.180176	2332.408936	19.993572
658.430908	955.718750	8228.283203	2364.266113	19.367960
658.762268	914.759338	8378.467773	2412.052002	20.060976
659.093628	928.412476	8692.489258	2455.286865	19.665886
659.424927	862.422363	8733.449219	2564.511963	21.624746
659.756226	942.065613	9247.716797	2591.818115	19.863010
660.087341	992.127075	9161.247070	2573.614014	19.359331
660.418518	923.861450	9270.471680	2616.848877	20.283533
660.749573	912.483826	9193.104492	2598.644775	20.362734
661.080627	957.994263	9172.624023	2600.920166	20.000000
661.411621	912.483826	9040.644531	2616.848877	20.968643
661.742554	907.932800	8690.213867	2569.062988	21.345028
662.073547	923.861450	8542.304688	2507.624023	20.788532
662.404297	994.402588	8398.947266	2555.409912	21.081745
662.735229	926.136963	8312.477539	2448.460449	20.609982
663.065979	957.994263	8073.547852	2341.510986	19.443556
663.396667	932.963501	8014.384277	2323.306641	19.633675
663.727417	976.198425	7641.198730	2405.225586	21.440765
664.057922	935.239075	7668.504883	2311.929199	20.446100
664.388611	869.248962	7579.759766	2241.387939	20.447607
664.719116	928.412476	7575.208984	2300.551514	20.643614
665.049622	969.371887	7388.616211	2266.418701	20.205601
665.380005	996.678101	7306.697266	2198.153076	19.040751
665.710388	885.177612	7379.514160	2357.439453	22.669935
666.040771	971.647400	7245.258301	2284.622803	20.928543
666.371033	930.687988	7320.350586	2302.827148	21.474360
666.701294	930.687988	7117.829102	2332.408936	22.655390
667.031555	939.790100	7145.135254	2150.367188	19.508619
667.361633	919.310425	7402.269043	2268.694336	20.814323
667.691772	889.728638	7445.503906	2311.929199	21.693857
668.021790	857.871338	7249.809082	2350.613037	23.353510
668.351807	926.136963	7249.809082	2300.551514	21.734438
668.681763	969.371887	7233.880859	2236.836914	20.232473
669.011719	901.106262	7318.074707	2264.143311	21.241138
669.341614	942.065613	7268.013672	2293.724854	21.366901
669.671387	932.963501	7258.911133	2173.122314	19.604317
670.001221	967.096313	7293.043945	2291.449463	20.935253
670.330933	928.412476	7295.319824	2355.164063	22.408865
670.660583	896.555176	7172.441406	2259.592041	21.718636
670.990173	905.657288	7131.482422	2261.867676	21.783625
671.319763	889.728638	7026.808105	2223.183838	21.727846
671.649292	937.514587	7060.940918	2277.796387	21.887775
671.978821	1001.229126	7115.553711	2266.418701	20.692221
672.308289	964.820801	6933.511719	2257.316650	21.654594
672.637695	989.851563	6938.062988	2286.898438	21.805662
672.966980	946.616638	7017.706055	2239.112549	21.289356
673.296326	914.759338	6926.685547	2273.245361	22.596519
673.625610	926.136963	6915.307617	2216.357178	21.542551
673.954773	914.759338	6856.144043	2143.540527	20.681732
674.283936	960.269775	6737.816895	2186.775391	21.228830
674.613037	921.585938	6744.643555	2241.387939	22.665102
674.942078	919.310425	6694.582031	2270.969727	23.404255
675.271118	932.963501	6765.123535	2168.571289	21.186110
675.600098	869.248962	6690.031250	2207.255127	22.986706
675.928955	912.483826	6594.459473	2250.489990	23.548256
676.257813	919.310425	6605.836914	2186.775391	22.288914
676.586670	978.473938	6649.071777	2184.500000	21.268061
676.915466	921.585938	6530.744629	2200.428711	22.799191
677.244141	955.718750	6498.887207	2266.418701	23.645321
677.572876	953.443237	6569.428711	2202.704102	22.244732
677.901489	957.994263	6592.183594	2223.183838	22.455574
678.230042	932.963501	6562.602051	2284.622803	24.009699
678.558594	951.167725	6585.357422	2177.673340	21.768980
678.887085	942.065613	6796.980469	2223.183838	21.881071
679.215515	917.034912	6703.684082	2280.071777	23.554855
679.543945	969.371887	6862.970703	2375.643799	23.861008
679.872253	912.483826	6915.307617	2248.214600	22.251707
680.200562	907.932800	7001.777344	2371.092773	24.010456
680.528809	917.034912	7277.115723	2311.929199	21.932020
680.856995	960.269775	7347.656738	2457.562500	23.441399
681.185120	951.167725	7404.544922	2418.878662	22.743301
681.513306	866.973450	7327.176758	2566.787354	26.312082
681.841309	914.759338	7356.758789	2457.562500	23.949137
682.169373	996.678101	7204.298828	2364.266113	22.030792
682.497314	928.412476	7381.789551	2398.398926	22.778563
682.825134	957.994263	7170.166016	2368.817139	22.710623
683.153076	946.616638	7022.257324	2375.643799	23.520599
683.480896	928.412476	7090.522949	2423.429688	24.261448
683.808655	969.371887	6928.960938	2414.327637	24.245897
684.136414	873.799988	6767.398926	2396.123291	25.830112
684.464050	960.269775	6571.704102	2311.929199	24.087591
684.791626	930.687988	6507.989258	2255.041016	23.745409
685.119263	1001.229126	6546.673340	2282.347412	23.102175
685.446838	912.483826	6558.050781	2334.684326	25.191456
685.774292	980.749451	6362.355957	2280.071777	24.143763
686.101685	960.269775	6287.264160	2182.224365	22.938913
686.429077	957.994263	6241.753418	2305.102539	25.495262
686.756348	937.514587	6407.866699	2241.387939	23.835272
687.083679	962.545288	6223.549316	2179.948975	23.140141
687.410950	896.555176	6275.886230	2305.102539	26.184433
687.738159	1001.229126	6259.957520	2191.326416	22.630894
688.065308	992.127075	6207.620605	2186.775391	22.905758
688.392395	921.585938	6366.907227	2261.867676	24.613455
688.719421	926.136963	6544.397949	2243.663574	23.450792
689.046448	1014.882263	6296.366211	2291.449463	24.170614
689.373413	919.310425	6262.233398	2352.888428	26.831345
689.700317	962.545288	6184.865723	2321.031250	26.013073
690.027100	978.473938	6100.671387	2250.489990	24.833406
690.353943	882.902100	6036.956543	2248.214600	26.490067
690.680725	935.239075	5986.895020	2079.825928	22.657658
691.007446	930.687988	5980.068848	2220.908203	25.552048
691.334106	964.820801	5970.966797	2123.060791	23.136360
691.660645	960.269775	5875.394531	2075.274902	22.685184
691.987244	983.024963	5752.516602	2127.612061	23.998095
692.313721	955.718750	5775.271973	2098.030273	23.701607
692.640259	973.922913	5597.781250	2054.795166	23.375982
692.966675	907.932800	5647.842773	2129.887451	25.780121
693.293030	832.840637	5606.883301	1986.529663	24.165871
693.619324	857.871338	5590.954590	2032.040039	24.807693
693.945618	996.678101	5470.352051	1997.907227	22.380468
694.271851	944.341125	5361.126953	2059.346436	25.244724
694.598083	901.106262	5593.229980	1991.080688	23.229874
694.924194	871.524475	5454.423340	2041.142212	25.521351
695.250244	894.279663	5538.617676	2088.927979	25.722683
695.576294	960.269775	5440.770020	2098.030273	25.393606
695.902283	855.595825	5443.045898	2166.295898	28.571428
696.228210	962.545288	5356.576172	2077.550537	25.375454
696.554138	923.861450	5402.086426	2072.999512	25.660570
696.879944	894.279663	5584.127930	2057.070801	24.793791
697.205750	903.381775	5593.229980	2075.274902	24.987867
697.531433	962.545288	5750.241211	2141.265137	24.619774
697.857178	971.647400	5798.026855	2102.581299	23.432344
698.182739	962.545288	5889.047852	2255.041016	26.235565
698.508423	971.647400	6232.651367	2157.193604	22.534599
698.833984	985.300537	6385.111328	2318.755615	24.694479
699.159485	978.473938	6710.510742	2371.092773	24.295359
699.484924	960.269775	6769.674316	2507.624023	26.635334
699.810303	960.269775	6935.787598	2471.215576	25.285606
700.135681	953.443237	6851.593262	2496.246338	26.157408
700.460999	987.576050	6774.225586	2530.379150	26.661423
700.786255	1001.229126	6505.713867	2375.643799	24.968998
701.111450	998.953613	6485.234375	2289.173828	23.517210
701.436646	889.728638	6271.335449	2286.898438	25.961945
701.761719	889.728638	6011.925781	2214.081787	25.855177
702.086792	1044.463989	5916.354004	2239.112549	24.521254
702.411865	919.310425	5700.179688	2093.479248	24.559736
702.736816	978.473938	5456.698730	2111.683350	25.304882
703.061646	1001.229126	5413.463867	2109.407715	25.116037
703.386536	948.892151	5210.942871	2075.274902	26.428188
703.711365	976.198425	5081.237793	2084.376953	26.995562
704.036194	885.177612	5019.798828	1950.121338	25.756742
704.360901	948.892151	4969.737305	1943.294800	24.731184
704.685547	994.402588	5115.370605	2027.489014	25.069025
705.010132	989.851563	4885.542969	1984.254150	25.525702
705.334717	1023.984375	4739.909668	1970.601074	25.474588
705.659302	903.381775	4810.451172	2032.040039	28.887590
705.983765	889.728638	4892.369629	1904.610962	25.355316
706.308228	892.004150	4883.267578	1970.601074	27.023947
706.632568	926.136963	4685.297363	1888.682251	25.605326
706.956909	935.239075	4796.797852	1954.672363	26.399527
707.281189	989.851563	4708.052734	1900.059814	24.479801
707.605408	980.749451	4667.093262	1993.356201	27.469135
707.929626	905.657288	4830.930664	1954.672363	26.724638
708.253784	1010.331238	4862.788086	1972.876587	24.985233
708.577820	951.167725	4783.144531	1959.223389	26.306414
708.901855	973.922913	4844.583984	1959.223389	25.455612
709.225830	921.585938	4855.961426	1993.356201	27.241179
709.549805	919.310425	4867.338867	1875.029175	24.207495
709.873718	837.391663	4849.134766	1966.049927	28.133860
710.197510	1028.535400	4824.104004	1938.743774	23.980818
710.521362	935.239075	4906.022949	1911.437500	24.584526
710.845093	964.820801	5088.064453	2025.213501	25.717440
711.168701	987.576050	5053.931641	2013.835938	25.237831
711.492432	948.892151	4985.666016	1995.631714	25.930099
711.816040	921.585938	4997.043457	1956.947876	25.404802
712.139587	942.065613	5138.125977	2072.999512	26.952276
712.463074	898.830688	5201.840332	2079.825928	27.445795
712.786499	937.514587	5065.309082	2002.458252	25.799337
713.109924	1001.229126	5065.309082	2075.274902	26.427771
713.433350	971.647400	5119.921875	1977.427612	24.245749
713.756592	921.585938	4960.635254	1950.121338	25.464788
714.079834	907.932800	4983.390625	1954.672363	25.683973
714.403015	973.922913	4744.460938	1922.815063	25.165960
714.726196	1001.229126	4953.808594	1977.427612	24.697756
715.049255	869.248962	4833.206055	1886.406738	25.660162
715.372375	905.657288	4735.358887	1913.713013	26.322042
715.695435	998.953613	4710.328125	1902.335449	24.340897
716.018311	967.096313	4774.042480	1863.651489	23.550508
716.341248	983.024963	4880.992188	1950.121338	24.810274
716.664063	946.616638	4769.491699	1988.805176	27.261904
716.987000	953.443237	4680.746094	1890.957764	25.152626
717.309692	864.697876	4744.460938	2066.172852	30.967739
717.632385	978.473938	4767.216309	1929.641602	25.105103
717.955078	937.514587	4571.521484	1790.834839	23.481525
718.277649	932.963501	4594.276367	1861.375977	25.357365
718.600220	983.024963	4505.531250	1879.580200	25.452196
718.922791	901.106262	4425.888184	1786.283813	25.112972
719.245300	971.647400	4441.816406	1875.029175	26.032789
719.567688	919.310425	4341.693848	1840.896362	26.928192
719.890015	912.483826	4177.855957	1713.467163	24.529619
720.212341	967.096313	4127.794922	1713.467163	23.614109
720.534607	928.412476	4080.008789	1718.018188	25.054152
720.856873	994.402588	4175.580566	1747.599976	23.676682
721.179016	937.514587	4114.141602	1772.630737	26.289400
721.501160	980.749451	4202.886719	1615.619751	19.703392
721.823242	905.657288	4027.671875	1604.242188	22.376093
722.145264	983.024963	3927.548828	1613.344238	21.406492
722.467224	971.647400	3932.099854	1695.262939	24.442736
722.789185	973.922913	3957.130615	1702.089600	24.408850
723.111023	921.585938	3838.803711	1615.619751	23.790949
723.432861	919.310425	3909.344727	1677.058838	25.342466
723.754578	973.922913	3932.099854	1715.742676	25.076923
724.076294	937.514587	3843.354736	1638.375000	24.119028
724.397949	960.269775	3779.640137	1667.956787	25.100889
724.719666	946.616638	3982.161377	1579.211426	20.839581
725.041260	892.004150	3731.854004	1626.997314	25.881409
725.362732	971.647400	3893.416016	1697.538574	24.844240
725.684265	912.483826	3920.722412	1611.068726	23.222391
726.005676	912.483826	3841.079102	1622.446289	24.242424
726.327087	912.483826	3829.701416	1545.078613	21.684868
726.648438	994.402588	3938.926514	1652.028076	22.333847
726.969666	969.371887	3943.477539	1683.885376	24.024483
727.290894	976.198425	3904.793701	1674.783325	23.853926
727.612061	978.473938	3936.650879	1695.262939	24.230768
727.933228	971.647400	4009.467773	1615.619751	21.198500
728.254395	903.381775	4070.906738	1672.507813	24.281610
728.575378	987.576050	4130.070313	1697.538574	22.592325
728.896301	957.994263	4034.498291	1706.640625	24.334322
729.217285	935.239075	4084.559814	1788.559326	27.095373
729.538147	912.483826	4093.661865	1724.844727	25.536480
729.858948	1033.086426	4084.559814	1699.814087	21.849369
730.179810	953.443237	4107.314941	1718.018188	24.242424
730.500549	980.749451	4159.651855	1681.609863	22.047245
730.821228	962.545288	4086.835449	1768.079712	25.782959
731.141846	942.065613	4098.212891	1665.681274	22.927183
731.462402	892.004150	4016.294189	1738.497925	27.093956
731.782898	921.585938	4193.784668	1681.609863	23.226704
732.103455	973.922913	4280.254395	1772.630737	24.156919
732.423889	955.718750	4166.478516	1704.365112	23.316797
732.744263	971.647400	4141.447754	1720.293701	23.618090
733.064636	921.585938	4186.958496	1779.457275	26.271774
733.384888	962.545288	4271.152344	1720.293701	22.902340
733.705200	942.065613	4248.397461	1697.538574	22.849279
734.025330	953.443237	4145.999023	1777.181763	25.801853
734.345520	923.861450	4280.254395	1784.008301	25.627119
734.665527	976.198425	4234.744141	1722.569214	22.905027
734.985596	923.861450	4082.284424	1686.160889	24.135447
735.305542	967.096313	3918.446777	1686.160889	24.363916
735.625549	953.443237	3882.038574	1677.058838	24.708624
735.945435	907.932800	3932.099854	1713.467163	26.636570
736.265259	964.820801	3861.558838	1670.232300	24.351927
736.585083	930.687988	3861.558838	1633.823975	23.990685
736.904785	937.514587	3759.160400	1645.201538	25.080645
737.224426	930.687988	3852.456787	1706.640625	26.557632
737.544128	944.341125	3752.333740	1608.793213	23.662886
737.863708	978.473938	3720.476563	1658.854614	24.813276
738.183289	905.657288	3695.445801	1699.814087	28.466558
738.502808	1003.504700	3777.364502	1640.650513	22.969646
738.822205	823.738525	3763.711426	1672.507813	28.869970
739.141541	971.647400	3841.079102	1718.018188	26.011103
739.460938	1010.331238	3918.446777	1740.773438	25.117373
739.780212	973.922913	3995.814453	1752.151001	25.753012
740.099426	960.269775	3913.895752	1683.885376	24.499229
740.418640	937.514587	3954.855225	1677.058838	24.509804
740.737793	921.585938	3845.630127	1642.926025	24.669260
741.056885	928.412476	3920.722412	1617.895264	23.041822
741.375977	946.616638	3845.630127	1731.671387	27.080067
741.694946	951.167725	3754.609375	1681.609863	26.055193
742.013855	928.412476	3718.200928	1617.895264	24.714518
742.332703	907.932800	3688.619141	1638.375000	26.268415
742.651550	905.657288	3606.700439	1620.170776	26.453241
742.970398	919.310425	3558.914551	1579.211426	25.000000
743.289124	892.004150	3606.700439	1626.997314	27.074600
743.607788	957.994263	3563.465576	1615.619751	25.240175
743.926453	935.239075	3470.169189	1522.323364	23.159782
744.245056	967.096313	3492.924316	1645.201538	26.846848
744.563599	985.300537	3417.832275	1647.477051	27.221701
744.882141	971.647400	3454.240479	1563.282837	23.831350
745.200500	907.932800	3438.312012	1581.486938	26.618704
745.518860	896.555176	3451.965088	1613.344238	28.049866
745.837219	919.310425	3517.955078	1672.507813	28.984241
746.155518	901.106262	3440.587402	1617.895264	28.225805
746.473755	919.310425	3411.005615	1535.976563	24.748857
746.791992	923.861450	3365.495361	1542.803101	25.349487
747.110107	964.820801	3370.046387	1595.140137	26.206245
747.428162	964.820801	3281.301025	1565.558350	25.933205
747.746216	919.310425	3445.138428	1529.150024	24.144144
748.064148	887.453125	3392.801514	1506.394775	24.704813
748.382080	930.687988	3322.260254	1579.211426	27.117033
748.700073	1008.055725	3417.832275	1592.864502	24.268173
749.017822	951.167725	3404.179199	1556.456177	24.675322
749.335632	1001.229126	3331.362549	1561.007324	24.023441
749.653320	939.790100	3438.312012	1549.629639	24.408012
749.971008	930.687988	3399.628174	1572.384888	25.990784
750.288696	948.892151	3385.974854	1588.313477	26.237162
750.606262	983.024963	3458.791504	1629.272949	26.102945
750.923828	921.585938	3349.566650	1531.425537	25.117151
751.241272	876.075500	3304.056152	1558.731689	28.116211
751.558716	946.616638	3358.668701	1604.242188	27.264153
751.876038	946.616638	3420.107666	1533.701050	23.735054
752.193481	951.167725	3354.117676	1563.282837	25.473486
752.510681	987.576050	3322.260254	1533.701050	23.391815
752.827942	992.127075	3326.811523	1599.691162	26.023390
753.145081	903.381775	3272.198975	1576.935913	28.434196
753.462219	937.514587	3263.096924	1611.068726	28.962816
753.779297	1001.229126	3226.688477	1649.752563	29.141104
754.096375	976.198425	3224.413086	1579.211426	26.821861
754.413330	973.922913	3210.759766	1513.221313	24.109867
754.730286	983.024963	3190.280273	1540.527588	25.257730
755.047119	953.443237	3137.943115	1558.731689	27.708330
755.363892	935.239075	3142.494141	1624.721802	31.237110
755.680725	983.024963	3162.973877	1579.211426	27.348642
755.997498	957.994263	3331.362549	1535.976563	24.352829
756.314148	962.545288	3267.647949	1526.874512	24.481741
756.630737	935.239075	3213.035400	1570.109375	27.872128
756.947327	946.616638	3192.555664	1545.078613	26.646404
757.263855	914.759338	3194.831299	1497.292725	25.548903
757.580261	910.208313	3096.983887	1579.211426	30.593130
757.896729	887.453125	3128.841064	1513.221313	27.918781
758.213074	989.851563	3228.964111	1572.384888	26.016260
758.529419	930.687988	3249.443604	1533.701050	26.005892
758.845642	910.208313	3199.382324	1545.078613	27.733597
759.161865	946.616638	3381.423828	1649.752563	28.878506
759.478149	967.096313	3367.770752	1542.803101	23.981045
759.794189	894.279663	3365.495361	1633.823975	29.926334
760.110229	957.994263	3322.260254	1620.170776	28.007698
760.426270	985.300537	3324.535889	1626.997314	27.431904
760.742249	917.034912	3329.086914	1667.956787	31.132076
761.058105	989.851563	3276.750000	1611.068726	27.164179
761.374023	955.718750	3354.117676	1561.007324	25.237194
761.689819	942.065613	3299.505127	1590.588989	27.509651
762.005554	930.687988	3351.842041	1638.375000	29.229326
762.321289	955.718750	3242.617188	1506.394775	24.079601
762.636902	948.892151	3290.403076	1695.262939	31.875605
762.952515	983.024963	3449.689453	1713.467163	29.612547
763.268127	946.616638	3463.342773	1681.609863	29.204340
763.583618	917.034912	3618.078125	1663.405762	27.632689
763.899048	962.545288	4036.773926	1770.355225	26.276834
764.214478	976.198425	4378.102051	1879.580200	26.555185
764.529785	973.922913	4696.674805	1945.570313	26.100246
764.845093	1033.086426	4796.797852	2070.723877	27.569527
765.160400	910.208313	4769.491699	1929.641602	26.415092
765.475586	971.647400	4541.939453	1934.192627	26.959846
765.790771	976.198425	4423.612305	1881.855713	26.270628
766.105835	960.269775	4262.050293	1740.773438	23.638872
766.420837	889.728638	3847.905762	1827.243164	31.692305
766.735840	932.963501	3845.630127	1754.426514	28.203127
767.050842	912.483826	3761.435791	1799.937012	31.150164
767.365662	939.790100	3583.945313	1679.334351	27.969017
767.680542	912.483826	3529.332764	1604.242188	26.434784
767.995300	894.279663	3470.169189	1604.242188	27.561838
768.309998	896.555176	3533.883789	1558.731689	25.107849
768.624817	853.320313	3461.067139	1556.456177	26.963348
768.939392	910.208313	3308.607178	1567.833862	27.419357
769.254028	937.514587	3310.882813	1604.242188	28.092043
769.568481	948.892151	3101.534912	1529.150024	26.955605
769.882935	914.759338	3108.361328	1576.935913	30.186724
770.197388	935.239075	3233.515137	1515.496826	25.247520
770.511841	932.963501	3256.270264	1561.007324	27.032326
770.826172	944.341125	3099.259277	1522.323364	26.821539
771.140442	892.004150	3112.912354	1515.496826	28.073771
771.454651	951.167725	2976.381104	1597.415649	31.910116
771.768860	946.616638	3083.330566	1479.088501	24.920130
772.082886	896.555176	2965.003662	1551.905151	31.683167
772.397034	973.922913	3005.962891	1483.639526	25.083984
772.711060	957.994263	2951.350586	1513.221313	27.853878
773.025024	887.453125	2994.585449	1508.670288	29.481640
773.338928	946.616638	2919.493164	1472.261963	26.643600
773.652771	923.861450	2805.717041	1465.435425	28.778721
773.966614	971.647400	2839.849854	1410.822876	23.507917
774.280457	955.718750	2848.952148	1451.782227	26.201920
774.594116	910.208313	2892.187012	1492.741699	29.391504
774.907776	887.453125	2805.717041	1422.200562	27.876635
775.221375	848.769287	2780.686523	1381.241089	27.561832
775.534912	953.443237	2746.553711	1472.261963	28.934008
775.848450	894.279663	2730.625000	1399.445313	27.509295
776.161926	967.096313	2748.829102	1385.792114	23.499359
776.475342	917.034912	2614.573486	1403.996338	28.686325
776.788696	946.616638	2771.584229	1403.996338	25.062347
777.101990	944.341125	2737.451416	1328.904175	21.446703
777.415283	971.647400	2737.451416	1424.476074	25.644335
777.728516	921.585938	2851.227539	1476.812988	28.773584
778.041626	967.096313	2616.848877	1408.547363	26.758621
778.354736	962.545288	2705.594238	1413.098389	25.848562
778.667725	951.167725	2723.798340	1374.414551	23.876764
778.980774	932.963501	2707.869873	1385.792114	25.512817
779.293640	921.585938	2694.216553	1358.485962	24.646986
779.606567	987.576050	2653.257324	1378.965576	23.497265
779.919434	967.096313	2721.522949	1353.934937	22.049290
780.232239	946.616638	2698.767578	1415.373901	26.753248
780.544983	907.932800	2744.278076	1401.720825	26.889717
780.857666	860.146851	2619.124512	1385.792114	29.883566
781.170227	953.443237	2707.869873	1401.720825	25.551229
781.482849	978.473938	2607.746826	1385.792114	24.999996
781.795410	976.198425	2519.001465	1363.036987	25.073750
782.107910	985.300537	2578.165039	1349.383789	22.857140
782.420288	944.341125	2498.521729	1356.210449	26.500736
782.732666	1008.055725	2591.818115	1390.343262	24.137934
783.044983	912.483826	2471.215576	1392.618774	30.802925
783.357300	948.892151	2550.858887	1360.761475	25.710228
783.669495	969.371887	2514.450439	1253.812012	18.409428
783.981689	914.759338	2623.675537	1424.476074	29.826900
784.293762	983.024963	2425.705078	1333.455200	24.290224
784.605835	923.861450	2539.481201	1431.302612	31.408453
784.917908	882.902100	2521.277100	1419.924927	32.777771
785.229858	905.657288	2464.388916	1454.057739	35.182480
785.541748	876.075500	2489.419678	1401.720825	32.581100
785.853577	967.096313	2434.807373	1365.312500	27.131783
786.165405	844.218201	2443.909424	1322.077637	29.871981
786.477173	953.443237	2503.072998	1347.108276	25.403812
786.788879	935.239075	2371.092773	1363.036987	29.793976
787.100525	967.096313	2396.123291	1358.485962	27.388542
787.412109	967.096313	2427.980713	1290.220337	22.118383
787.723694	1035.361938	2382.470215	1290.220337	18.918924
788.035156	921.585938	2450.735840	1299.322388	24.702381
788.346558	919.310425	2432.531738	1360.761475	29.172934
788.658081	985.300537	2459.837891	1331.179688	23.456791
788.969360	962.545288	2539.481201	1435.853638	30.014431
789.280640	971.647400	2580.440674	1406.271851	27.015556
789.591919	996.678101	2687.390137	1333.455200	19.919247
789.903076	937.514587	2712.420898	1433.578125	27.948717
790.214172	955.718750	2628.226563	1399.445313	26.530613
790.525269	967.096313	2528.103516	1372.139038	25.947525
790.836365	953.443237	2534.930176	1347.108276	24.892082
791.147339	983.024963	2473.491211	1413.098389	28.854958
791.458191	957.994263	2437.082764	1385.792114	28.923073
791.769104	957.994263	2402.949951	1335.730713	26.141733
792.079895	960.269775	2430.256104	1342.557251	26.006193
792.390686	892.004150	2412.052002	1312.975464	27.694609
792.701416	882.902100	2509.899414	1315.250977	26.573423
793.012085	944.341125	2289.173828	1299.322388	26.395941
793.322693	928.412476	2341.510986	1347.108276	29.629625
793.633240	973.922913	2327.857666	1353.934937	28.067232
793.943787	948.892151	2282.347412	1292.495850	25.767920
794.254272	944.341125	2266.418701	1331.179688	29.259897
794.564636	912.483826	2243.663574	1324.353149	30.940174
794.875000	967.096313	2371.092773	1319.802124	25.121559
795.185303	903.381775	2334.684326	1228.781250	22.734501
795.495544	937.514587	2175.397949	1283.393677	27.941172
795.805786	937.514587	2339.235352	1342.557251	28.896103
796.115906	994.402588	2368.817139	1312.975464	23.178806
796.426025	980.749451	2355.164063	1333.455200	25.662254
796.736023	971.647400	2352.888428	1349.383789	27.347610
797.045959	901.106262	2346.062012	1292.495850	27.086613
797.355896	921.585938	2264.143311	1319.802124	29.661018
797.665833	953.443237	2359.715088	1303.873413	24.919092
797.975708	955.718750	2364.266113	1317.526489	25.686586
798.285461	885.177612	2446.184814	1287.944824	25.801752
798.595154	903.381775	2323.306641	1413.098389	35.897438
798.904846	919.310425	2311.929199	1224.230225	21.895426
799.214478	930.687988	2298.276123	1315.250977	28.119795
799.524109	957.994263	2327.857666	1333.455200	27.408640
799.833557	1012.606750	2218.632813	1299.322388	23.773584
800.143005	942.065613	2220.908203	1187.821899	19.217087
800.452393	951.167725	2166.295898	1278.842651	26.966286
800.761780	869.248962	2189.051025	1258.363037	29.482761
801.071106	1003.504700	2277.796387	1317.526489	24.642849
801.380371	896.555176	2107.132324	1310.699951	34.210522
801.689575	917.034912	2152.642578	1228.781250	25.230204
801.998718	873.799988	2164.020264	1256.087524	29.629635
802.307800	919.310425	2104.856689	1251.536499	28.023037
802.616882	996.678101	2138.989502	1322.077637	28.486063
802.925903	946.616638	2216.357178	1342.557251	31.182798
803.234863	942.065613	2107.132324	1249.260864	26.367182
803.543701	892.004150	2204.979736	1237.883301	26.343151
803.852539	992.127075	2104.856689	1303.873413	28.016361
804.161316	944.341125	2050.244141	1221.954712	25.102886
804.470032	928.412476	2123.060791	1272.016113	28.761908
804.778809	944.341125	2143.540527	1219.679199	22.960157
805.087341	903.381775	2118.509766	1244.709839	28.089888
805.395935	926.136963	2170.846924	1226.505737	24.131628
805.704468	985.300537	2066.172852	1215.128052	21.263151
806.012939	969.371887	2086.652588	1190.097412	19.755600
806.321350	951.167725	2138.989502	1240.158813	24.329498
806.629761	937.514587	2161.744873	1351.659302	33.828991
806.938049	928.412476	2191.326416	1297.046875	29.189194
807.246277	896.555176	2195.877686	1317.526489	32.399292
807.554504	969.371887	2223.183838	1333.455200	29.038111
807.862671	1010.331238	2111.683350	1328.904175	28.925623
808.170715	948.892151	2209.530762	1260.638550	24.729242
808.478821	953.443237	2154.918213	1301.597900	28.977272
808.786804	1008.055725	2104.856689	1231.056763	20.331949
809.094727	953.443237	2068.448486	1324.353149	33.265305
809.402649	1019.433350	2134.438477	1253.812012	21.020411
809.710510	996.678101	2123.060791	1285.669312	25.656574
810.018311	996.678101	2134.438477	1267.465088	23.800001
810.326050	960.269775	2032.040039	1215.128052	23.779188
810.633667	930.687988	2107.132324	1192.372925	22.243715
810.941345	898.830688	2041.142212	1294.771362	34.661358
811.248901	914.759338	2054.795166	1262.914063	30.538927
811.556396	944.341125	1927.366089	1155.964600	21.527782
811.863892	955.718750	1993.356201	1183.270874	21.929829
812.171326	885.177612	1991.080688	1272.016113	34.979424
812.478699	969.371887	2025.213501	1233.332275	25.000000
812.786011	944.341125	1906.886475	1265.189575	33.333332
813.093262	939.790100	2000.182739	1256.087524	29.828333
813.400391	932.963501	1959.223389	1219.679199	27.937923
813.707642	987.576050	1929.641602	1201.474976	22.705313
814.014709	921.585938	1920.539551	1233.332275	31.207289
814.321716	978.473938	1959.223389	1196.923950	22.273785
814.628723	985.300537	1847.722900	1244.709839	30.079149
814.935669	989.851563	1972.876587	1187.821899	20.138891
815.242554	928.412476	1877.304688	1185.546387	27.098326
815.549438	944.341125	2047.968750	1133.209351	17.113400
815.856201	992.127075	1945.570313	1201.474976	21.957039
816.162964	957.994263	1988.805176	1251.536499	28.476826
816.469604	996.678101	1977.427612	1306.148926	31.554522
816.776184	871.524475	1979.703125	1185.546387	28.336758
817.082825	889.728638	2050.244141	1140.035889	21.568626
817.389343	957.994263	2011.560425	1185.546387	21.598276
817.695801	957.994263	2018.386963	1256.087524	28.111591
818.002197	946.616638	2009.284912	1206.026001	24.411135
818.308533	939.790100	2022.937988	1246.985352	28.361338
818.614868	953.443237	1943.294800	1278.842651	32.873558
818.921143	978.473938	2009.284912	1226.505737	24.061811
819.227356	901.106262	2013.835938	1240.158813	30.470341
819.533447	823.738525	2000.182739	1246.985352	35.976788
819.839539	919.310425	2068.448486	1265.189575	30.099007
820.145569	919.310425	2134.438477	1315.250977	32.584267
820.451538	889.728638	2204.979736	1335.730713	33.910034
820.757568	903.381775	2309.653564	1392.618774	34.789650
821.063416	994.402588	2496.246338	1474.537476	31.969696
821.369263	932.963501	2721.522949	1472.261963	30.152672
821.675049	946.616638	2660.083740	1454.057739	29.614874
821.980713	878.351013	2767.033203	1520.047852	33.975906
822.286438	964.820801	3213.035400	1608.793213	28.643724
822.592102	932.963501	4059.529053	1838.620850	28.966524
822.897583	937.514587	5884.496582	2487.144287	31.324749
823.203125	935.239075	8271.518555	3185.729004	30.676176
823.508545	932.963501	9903.066406	3643.108887	30.213095
823.813965	957.994263	10421.885742	3868.385254	30.752583
824.119263	978.473938	9375.145508	3411.005615	28.970190
824.424622	962.545288	7884.679688	3017.340576	29.684420
824.729858	887.453125	6753.745605	2751.104736	31.768816
825.035095	987.576050	5838.986328	2412.052002	29.362101
825.340149	887.453125	5072.135742	2227.734863	32.028278
825.645264	892.004150	4689.848145	2013.835938	29.538649
825.950256	942.065613	4200.611328	2013.835938	32.891060
826.255310	967.096313	4082.284424	1852.273926	28.414902
826.560242	987.576050	3797.844238	1795.385864	28.744938
826.865112	971.647400	3597.598389	1768.079712	30.329292
827.169922	892.004150	3338.188965	1704.365112	33.209305
827.474670	935.239075	3618.078125	1806.763550	32.485157
827.779419	948.892151	4177.855957	1890.957764	29.175478
828.084045	996.678101	4651.164551	2127.612061	30.946455
828.388672	921.585938	5012.972168	2225.459229	31.868742
828.693176	855.595825	4974.288574	2054.795166	29.116018
828.997681	903.381775	4305.285156	1968.325439	31.304346
829.302124	896.555176	3811.497314	1868.202637	33.333336
829.606567	946.616638	3467.893799	1763.528564	32.400719
829.910828	919.310425	3128.841064	1613.344238	31.410913
830.215149	960.269775	2839.849854	1549.629639	31.355932
830.519348	910.208313	2682.839111	1497.292725	33.119385
830.823547	937.514587	2682.839111	1481.364014	31.160362
831.127686	928.412476	2473.491211	1399.445313	30.486010
831.431763	896.555176	2391.572266	1310.699951	27.701675
831.735779	917.034912	2220.908203	1372.139038	34.904015
832.039734	967.096313	2161.744873	1358.485962	32.761906
832.343628	971.647400	2214.081787	1328.904175	28.754580
832.647461	973.922913	2161.744873	1326.628662	29.693485
832.951233	957.994263	2057.070801	1219.679199	23.809528
833.255127	946.616638	2098.030273	1317.526489	32.213432
833.558777	969.371887	2132.163086	1235.607788	22.896276
833.862366	967.096313	2257.316650	1326.628662	27.865965
834.165955	946.616638	2587.267090	1413.098389	28.432734
834.469482	1010.331238	3008.238525	1586.037964	28.815489
834.773010	948.892151	3347.291016	1640.650513	28.842506
835.076416	1012.606750	3479.271240	1697.538574	27.767530
835.379822	946.616638	3415.556641	1715.742676	31.152075
835.683105	998.953613	3115.187988	1572.384888	27.096775
835.986389	946.616638	2899.013428	1526.874512	29.720285
836.289612	910.208313	2803.441650	1506.394775	31.490383
836.592773	928.412476	2582.716064	1408.547363	29.023384
836.895874	939.790100	2393.847900	1367.588013	29.420969
837.198914	1008.055725	2284.622803	1342.557251	26.203207
837.501892	910.208313	2232.285889	1272.016113	27.366608
837.804871	939.790100	2070.723877	1294.771362	31.388332
838.107666	955.718750	2032.040039	1176.444214	20.507395
838.410583	992.127075	1984.254150	1237.883301	24.770639
838.713379	914.759338	1856.824951	1226.505737	33.091793
839.016052	953.443237	1811.314575	1174.168701	25.729437
839.318787	973.922913	1822.692139	1124.107300	17.694372
839.621338	919.310425	1886.406738	1203.750488	29.411762
839.923889	923.861450	1770.355225	1180.995239	30.376335
840.226440	996.678101	1699.814087	1155.964600	22.653727
840.528931	907.932800	1859.100464	1153.689087	25.837326
840.831299	910.208313	1952.396851	1201.474976	27.947599
841.133606	903.381775	2075.274902	1212.852539	26.407764
841.435913	973.922913	2075.274902	1274.291626	27.272724
841.738220	942.065613	1972.876587	1249.260864	29.801315
842.040405	901.106262	1877.304688	1135.484863	24.009319
842.342529	876.075500	1740.773438	1283.393677	47.105255
842.644592	930.687988	1831.794189	1149.138062	24.242434
842.946594	980.749451	1722.569214	1103.627563	16.564417
843.248596	960.269775	1681.609863	1187.821899	31.545748
843.550598	953.443237	1677.058838	1162.791138	28.930817
843.852478	946.616638	1622.446289	1160.515625	31.649837
844.154236	951.167725	1535.976563	1080.872437	22.178993
844.455994	969.371887	1556.456177	1094.525513	21.317829
844.757690	919.310425	1547.354126	1153.689087	37.318848
845.059326	967.096313	1526.874512	1060.392700	16.666670
845.360962	1001.229126	1533.701050	1117.280762	21.794884
845.662476	953.443237	1515.496826	1146.862427	34.412945
845.963989	905.657288	1474.537476	1078.596802	30.399988
846.265381	910.208313	1463.159912	1071.770264	29.218100
846.566772	921.585938	1488.190552	1083.147949	28.514065
846.868042	985.300537	1415.373901	1062.668213	17.989414
847.169373	987.576050	1479.088501	1076.321289	18.055542
847.470581	946.616638	1465.435425	1135.484863	36.403507
847.771729	846.493713	1490.466064	1003.504700	24.381636
848.072815	967.096313	1417.649414	1126.382813	35.353546
848.373901	942.065613	1435.853638	1101.352051	32.258060
848.674866	964.820801	1474.537476	1076.321289	21.874992
848.975891	926.136963	1454.057739	1062.668213	25.862072
849.276794	939.790100	1469.986450	1085.423462	27.467817
849.577637	923.861450	1451.782227	1176.444214	47.844822
849.878357	971.647400	1363.036987	1087.698975	29.651165
850.179077	983.024963	1397.169800	1046.739624	15.384632
850.479736	946.616638	1374.414551	1028.535400	19.148939
850.780396	953.443237	1401.720825	1026.259888	16.243652
851.080994	994.402588	1429.027100	1080.872437	19.895300
851.381470	973.922913	1403.996338	1055.841675	19.047623
851.681946	948.892151	1369.863525	1053.566162	24.864876
851.982361	955.718750	1394.894287	1092.250000	31.088081
852.282715	985.300537	1390.343262	1049.015137	15.730340
852.583008	903.381775	1322.077637	1035.361938	31.521727
852.883240	930.687988	1433.578125	1085.423462	30.769239
853.183411	939.790100	1322.077637	1080.872437	36.904770
853.483521	901.106262	1333.455200	1076.321289	40.526299
853.783630	917.034912	1399.445313	1115.005249	41.037743
854.083679	964.820801	1381.241089	1044.463989	19.125675
854.383667	896.555176	1401.720825	946.616638	9.909910
854.683533	955.718750	1333.455200	973.922913	4.819276
854.983337	998.953613	1381.241089	1078.596802	20.833324
855.283203	935.239075	1392.618774	1115.005249	39.303486
855.582886	962.545288	1324.353149	1094.525513	36.477985
855.882629	964.820801	1388.067749	1064.943726	23.655912
856.182312	996.678101	1413.098389	1030.810913	8.196722
856.481873	932.963501	1403.996338	1028.535400	20.289860
856.781372	923.861450	1351.659302	1092.250000	39.361710
857.080872	1030.810913	1331.179688	1001.229126	-9.848490
857.380310	960.269775	1356.210449	1096.801025	34.482754
857.679688	926.136963	1403.996338	1062.668213	28.571428
857.979004	876.075500	1342.557251	937.514587	13.170737
858.278259	992.127075	1331.179688	1008.055725	4.697988
858.577454	994.402588	1417.649414	1062.668213	16.129034
858.876648	1021.708862	1317.526489	1062.668213	13.846149
859.175720	1019.433350	1408.547363	1003.504700	-4.093569
859.474792	912.483826	1372.139038	969.371887	12.376246
859.773743	980.749451	1278.842651	1023.984375	14.503828
860.072693	960.269775	1326.628662	1042.188477	22.360233
860.371521	989.851563	1365.312500	1067.219238	20.606052
860.670349	1005.780212	1253.812012	1028.535400	9.174303
860.969116	951.167725	1294.771362	1037.637451	25.165545
861.267883	976.198425	1328.904175	1037.637451	17.419344
861.566589	946.616638	1265.189575	1051.290649	32.857159
861.865112	987.576050	1308.424438	1044.463989	17.730474
862.163635	937.514587	1406.271851	1062.668213	26.699026
862.462158	967.096313	1394.894287	1003.504700	8.510650
862.760620	944.341125	1353.934937	1035.361938	22.222214
863.059021	914.759338	1294.771362	969.371887	14.371268
863.357361	935.239075	1349.383789	1019.433350	20.329676
863.655640	919.310425	1356.210449	1046.739624	29.166672
863.953857	898.830688	1358.485962	996.678101	21.287128
864.251953	937.514587	1285.669312	1074.045776	39.215664
864.550110	962.545288	1388.067749	1010.331238	11.229948
864.848206	980.749451	1440.404663	1042.188477	13.366328
865.146179	969.371887	1303.873413	994.402588	7.482985
865.444092	878.351013	1340.281738	1067.219238	40.886700
865.741943	942.065613	1344.832764	1035.361938	23.163837
866.039795	896.555176	1363.036987	1039.912964	30.731699
866.337646	876.075500	1342.557251	1035.361938	34.146339
866.635376	914.759338	1351.659302	1085.423462	39.062519
866.933044	953.443237	1297.046875	1003.504700	14.569538
867.230652	992.127075	1324.353149	1055.841675	19.178085
867.528198	976.198425	1317.526489	994.402588	5.333333
867.825745	996.678101	1292.495850	971.647400	-8.461528
868.123230	873.799988	1322.077637	1030.810913	35.025375
868.420593	914.759338	1331.179688	992.127075	18.579241
868.717896	951.167725	1367.588013	996.678101	10.928952
869.015198	928.412476	1299.322388	1035.361938	28.834351
869.312439	980.749451	1351.659302	996.678101	4.294480
869.609619	992.127075	1342.557251	1010.331238	5.194805
869.906738	873.799988	1331.179688	989.851563	25.373137
870.203796	994.402588	1312.975464	1071.770264	24.285707
870.500854	942.065613	1310.699951	1071.770264	35.185177
870.797791	926.136963	1349.383789	992.127075	15.591401
871.094666	905.657288	1272.016113	1033.086426	34.782604
871.391602	953.443237	1308.424438	1001.229126	13.461527
871.688293	967.096313	1331.179688	1010.331238	11.875007
871.985107	946.616638	1360.761475	1019.433350	17.582426
872.281738	955.718750	1326.628662	976.198425	5.521469
872.578369	926.136963	1292.495850	1053.566162	34.782616
872.874939	928.412476	1331.179688	1049.015137	29.943516
873.171509	862.422363	1358.485962	1030.810913	33.944950
873.467957	994.402588	1397.169800	1037.637451	10.734454
873.764343	914.759338	1331.179688	989.851563	18.032795
874.060669	907.932800	1331.179688	951.167725	10.215060
874.356995	967.096313	1306.148926	1014.882263	14.093963
874.653198	971.647400	1328.904175	1067.219238	26.751581
874.949463	973.922913	1363.036987	1092.250000	30.409357
875.245544	937.514587	1294.771362	1001.229126	17.834383
875.541626	901.106262	1358.485962	1042.188477	30.845753
875.837646	928.412476	1344.832764	994.402588	15.846997
876.133606	907.932800	1347.108276	1085.423462	40.414520
876.429565	885.177612	1349.383789	1062.668213	38.235294
876.725403	992.127075	1310.699951	1010.331238	5.714285
877.021179	946.616638	1249.260864	1078.596802	43.609013
877.316956	964.820801	1285.669312	1049.015137	26.241150
877.612610	919.310425	1360.761475	1060.392700	31.958759
877.908203	885.177612	1310.699951	1067.219238	42.780746
878.203857	928.412476	1312.975464	1085.423462	40.828419
878.499390	905.657288	1283.393677	1085.423462	47.590378
878.794800	992.127075	1365.312500	1137.760376	39.024380
879.090271	889.728638	1326.628662	1085.423462	44.791672
879.385559	980.749451	1319.802124	1110.454102	38.255016
879.680847	948.892151	1429.027100	1130.933838	37.914692
879.976196	932.963501	1442.680176	1092.250000	31.250008
880.271301	951.167725	1567.833862	1137.760376	30.258293
880.566467	917.034912	1485.915039	1099.076538	31.999998
880.861572	978.473938	1697.538574	1121.831787	19.936712
881.156555	957.994263	1797.661377	1153.689087	23.306238
881.451477	887.453125	1993.356201	1253.812012	33.127575
881.746460	932.963501	2537.205811	1447.231201	32.056736
882.041321	1003.504700	3372.321777	1674.783325	28.338137
882.336121	926.136963	4132.345703	1909.161987	30.660044
882.630798	907.932800	4478.225098	1966.049927	29.636711
882.925537	998.953613	4528.286621	1993.356201	28.175369
883.220215	937.514587	4159.651855	1952.396851	31.497177
883.514771	1010.331238	3813.772949	1929.641602	32.792206
883.809326	1001.229126	3622.629150	1702.089600	26.736115
884.103760	914.759338	3306.331787	1608.793213	29.019981
884.398132	1037.637451	3135.667725	1718.018188	32.429501
884.692505	1035.361938	2924.044189	1608.793213	30.361448
884.986816	962.545288	2848.952148	1501.843750	28.588661
885.281067	907.932800	2664.634766	1369.863525	26.295340
885.575256	964.820801	2473.491211	1413.098389	29.713421
885.869385	971.647400	2257.316650	1333.455200	28.141594
886.163452	1008.055725	2020.662476	1219.679199	20.898880
886.457458	948.892151	1975.152100	1228.781250	27.272728
886.751465	964.820801	1849.998413	1274.291626	34.961437
887.045410	926.136963	1747.599976	1142.311401	26.315784
887.339233	866.973450	1681.609863	1142.311401	33.798878
887.632996	939.790100	1613.344238	1096.801025	23.310810
887.926758	935.239075	1561.007324	1137.760376	32.363628
888.220398	960.269775	1488.190552	1101.352051	26.724138
888.514099	937.514587	1438.129150	1039.912964	20.454535
888.807678	983.024963	1385.792114	1037.637451	13.559320
889.101196	928.412476	1474.537476	1051.290649	22.500010
889.394653	862.422363	1422.200562	1026.259888	29.268293
889.688049	951.167725	1385.792114	1046.739624	21.989538
889.981384	987.576050	1369.863525	1101.352051	29.761896
890.274719	889.728638	1365.312500	1046.739624	33.014362
890.567932	932.963501	1372.139038	1021.708862	20.207264
>>>>>End Processed Spectral Data<<<<<
