Jaz Data File
++++++++++++++++++++++++++++++++++++
Date: Wed Feb 07 06:52:06 2024
User: jaz
Dark Spectrum Present: Yes
Reference Spectrum Present: Yes
Processed Spectrum Present: Yes
Spectrometers: JAZA3692
Integration Time (usec): 42900 (JAZA3692)
Spectra Averaged: 1 (JAZA3692)
Boxcar Smoothing: 0 (JAZA3692)
Correct for Electrical Dark: No (JAZA3692)
Strobe/Lamp Enabled: Yes (JAZA3692)
Correct for Detector Non-linearity: No (JAZA3692)
Correct for Stray Light: No (JAZA3692)
Number of Pixels in Processed Spectrum: 2048
>>>>>Begin Processed Spectral Data<<<<<
W	D	R	S	P
190.244385	0.000000	0.000000	0.000000	0.000000
190.627136	0.000000	0.000000	0.000000	0.000000
191.009842	907.932800	948.892151	973.922913	161.111221
191.392532	985.300537	1028.535400	976.198425	-21.052713
191.775177	917.034912	967.096313	953.443237	72.727341
192.157791	989.851563	903.381775	978.473938	13.157919
192.540390	992.127075	917.034912	976.198425	21.212133
192.922943	905.657288	1001.229126	937.514587	33.333355
193.305481	1003.504700	1035.361938	955.718750	-150.000290
193.687958	1010.331238	1023.984375	992.127075	-133.333191
194.070419	948.892151	1019.433350	957.994263	12.903256
194.452866	1064.943726	928.412476	955.718750	79.999985
194.835251	1030.810913	1012.606750	967.096313	350.000153
195.217621	1008.055725	976.198425	939.790100	214.285660
195.599960	1039.912964	1003.504700	976.198425	175.000214
195.982254	1080.872437	976.198425	969.371887	106.521713
196.364517	1033.086426	971.647400	1001.229126	51.851894
196.746750	962.545288	1003.504700	978.473938	38.888863
197.128952	1014.882263	994.402588	987.576050	133.333237
197.511139	1067.219238	1001.229126	964.820801	155.172394
197.893280	992.127075	1010.331238	998.953613	37.499874
198.275391	998.953613	935.239075	1035.361938	-57.142883
198.657471	1001.229126	1003.504700	1005.780212	199.997314
199.039520	1049.015137	967.096313	976.198425	88.888863
199.421539	948.892151	1037.637451	994.402588	51.282082
199.803513	967.096313	973.922913	948.892151	-266.665192
200.185471	1001.229126	948.892151	967.096313	65.217400
200.567383	1010.331238	1010.331238	921.585938	0.000000
200.949265	989.851563	989.851563	969.371887	0.000000
201.331131	930.687988	1044.463989	946.616638	14.000009
201.712967	946.616638	1037.637451	926.136963	-22.499992
202.094742	976.198425	1030.810913	989.851563	25.000029
202.476517	980.749451	1026.259888	978.473938	-4.999980
202.858231	957.994263	1055.841675	960.269775	2.325573
203.239944	969.371887	994.402588	917.034912	-209.091125
203.621582	955.718750	935.239075	937.514587	88.888924
204.003235	937.514587	969.371887	948.892151	35.714149
204.384827	935.239075	1019.433350	932.963501	-2.702765
204.766388	937.514587	1017.157776	901.106262	-45.714298
205.147934	985.300537	1039.912964	926.136963	-108.333542
205.529449	1021.708862	953.443237	1005.780212	23.333340
205.910904	976.198425	1044.463989	892.004150	-123.333450
206.292343	948.892151	1019.433350	914.759338	-48.387062
206.673767	930.687988	992.127075	1019.433350	144.444473
207.055115	998.953613	980.749451	989.851563	49.999832
207.436462	1010.331238	1012.606750	948.892151	-2700.010742
207.817780	1014.882263	1069.494751	1037.637451	41.666637
208.199051	967.096313	976.198425	992.127075	274.999512
208.580307	994.402588	983.024963	896.555176	859.998596
208.961517	928.412476	971.647400	989.851563	142.105225
209.342712	983.024963	987.576050	967.096313	-349.996643
209.723846	976.198425	989.851563	930.687988	-333.333191
210.104965	1096.801025	1069.494751	935.239075	591.666016
210.486069	955.718750	1074.045776	951.167725	-3.846142
210.867111	985.300537	1044.463989	1012.606750	46.153854
211.248123	962.545288	1046.739624	919.310425	-51.351273
211.629120	962.545288	998.953613	996.678101	93.750023
212.010071	994.402588	1044.463989	944.341125	-100.000122
212.390991	951.167725	1026.259888	953.443237	3.030293
212.771881	983.024963	923.861450	944.341125	65.384621
213.152756	962.545288	992.127075	967.096313	15.384552
213.533569	962.545288	944.341125	914.759338	262.500122
213.914368	930.687988	960.269775	998.953613	230.769104
214.295135	989.851563	985.300537	980.749451	200.001343
214.675858	989.851563	928.412476	869.248962	196.296219
215.056549	978.473938	992.127075	1014.882263	266.666382
215.437225	1019.433350	978.473938	976.198425	105.555534
215.817841	978.473938	1071.770264	948.892151	-31.707344
216.198441	1010.331238	985.300537	939.790100	281.818481
216.579025	928.412476	1028.535400	953.443237	25.000031
216.959549	1053.566162	1017.157776	903.381775	412.499420
217.340057	973.922913	1012.606750	882.902100	-235.294159
217.720535	1003.504700	1008.055725	962.545288	-900.004028
218.100967	1003.504700	1001.229126	878.351013	5499.874023
218.481369	994.402588	987.576050	935.239075	866.669373
218.861740	1003.504700	1067.219238	969.371887	-53.571465
219.242065	955.718750	978.473938	930.687988	-110.000244
219.622391	969.371887	1019.433350	971.647400	4.545438
220.002670	994.402588	1012.606750	912.483826	-450.000153
220.382919	976.198425	962.545288	951.167725	183.332962
220.763123	932.963501	996.678101	948.892151	25.000000
221.143295	937.514587	1014.882263	930.687988	-8.823581
221.523453	992.127075	1005.780212	951.167725	-299.999542
221.903549	957.994263	1003.504700	996.678101	84.999924
222.283630	1046.739624	1023.984375	996.678101	219.999893
222.663696	976.198425	1035.361938	967.096313	-15.384671
223.043701	923.861450	978.473938	989.851563	120.833374
223.423676	978.473938	1033.086426	948.892151	-54.166710
223.803635	967.096313	1012.606750	951.167725	-34.999859
224.183548	928.412476	996.678101	980.749451	76.666664
224.563431	962.545288	1014.882263	994.402588	60.869587
224.943283	946.616638	1008.055725	1019.433350	118.518547
225.323105	937.514587	1058.117188	960.269775	18.867908
225.702881	1008.055725	1033.086426	1028.535400	81.818230
226.082642	919.310425	1026.259888	989.851563	65.957451
226.462357	1017.157776	1035.361938	960.269775	-312.499969
226.842041	998.953613	967.096313	960.269775	121.428490
227.221695	926.136963	1019.433350	978.473938	56.097538
227.601318	937.514587	1021.708862	898.830688	-45.945995
227.980911	989.851563	996.678101	964.820801	-366.668457
228.360474	976.198425	1021.708862	1005.780212	65.000008
228.739990	1028.535400	1135.484863	910.208313	-110.638321
229.119476	971.647400	1124.107300	1008.055725	23.880590
229.498932	1005.780212	1130.933838	937.514587	-54.545464
229.878372	996.678101	1187.821899	937.514587	-30.952358
230.257736	1008.055725	1212.852539	960.269775	-23.333345
230.637115	980.749451	1203.750488	876.075500	-46.938774
231.016449	992.127075	1128.658325	948.892151	-31.666687
231.395737	903.381775	1121.831787	946.616638	19.791651
231.774994	937.514587	1014.882263	919.310425	-23.529417
232.154221	964.820801	1146.862427	953.443237	-6.249979
232.533417	937.514587	1146.862427	957.994263	9.782606
232.912582	917.034912	1167.342163	1017.157776	39.999985
233.291702	928.412476	1115.005249	985.300537	30.487816
233.670792	996.678101	1119.556274	969.371887	-22.222183
234.049866	907.932800	1133.209351	946.616638	17.171711
234.428894	957.994263	1176.444214	862.422363	-43.750019
234.807892	973.922913	1183.270874	983.024963	4.347810
235.186874	985.300537	1133.209351	989.851563	3.076913
235.565781	967.096313	1212.852539	901.106262	-26.851833
235.944687	1028.535400	1185.546387	923.861450	-66.666641
236.323547	948.892151	1256.087524	923.861450	-8.148137
236.702377	926.136963	1201.474976	973.922913	17.355377
237.081177	980.749451	1174.168701	912.483826	-35.294121
237.459946	980.749451	1190.097412	935.239075	-21.739107
237.838669	942.065613	1165.066650	996.678101	24.489790
238.217361	928.412476	1256.087524	937.514587	2.777786
238.596039	994.402588	1208.301514	1044.463989	23.404232
238.974670	942.065613	1208.301514	1042.188477	37.606823
239.353271	957.994263	1224.230225	917.034912	-15.384604
239.731842	980.749451	1240.158813	939.790100	-15.789465
240.110367	919.310425	1158.240112	935.239075	6.666668
240.488876	928.412476	1237.883301	951.167725	7.352954
240.867340	964.820801	1253.812012	928.412476	-12.598419
241.245789	1019.433350	1258.363037	957.994263	-25.714296
241.624176	969.371887	1228.781250	1017.157776	18.421034
242.002548	957.994263	1467.710938	996.678101	7.589283
242.380890	1023.984375	1495.017212	921.585938	-21.739130
242.759186	1019.433350	1533.701050	964.820801	-10.619478
243.137451	932.963501	1592.864502	994.402588	9.310349
243.515686	971.647400	1658.854614	928.412476	-6.291396
243.893890	964.820801	1658.854614	1017.157776	7.540984
244.272049	967.096313	1517.772339	1003.504700	6.611580
244.650192	889.728638	1606.517700	969.371887	11.111114
245.028290	905.657288	1506.394775	951.167725	7.575761
245.406357	960.269775	1492.741699	948.892151	-2.136756
245.784393	955.718750	1447.231201	985.300537	6.018522
246.162384	907.932800	1501.843750	1014.882263	18.007660
246.540359	948.892151	1592.864502	948.892151	0.000000
246.918289	955.718750	1615.619751	1008.055725	7.931035
247.296204	989.851563	1756.702026	894.279663	-12.462913
247.674057	973.922913	2066.172852	1058.117188	7.708333
248.051895	976.198425	2243.663574	983.024963	0.538598
248.429703	948.892151	2352.888428	992.127075	3.079419
248.807465	1010.331238	2336.959961	1080.872437	5.317328
249.185196	1019.433350	2095.754639	1049.015137	2.748416
249.562897	964.820801	1893.233276	1071.770264	11.519607
249.940567	1001.229126	1840.896362	962.545288	-4.607044
250.318192	1021.708862	1779.457275	992.127075	-3.903906
250.695801	994.402588	1649.752563	983.024963	-1.736114
251.073349	980.749451	1579.211426	1030.810913	8.365020
251.450882	955.718750	1501.843750	1008.055725	9.583333
251.828400	1053.566162	1524.598877	1010.331238	-9.178752
252.205872	987.576050	1565.558350	885.177612	-17.716536
252.583313	926.136963	1636.099487	987.576050	8.653850
252.960693	980.749451	1722.569214	957.994263	-3.067482
253.338074	955.718750	1913.713013	978.473938	2.375295
253.715408	1019.433350	1845.447388	980.749451	-4.683201
254.092682	923.861450	1665.681274	992.127075	9.202454
254.469955	989.851563	1654.303589	987.576050	-0.342465
254.847198	937.514587	1574.660400	1058.117188	18.928572
255.224365	1017.157776	1508.670288	1008.055725	-1.851845
255.601563	910.208313	1506.394775	994.402588	14.122138
255.978683	973.922913	1547.354126	973.922913	0.000000
256.355743	976.198425	1499.568237	1017.157776	7.826082
256.732819	930.687988	1570.109375	1026.259888	14.946622
257.109894	944.341125	1549.629639	903.381775	-6.766913
257.486877	1005.780212	1576.935913	978.473938	-4.780881
257.863831	1028.535400	1683.885376	1012.606750	-2.430556
258.240753	1008.055725	1672.507813	1087.698975	11.986304
258.617645	1017.157776	1692.987427	962.545288	-8.080807
258.994507	1003.504700	1799.937012	980.749451	-2.857148
259.371307	980.749451	1836.345337	1008.055725	3.191492
259.748108	985.300537	2125.336426	1037.637451	4.590813
260.124878	998.953613	2314.204590	983.024963	-1.211073
260.501617	898.830688	2500.797363	935.239075	2.272731
260.878296	919.310425	2803.441650	1074.045776	8.212557
261.254944	951.167725	2889.911377	1085.423462	6.924883
261.631561	989.851563	2864.880615	1023.984375	1.820388
262.008179	946.616638	2521.277100	1060.392700	7.225435
262.384735	960.269775	2168.571289	994.402588	2.824859
262.761261	973.922913	2018.386963	1008.055725	3.267974
263.137695	926.136963	2027.489014	1021.708862	8.677689
263.514191	928.412476	1934.192627	1001.229126	7.239818
263.890594	996.678101	1970.601074	1014.882263	1.869158
264.267029	944.341125	1909.161987	937.514587	-0.707545
264.643341	978.473938	1875.029175	1010.331238	3.553300
265.019653	942.065613	1845.447388	932.963501	-1.007560
265.395935	992.127075	1831.794189	992.127075	0.000000
265.772217	1017.157776	1863.651489	1055.841675	4.569898
266.148407	953.443237	1829.518677	1046.739624	10.649355
266.524597	992.127075	1970.601074	955.718750	-3.720929
266.900726	926.136963	2029.764526	987.576050	5.567013
267.276855	967.096313	2004.733887	1026.259888	5.701757
267.652924	967.096313	2241.387939	1021.708862	4.285718
268.028992	953.443237	2168.571289	992.127075	3.183519
268.404999	955.718750	2118.509766	996.678101	3.522503
268.781006	894.279663	2111.683350	1010.331238	9.532711
269.156921	980.749451	2125.336426	1030.810913	4.373758
269.532837	973.922913	2170.846924	948.892151	-2.091257
269.908661	953.443237	2086.652588	996.678101	3.815258
270.284546	892.004150	2143.540527	1026.259888	10.727274
270.660339	1023.984375	2148.091553	1003.504700	-1.821862
271.036133	937.514587	2141.265137	1010.331238	6.049148
271.411835	944.341125	2364.266113	1033.086426	6.249999
271.787537	969.371887	2448.460449	1039.912964	4.769226
272.163239	967.096313	2616.848877	1071.770264	6.344827
272.538849	1035.361938	2780.686523	1058.117188	1.303783
272.914459	987.576050	2812.543701	1067.219238	4.364088
273.290070	980.749451	2632.777588	1053.566162	4.407716
273.665588	944.341125	2491.695313	1037.637451	6.029409
274.041046	996.678101	2537.205811	960.269775	-2.363367
274.416565	1010.331238	2441.633789	1039.912964	2.066770
274.791962	1005.780212	2389.296875	1001.229126	-0.328951
275.167389	971.647400	2316.480225	1008.055725	2.707275
275.542755	983.024963	2402.949951	948.892151	-2.403846
275.918060	989.851563	2245.938965	987.576050	-0.181159
276.293365	1005.780212	2336.959961	946.616638	-4.444447
276.668640	976.198425	2475.766602	980.749451	0.303489
277.043854	1023.984375	2489.419678	1028.535400	0.310558
277.419037	937.514587	2514.450439	989.851563	3.318903
277.794189	964.820801	2439.358398	1060.392700	6.481483
278.169312	971.647400	2491.695313	1005.780212	2.245509
278.544373	976.198425	2514.450439	964.820801	-0.739646
278.919464	930.687988	2509.899414	1001.229126	4.466858
279.294464	935.239075	2330.133301	1080.872437	10.440458
279.669464	985.300537	2459.837891	1035.361938	3.395058
280.044403	1012.606750	2380.194824	1060.392700	3.494177
280.419312	944.341125	2437.082764	1044.463989	6.707314
280.794189	1019.433350	2430.256104	1003.504700	-1.129033
281.169037	1037.637451	2559.960938	998.953613	-2.541105
281.543854	998.953613	2553.134277	960.269775	-2.489018
281.918671	980.749451	2589.542725	1033.086426	3.253182
282.293365	987.576050	2869.431641	1010.331238	1.209189
282.668091	926.136963	2878.533936	1053.566162	6.526808
283.042786	978.473938	3003.687500	1023.984375	2.247192
283.417419	967.096313	3005.962891	998.953613	1.562500
283.792053	980.749451	2889.911377	1035.361938	2.860548
284.166595	973.922913	2937.697266	987.576050	0.695250
284.541138	960.269775	2785.237549	1021.708862	3.366585
284.915619	998.953613	2939.972900	1069.494751	3.634232
285.290100	1055.841675	2921.768799	1115.005249	3.170733
285.664520	996.678101	2894.462402	1044.463989	2.517983
286.038940	930.687988	2935.421875	1030.810913	4.994325
286.413300	987.576050	3140.218750	1103.627563	5.391119
286.787628	896.555176	3165.249512	1103.627563	9.127381
287.161896	955.718750	3219.861816	1069.494751	5.025124
287.536194	1001.229126	3304.056152	1124.107300	5.335970
287.910400	987.576050	3137.943115	1117.280762	6.031747
288.284607	937.514587	3074.228516	1060.392700	5.750799
288.658752	955.718750	2935.421875	1094.525513	7.011494
289.032867	971.647400	2814.819336	1046.739624	4.074076
289.406921	1005.780212	2851.227539	1133.209351	6.905055
289.781006	912.483826	2853.503174	1037.637451	6.447830
290.154999	1008.055725	2878.533936	1096.801025	4.744524
290.529022	1003.504700	3169.800537	1115.005249	5.147060
290.902954	910.208313	3112.912354	1055.841675	6.611572
291.276825	1026.259888	3253.994629	1042.188477	0.715013
291.650757	985.300537	3331.362549	1121.831787	5.819592
292.024597	960.269775	3297.229736	1074.045776	4.868547
292.398407	962.545288	3265.372314	1058.117188	4.150198
292.772156	969.371887	3119.739014	1074.045776	4.867722
293.145905	978.473938	3115.187988	1144.586914	7.774226
293.519592	989.851563	2969.554688	1074.045776	4.252871
293.893280	1037.637451	3053.749023	1046.739624	0.451472
294.266907	917.034912	3110.636963	1162.791138	11.203319
294.640533	980.749451	3294.954102	1039.912964	2.556538
295.014069	978.473938	3249.443604	1171.893188	8.517034
295.387604	1001.229126	3547.536865	1149.138062	5.808762
295.761078	1019.433350	3588.496338	1146.862427	4.960138
296.134552	967.096313	3465.618164	1085.423462	4.735886
296.507996	967.096313	3547.536865	1142.311401	6.790123
296.881378	923.861450	3549.812500	1085.423462	6.152514
297.254730	939.790100	3729.578613	1149.138062	7.504080
297.628021	1028.535400	3988.988037	1167.342163	4.688701
298.001282	953.443237	4034.498291	1080.872437	4.135895
298.374573	1019.433350	4091.386475	1115.005249	3.111112
298.747803	1001.229126	3909.344727	1174.168701	5.946791
299.121002	998.953613	3747.782715	1158.240112	5.794703
299.494141	885.177612	3602.149414	1062.668213	6.532663
299.867188	1001.229126	3565.741211	1133.209351	5.146407
300.240265	1001.229126	3388.250488	1064.943726	2.669209
300.613312	969.371887	3367.770752	1115.005249	6.072107
300.986328	1026.259888	3345.015625	1108.178589	3.532873
301.359314	987.576050	3203.933350	1162.791138	7.905543
301.732239	951.167725	3140.218750	1110.454102	7.276504
302.105103	921.585938	3265.372314	1144.586914	9.514561
302.477997	953.443237	3188.004639	1158.240112	9.164969
302.850830	1003.504700	3367.770752	1085.423462	3.464871
303.223602	1008.055725	3135.667725	1067.219238	2.780747
303.596375	1051.290649	3208.484375	1037.637451	-0.632915
303.969116	973.922913	3071.953125	1124.107300	7.158352
304.341766	987.576050	3076.504150	1087.698975	4.793028
304.714478	980.749451	3156.147461	1155.964600	8.054396
305.087067	944.341125	3162.973877	1030.810913	3.897436
305.459656	989.851563	3144.769775	1092.250000	4.751848
305.832214	1003.504700	3172.075928	1062.668213	2.728225
306.204681	971.647400	3040.095703	1039.912964	3.300327
306.577148	907.932800	3056.024414	1023.984375	5.402543
306.949646	998.953613	3140.218750	1058.117188	2.763020
307.322021	921.585938	3167.524902	1033.086426	4.964538
307.694397	935.239075	3126.565674	1158.240112	10.176531
308.066742	1019.433350	3053.749023	1080.872437	3.020135
308.439026	980.749451	3324.535889	1124.107300	6.116507
308.811279	1001.229126	3217.586426	1085.423462	3.798771
309.183502	998.953613	3417.832275	1149.138062	6.208846
309.555695	946.616638	3481.546875	1087.698975	5.565531
309.927887	951.167725	3415.556641	1085.423462	5.447831
310.299988	1023.984375	3556.638916	1124.107300	3.953280
310.672058	942.065613	3499.750977	1101.352051	6.227757
311.044128	946.616638	3558.914551	1115.005249	6.445996
311.416168	914.759338	3654.486328	1112.729614	7.225913
311.788147	942.065613	3636.282227	1089.974487	5.489866
312.160065	967.096313	3615.802490	1058.117188	3.436428
312.531982	944.341125	3549.812500	1023.984375	3.056769
312.903870	992.127075	3433.760986	1078.596802	3.541470
313.275696	948.892151	3417.832275	1083.147949	5.437791
313.647491	1014.882263	3319.984863	1103.627563	3.849950
314.019318	1001.229126	3404.179199	1105.903076	4.356060
314.391022	1017.157776	3415.556641	1039.912964	0.948766
314.762726	1003.504700	3445.138428	1051.290649	1.957130
315.134369	989.851563	3563.465576	1199.199463	8.134394
315.505981	937.514587	3699.996826	1089.974487	5.518946
315.877594	976.198425	3759.160400	1151.413574	6.295995
316.249146	1049.015137	3593.047363	1149.138062	3.935600
316.620636	928.412476	3467.893799	1071.770264	5.645160
316.992157	973.922913	3276.750000	1151.413574	7.707511
317.363586	896.555176	3290.403076	1108.178589	8.840303
317.735016	985.300537	3256.270264	1067.219238	3.607212
318.106354	960.269775	3304.056152	1119.556274	6.796118
318.477722	1026.259888	3347.291016	1074.045776	2.058821
318.849060	919.310425	3253.994629	1049.015137	5.555557
319.220306	910.208313	3244.892578	1071.770264	6.920077
319.591522	1014.882263	3442.863037	1044.463989	1.218367
319.962738	985.300537	3454.240479	1058.117188	2.949308
320.333923	944.341125	3304.056152	1062.668213	5.014465
320.705017	1042.188477	3310.882813	1128.658325	3.811437
321.076111	998.953613	3329.086914	1074.045776	3.222655
321.447144	978.473938	3283.576416	1149.138062	7.403754
321.818176	914.759338	3222.137451	1042.188477	5.522681
322.189178	967.096313	3201.657715	1085.423462	5.295319
322.560120	1005.780212	3326.811523	1046.739624	1.764707
322.931030	962.545288	3299.505127	1055.841675	3.992212
323.301910	985.300537	3411.005615	992.127075	0.281425
323.672729	1030.810913	3679.517090	1174.168701	5.412371
324.043549	980.749451	3795.568604	1158.240112	6.305580
324.414337	983.024963	3918.446777	1080.872437	3.333336
324.785095	976.198425	4132.345703	1144.586914	5.335255
325.155792	985.300537	4089.110840	1144.586914	5.131962
325.526428	910.208313	4109.590332	1140.035889	7.183499
325.897034	987.576050	3968.508301	1194.648438	6.946565
326.267670	946.616638	3893.416016	1153.689087	7.027029
326.638184	889.728638	4009.467773	1151.413574	8.388039
327.008728	1028.535400	4068.631104	1085.423462	1.871259
327.379211	1014.882263	4048.151611	1135.484863	3.975994
327.749634	937.514587	3927.548828	1083.147949	4.870625
328.120026	978.473938	3891.140625	1085.423462	3.671876
328.490417	937.514587	3811.497314	1137.760376	6.967536
328.860748	987.576050	3659.037354	1108.178589	4.514478
329.231079	946.616638	3654.486328	1117.280762	6.302524
329.601318	973.922913	3834.252441	1130.933838	5.489260
329.971558	942.065613	3786.466553	1115.005249	6.080002
330.341736	969.371887	3754.609375	1101.352051	4.738560
330.711914	971.647400	3690.894775	1099.076538	4.686192
331.082062	957.994263	3756.884766	1160.515625	7.235773
331.452148	973.922913	3709.098877	1135.484863	5.906821
331.822174	1021.708862	3634.006836	1169.617676	5.662019
332.192200	926.136963	3877.487549	1171.893188	8.326907
332.562134	989.851563	3872.936523	1162.791138	5.998421
332.932129	996.678101	4009.467773	1180.995239	6.117823
333.302063	894.279663	4077.733398	1078.596802	5.789848
333.671906	953.443237	4145.999023	1174.168701	6.913754
334.041718	930.687988	4152.825684	1115.005249	5.720341
334.411499	967.096313	4216.540039	1219.679199	7.773111
334.781281	992.127075	4307.561035	1126.382813	4.049417
335.151001	1008.055725	4230.193359	1228.781250	6.850282
335.520721	1010.331238	3986.712402	1174.168701	5.504586
335.890350	944.341125	4216.540039	1221.954712	8.484007
336.259979	926.136963	4221.091309	1224.230225	9.046962
336.629547	930.687988	4266.601563	1203.750488	8.185539
336.999084	948.892151	4328.040527	1190.097412	7.138049
337.368622	912.483826	4150.549805	1201.474976	8.924808
337.738098	878.351013	4303.009766	1237.883301	10.498340
338.107513	951.167725	4243.846191	1199.199463	7.532826
338.476898	944.341125	4252.948242	1260.638550	9.559836
338.846252	967.096313	4419.061523	1203.750488	6.855636
339.215576	1055.841675	4425.888184	1187.821899	3.916273
339.584869	971.647400	4189.233887	1185.546387	6.647809
339.954132	944.341125	4186.958496	1206.026001	8.070174
340.323334	1028.535400	4155.101074	1165.066650	4.366812
340.692505	926.136963	3950.304199	1142.311401	7.148230
341.061646	960.269775	3977.610352	1219.679199	8.597287
341.430786	967.096313	4173.305176	1162.791138	6.103621
341.799896	926.136963	4127.794922	1192.372925	8.315565
342.168915	876.075500	4373.550781	1151.413574	7.872481
342.537903	937.514587	4428.163574	1160.515625	6.388526
342.906830	1026.259888	4478.225098	1203.750488	5.141726
343.275757	1001.229126	4496.429199	1242.434326	6.901041
343.644684	1042.188477	4460.020996	1306.148926	7.723036
344.013550	1017.157776	4587.449707	1246.985352	6.437221
344.382355	1001.229126	4828.655273	1210.577026	5.469678
344.751129	983.024963	4849.134766	1235.607788	6.533255
345.119873	1092.250000	5015.248047	1319.802124	5.800465
345.488586	1008.055725	5311.065430	1344.832764	7.826546
345.857269	1001.229126	5301.963379	1360.761475	8.359790
346.225891	1008.055725	5531.791016	1383.516602	8.299798
346.594482	1035.361938	5570.475098	1442.680176	8.981435
346.963043	1046.739624	5622.812012	1338.006226	6.364991
347.331543	1010.331238	5042.554199	1317.526489	7.618509
347.700043	948.892151	4976.563965	1335.730713	9.604520
348.068512	887.453125	4933.329102	1283.393677	9.786275
348.436951	994.402588	4985.666016	1246.985352	6.328391
348.805328	951.167725	4769.491699	1221.954712	7.091776
349.173645	1021.708862	4776.318359	1212.852539	5.090907
349.541931	983.024963	4760.389648	1267.465088	7.530121
349.910217	978.473938	4865.063477	1233.332275	6.557377
350.278473	923.861450	4944.706543	1317.526489	9.790605
350.646667	1021.708862	4999.319336	1381.241089	9.038900
351.014801	914.759338	5085.789063	1333.455200	10.038189
351.382935	980.749451	5024.350098	1276.567139	7.315700
351.751007	1035.361938	5010.696777	1326.628662	7.326848
352.119049	1071.770264	5188.187500	1246.985352	4.256495
352.487091	1028.535400	5126.748535	1233.332275	4.997224
352.855072	917.034912	5185.912109	1312.975464	9.275052
353.222992	985.300537	5092.615723	1301.597900	7.700830
353.590881	1010.331238	5427.117188	1299.322388	6.543019
353.958740	987.576050	5620.536621	1319.802124	7.170924
354.326599	987.576050	5697.904297	1363.036987	7.971014
354.694397	985.300537	5889.047852	1301.597900	6.450116
355.062134	898.830688	5964.140137	1310.699951	8.131177
355.429840	994.402588	5925.456055	1338.006226	6.968159
355.797516	992.127075	6159.834961	1301.597900	5.988551
356.165192	1014.882263	6259.957520	1365.312500	6.681129
356.532776	912.483826	6401.040039	1356.210449	8.084579
356.900360	978.473938	6583.081543	1369.863525	6.983354
357.267883	992.127075	6528.469238	1456.333252	8.384708
357.635376	1051.290649	6803.807129	1374.414551	5.617088
358.002808	1008.055725	7493.290039	1424.476074	6.421053
358.370270	948.892151	7682.158203	1488.190552	8.009462
358.737640	955.718750	7552.453613	1458.608887	7.623319
359.105011	1005.780212	7322.625977	1504.119263	7.889049
359.472321	1044.463989	7111.002441	1449.506714	6.676670
359.839569	1067.219238	7090.522949	1419.924927	5.855685
360.206787	962.545288	7024.532715	1401.720825	7.244745
360.574005	873.799988	7136.033203	1444.955688	9.120639
360.941193	962.545288	7754.975098	1472.261963	7.504188
361.308319	926.136963	8021.210938	1442.680176	7.280307
361.675415	1017.157776	8676.560547	1542.803101	6.862745
362.042450	926.136963	9129.389648	1574.660400	7.905686
362.409424	928.412476	9871.208984	1558.731689	7.048346
362.776428	1014.882263	9916.719727	1597.415649	6.543968
363.143402	1033.086426	9432.034180	1495.017212	5.499866
363.510284	946.616638	8792.612305	1558.731689	7.801624
363.877136	989.851563	7898.332520	1417.649414	6.192358
364.243988	955.718750	7388.616211	1406.271851	7.003891
364.610779	964.820801	7172.441406	1435.853638	7.587977
364.977539	951.167725	6967.644531	1381.241089	7.148260
365.344269	1044.463989	6658.173828	1344.832764	5.350629
365.710938	985.300537	6737.816895	1299.322388	5.458860
366.077576	905.657288	6637.694336	1349.383789	7.741166
366.444183	976.198425	6587.632813	1372.139038	7.055961
366.810760	983.024963	6471.581055	1294.771362	5.679935
367.177277	944.341125	6583.081543	1410.822876	8.272800
367.543823	976.198425	6660.449219	1328.904175	6.204965
367.910248	1051.290649	6583.081543	1331.179688	5.059646
368.276642	948.892151	6517.091797	1317.526489	6.620350
368.643036	935.239075	6476.132324	1276.567139	6.160163
369.009399	980.749451	6303.192383	1319.802124	6.370245
369.375671	932.963501	6253.131348	1183.270874	4.704877
369.741974	987.576050	6253.131348	1262.914063	5.229041
370.108215	948.892151	6216.722656	1310.699951	6.868250
370.474396	921.585938	6091.569336	1183.270874	5.061620
370.840546	892.004150	6125.702148	1331.179688	8.391304
371.206665	973.922913	6401.040039	1269.740601	5.450733
371.572784	964.820801	6644.520508	1215.128052	4.407051
371.938843	1008.055725	6601.285645	1260.638550	4.515867
372.304840	935.239075	6705.959961	1219.679199	4.929022
372.670807	932.963501	6649.071777	1340.281738	7.125796
373.036713	962.545288	6712.786133	1244.709839	4.907004
373.402649	964.820801	6503.438477	1278.842651	5.669679
373.768524	985.300537	6594.459473	1281.118164	5.273832
374.134308	960.269775	6494.336426	1242.434326	5.098684
374.500122	894.279663	6412.417480	1265.189575	6.721650
374.865875	971.647400	6692.306641	1287.944824	5.529038
375.231567	996.678101	6708.235352	1299.322388	5.298805
375.597260	1019.433350	6730.990723	1310.699951	5.099600
375.962891	996.678101	6951.715820	1253.812012	4.317923
376.328461	1008.055725	7156.512695	1237.883301	3.737972
376.694031	1019.433350	7215.676270	1274.291626	4.113110
377.059540	985.300537	7659.402832	1212.852539	3.409477
377.425049	1005.780212	7932.465332	1287.944824	4.073588
377.790497	1001.229126	8314.752930	1308.424438	4.200373
378.155945	935.239075	8612.846680	1242.434326	4.001184
378.521301	962.545288	8301.099609	1224.230225	3.565892
378.886597	894.279663	8121.333984	1276.567139	5.289672
379.251892	935.239075	7802.760742	1233.332275	4.340623
379.617157	1010.331238	7584.311035	1242.434326	3.530633
379.982422	944.341125	7286.217773	1242.434326	4.700394
380.347595	942.065613	7167.890625	1262.914063	5.153509
380.712738	998.953613	7240.707031	1278.842651	4.484141
381.077820	992.127075	7288.493164	1221.954712	3.650163
381.442902	960.269775	7463.708008	1171.893188	3.254024
381.807953	983.024963	7163.339355	1201.474976	3.534610
382.172974	980.749451	7161.063965	1219.679199	3.865980
382.537933	951.167725	7097.349609	1226.505737	4.479822
382.902832	987.576050	7151.961914	1174.168701	3.026946
383.267700	998.953613	7593.413086	1178.719727	2.726017
383.632538	932.963501	7566.106445	1171.893188	3.602058
383.997345	976.198425	7805.036133	1224.230225	3.632123
384.362152	912.483826	7741.321777	1221.954712	4.531824
384.726898	971.647400	7761.801270	1294.771362	4.758713
385.091553	942.065613	7939.291992	1235.607788	4.195122
385.456238	985.300537	8114.507324	1185.546387	2.808810
385.820862	980.749451	7962.047363	1228.781250	3.552804
386.185425	980.749451	7925.639160	1194.648438	3.079948
386.549988	946.616638	8157.742188	1235.607788	4.007574
386.914490	960.269775	8109.956055	1183.270874	3.119033
387.278961	983.024963	8166.844238	1194.648438	2.945835
387.643372	1012.606750	8319.303711	1180.995239	2.304578
388.007782	996.678101	8542.304688	1212.852539	2.864897
388.372101	957.994263	8749.377930	1215.128052	3.300233
388.736450	930.687988	8401.222656	1183.270874	3.381055
389.100739	942.065613	8348.885742	1242.434326	4.055299
389.464966	969.371887	8285.170898	1183.270874	2.923795
389.829163	983.024963	8166.844238	1149.138062	2.312323
390.193329	989.851563	8043.965820	1233.332275	3.451613
390.557495	926.136963	8305.651367	1201.474976	3.731113
390.921570	882.902100	8469.488281	1246.985352	4.799039
391.285614	948.892151	8642.427734	1190.097412	3.135168
391.649597	1012.606750	9017.888672	1169.617676	1.961342
392.013550	978.473938	9504.850586	1187.821899	2.455298
392.377502	964.820801	9752.881836	1251.536499	3.262559
392.741455	1019.433350	9507.125977	1219.679199	2.359250
393.105316	1014.882263	9536.708008	1187.821899	2.029373
393.469086	973.922913	9534.432617	1226.505737	2.950558
393.832886	1026.259888	9279.574219	1162.791138	1.654260
394.196655	973.922913	9454.789063	1253.812012	3.300242
394.560333	973.922913	9666.412109	1194.648438	2.539267
394.924042	983.024963	9593.595703	1165.066650	2.114165
395.287659	987.576050	9623.177734	1231.056763	2.819499
395.651245	928.412476	9520.779297	1217.403687	3.363348
396.014771	939.790100	9131.665039	1149.138062	2.555556
396.378296	1035.361938	8854.051758	1201.474976	2.124563
396.741791	928.412476	8776.683594	1135.484863	2.638446
397.105255	953.443237	8453.559570	1180.995239	3.033980
397.468628	1001.229126	8351.161133	1155.964600	2.105264
397.832001	935.239075	8260.140625	1176.444214	3.292947
398.195313	948.892151	8656.081055	1242.434326	3.808680
398.558624	935.239075	8540.029297	1178.719727	3.201675
398.921844	898.830688	8565.060547	1171.893188	3.561888
399.285095	946.616638	8669.734375	1183.270874	3.064232
399.648254	942.065613	8701.591797	1155.964600	2.756598
400.011383	932.963501	8574.162109	1194.648438	3.424658
400.374451	953.443237	8501.345703	1231.056763	3.678022
400.737549	992.127075	8608.294922	1108.178589	1.523752
401.100586	973.922913	8469.488281	1171.893188	2.641165
401.463562	983.024963	8553.682617	1212.852539	3.035768
401.826508	994.402588	8844.949219	1115.005249	1.536233
402.189392	1014.882263	8626.499023	1194.648438	2.361734
402.552246	960.269775	8694.764648	1162.791138	2.618417
402.915070	996.678101	8685.663086	1140.035889	1.864457
403.277893	996.678101	8872.255859	1149.138062	1.935858
403.640656	955.718750	9131.665039	1103.627563	1.809073
404.003326	953.443237	9568.565430	1212.852539	3.011093
404.366028	962.545288	9454.789063	1212.852539	2.947481
404.728699	969.371887	9896.240234	1121.831787	1.707877
405.091248	939.790100	10103.312500	1253.812012	3.426869
405.453857	994.402588	10301.282227	1212.852539	2.347188
405.816345	971.647400	9934.923828	1180.995239	2.335617
406.178833	1030.810913	10176.128906	1190.097412	1.741727
406.541260	1008.055725	10112.414063	1105.903076	1.074731
406.903687	944.341125	9775.637695	1196.923950	2.860088
407.266052	962.545288	9707.372070	1194.648438	2.654176
407.628387	967.096313	9552.636719	1180.995239	2.491386
407.990662	1001.229126	9552.636719	1165.066650	1.915913
408.352905	1008.055725	9463.890625	1178.719727	2.018299
408.715118	989.851563	9336.461914	1149.138062	1.908397
409.077332	998.953613	9236.338867	1046.739624	0.580111
409.439484	1037.637451	9409.278320	1140.035889	1.223159
409.801575	1021.708862	9648.208008	1206.026001	2.136639
410.163605	951.167725	9853.004883	1194.648438	2.735174
410.525635	1055.841675	9971.332031	1146.862427	1.020928
410.887604	971.647400	10112.414063	1140.035889	1.842170
411.249573	978.473938	10148.823242	1149.138062	1.861043
411.611481	994.402588	10219.364258	1165.066650	1.850025
411.973328	976.198425	9937.199219	1121.831787	1.625191
412.335144	926.136963	10064.628906	1155.964600	2.514941
412.696930	1008.055725	9752.881836	1199.199463	2.185792
413.058685	946.616638	9923.545898	1121.831787	1.951838
413.420410	953.443237	9707.372070	1089.974487	1.559657
413.782104	980.749451	9837.076172	1083.147949	1.156219
414.143707	978.473938	9900.791016	1171.893188	2.167814
414.505310	989.851563	9907.617188	1142.311401	1.709619
414.866852	987.576050	9932.648438	1153.689087	1.857034
415.228394	1003.504700	10360.446289	1101.352051	1.045719
415.589874	932.963501	10294.456055	1185.546387	2.698105
415.951324	978.473938	10346.792969	1217.403687	2.550401
416.312683	973.922913	10663.090820	1140.035889	1.714419
416.674072	955.718750	11029.449219	1169.617676	2.123334
417.035370	967.096313	11393.532227	1217.403687	2.400699
417.396667	1033.086426	11527.788086	1133.209351	0.954033
417.757935	1021.708862	11725.758789	1180.995239	1.488094
418.119141	1026.259888	12174.036133	1244.709839	1.959583
418.480286	985.300537	12328.771484	1165.066650	1.584754
418.841400	887.453125	13157.061523	1171.893188	2.318249
419.202484	869.248962	13216.224609	1206.026001	2.727607
419.563568	953.443237	13830.615234	1167.342163	1.661071
419.924591	973.922913	14813.640625	1221.954712	1.792174
420.285553	917.034912	14708.966797	1206.026001	2.095363
420.646484	987.576050	16024.217773	1244.709839	1.710048
421.007355	960.269775	15990.084961	1315.250977	2.361847
421.368225	976.198425	17257.548828	1306.148926	2.026555
421.729065	998.953613	17457.794922	1297.046875	1.811144
422.089874	955.718750	17962.960938	1294.771362	1.993578
422.450592	935.239075	17699.000000	1290.220337	2.117551
422.811279	987.576050	17787.746094	1301.597900	1.869159
423.171936	962.545288	17689.898438	1278.842651	1.890899
423.532593	1005.780212	17282.580078	1276.567139	1.663637
423.893127	955.718750	17614.806641	1285.669312	1.980604
424.253723	985.300537	18033.501953	1262.914063	1.628404
424.614197	1042.188477	18001.644531	1253.812012	1.247820
424.974670	1012.606750	18290.636719	1256.087524	1.409193
425.335052	1026.259888	18879.996094	1294.771362	1.503951
425.695496	1014.882263	17787.746094	1224.230225	1.248135
426.055817	932.963501	17960.685547	1301.597900	2.164907
426.416168	1003.504700	17792.296875	1235.607788	1.382488
426.776398	1023.984375	16720.527344	1285.669312	1.667150
427.136627	955.718750	16126.616211	1283.393677	2.159892
427.496826	930.687988	16160.749023	1331.179688	2.629613
427.856995	935.239075	15562.287109	1297.046875	2.473553
428.217102	971.647400	14902.385742	1210.577026	1.715125
428.577179	1010.331238	14731.721680	1322.077637	2.271974
428.937195	1003.504700	14381.291016	1192.372925	1.411805
429.297180	969.371887	13807.860352	1326.628662	2.782701
429.657135	996.678101	13587.134766	1231.056763	1.861558
430.017059	971.647400	13707.737305	1235.607788	2.072539
430.376984	978.473938	13878.401367	1190.097412	1.640501
430.736786	939.790100	13414.195313	1117.280762	1.422839
431.096588	964.820801	13471.083008	1258.363037	2.347162
431.456360	896.555176	13584.859375	1242.434326	2.725968
431.816071	983.024963	13234.428711	1219.679199	1.931650
432.175781	964.820801	13400.541992	1292.495850	2.634950
432.535400	937.514587	13352.755859	1140.035889	1.631231
432.895020	942.065613	13359.583008	1183.270874	1.942460
433.254578	976.198425	13687.257813	1187.821899	1.664877
433.614105	985.300537	13764.625000	1174.168701	1.477920
433.973602	953.443237	14190.147461	1108.178589	1.168987
434.333038	871.524475	13967.146484	1235.607788	2.780191
434.692444	969.371887	14356.260742	1265.189575	2.209757
435.051819	957.994263	14233.382813	1221.954712	1.988344
435.411133	1021.708862	14285.719727	1246.985352	1.698404
435.770416	932.963501	13939.840820	1199.199463	2.046886
436.129669	989.851563	14267.515625	1249.260864	1.953727
436.488861	992.127075	13946.666992	1183.270874	1.475497
436.848083	992.127075	14051.340820	1201.474976	1.603067
437.207184	998.953613	13930.738281	1165.066650	1.284533
437.566254	969.371887	14433.628906	1169.617676	1.487240
437.925293	1010.331238	14308.474609	1294.771362	2.138946
438.284363	967.096313	14374.464844	1199.199463	1.731161
438.643311	1046.739624	14572.435547	1149.138062	0.757066
439.002258	932.963501	14449.556641	1219.679199	2.121213
439.361145	1021.708862	15478.092773	1196.923950	1.212026
439.719971	948.892151	15614.624023	1194.648438	1.675718
440.078827	971.647400	15842.175781	1290.220337	2.142311
440.437592	1037.637451	16379.198242	1269.740601	1.512904
440.796295	1042.188477	16545.312500	1233.332275	1.232937
441.155029	1017.157776	17614.806641	1244.709839	1.370990
441.513672	898.830688	18336.146484	1299.322388	2.296751
441.872253	969.371887	17960.685547	1262.914063	1.727601
442.230865	923.861450	17544.265625	1233.332275	1.861993
442.589386	1085.423462	17341.744141	1262.914063	1.091825
442.947876	960.269775	17068.681641	1206.026001	1.525639
443.306335	967.096313	16820.650391	1258.363037	1.837233
443.664764	957.994263	16074.279297	1240.158813	1.866626
444.023102	919.310425	16688.669922	1215.128052	1.875901
444.381500	973.922913	16586.271484	1158.240112	1.180586
444.739777	957.994263	16424.708984	1231.056763	1.765485
445.098022	851.044800	16467.943359	1244.709839	2.520763
445.456238	978.473938	16631.781250	1194.648438	1.381015
445.814423	917.034912	17150.599609	1233.332275	1.948416
446.172577	996.678101	18217.820313	1265.189575	1.559197
446.530701	932.963501	18365.728516	1344.832764	2.362616
446.888733	910.208313	18727.537109	1274.291626	2.043423
447.246765	944.341125	19808.408203	1269.740601	1.724970
447.604736	962.545288	18905.027344	1281.118164	1.775523
447.962677	930.687988	19376.060547	1233.332275	1.640760
448.320587	967.096313	19637.744141	1253.812012	1.535649
448.678436	1005.780212	18859.515625	1162.791138	0.879429
449.036255	971.647400	18907.302734	1349.383789	2.106064
449.394043	971.647400	17696.724609	1281.118164	1.850340
449.751770	971.647400	17869.664063	1183.270874	1.252357
450.109467	939.790100	17398.632813	1215.128052	1.672888
450.467163	935.239075	17325.814453	1228.781250	1.790920
450.824768	980.749451	16959.457031	1249.260864	1.680433
451.182343	953.443237	17166.529297	1237.883301	1.754386
451.539886	923.861450	16097.034180	1196.923950	1.799640
451.897369	951.167725	16388.300781	1267.465088	2.048939
452.254822	985.300537	16392.851563	1221.954712	1.535962
452.612274	962.545288	16438.361328	1155.964600	1.249817
452.969635	996.678101	16624.955078	1228.781250	1.485149
453.326965	957.994263	16647.710938	1228.781250	1.725888
453.684326	953.443237	16165.299805	1258.363037	2.004488
454.041534	967.096313	15971.880859	1269.740601	2.016985
454.398773	978.473938	15532.705078	1190.097412	1.454034
454.755951	880.626526	15305.153320	1183.270874	2.098123
455.113098	1021.708862	14902.385742	1169.617676	1.065573
455.470215	969.371887	14747.650391	1165.066650	1.420314
455.827240	932.963501	15018.437500	1208.301514	1.954766
456.184265	960.269775	14704.415039	1246.985352	2.086092
456.541260	962.545288	14565.608398	1256.087524	2.157913
456.898193	1008.055725	14834.120117	1237.883301	1.662278
457.255096	1010.331238	14972.926758	1212.852539	1.450456
457.611969	964.820801	14649.802734	1165.066650	1.463253
457.968781	1003.504700	15009.334961	1174.168701	1.218521
458.325531	1010.331238	15321.082031	1253.812012	1.701384
458.682312	973.922913	15762.532227	1167.342163	1.307893
459.039001	953.443237	16816.099609	1240.158813	1.807488
459.395630	969.371887	17287.130859	1219.679199	1.533956
459.752289	971.647400	18870.894531	1253.812012	1.576405
460.108856	951.167725	20306.748047	1258.363037	1.587115
460.465363	930.687988	20816.464844	1226.505737	1.487585
460.821899	921.585938	20930.240234	1185.546387	1.319231
461.178345	928.412476	20238.482422	1231.056763	1.567287
461.534760	942.065613	19869.847656	1265.189575	1.707141
461.891144	976.198425	18597.832031	1253.812012	1.575413
462.247467	1023.984375	18158.656250	1308.424438	1.660026
462.603760	937.514587	17769.541016	1240.158813	1.798026
462.960052	987.576050	16793.343750	1240.158813	1.598042
463.316254	1049.015137	16317.759766	1194.648438	0.953800
463.672424	967.096313	16001.461914	1183.270874	1.437870
464.028564	962.545288	15616.899414	1167.342163	1.397516
464.384644	1008.055725	15585.041992	1180.995239	1.186387
464.740723	992.127075	15990.084961	1117.280762	0.834472
465.096741	921.585938	15614.624023	1192.372925	1.842961
465.452698	932.963501	15703.369141	1167.342163	1.586813
465.808655	901.106262	15849.001953	1208.301514	2.055107
466.164520	889.728638	15439.408203	1206.026001	2.173913
466.520355	971.647400	16347.341797	1180.995239	1.361550
466.876190	973.922913	16413.332031	1226.505737	1.635962
467.231964	978.473938	16331.413086	1146.862427	1.096783
467.587677	983.024963	17155.150391	1128.658325	0.900521
467.943390	948.892151	17246.171875	1158.240112	1.284558
468.299011	998.953613	16404.228516	1201.474976	1.314623
468.654633	939.790100	16467.943359	1110.454102	1.099062
469.010223	1039.912964	16565.791016	1126.382813	0.556940
469.365723	1005.780212	15673.787109	1237.883301	1.582376
469.721191	1030.810913	16015.115234	1244.709839	1.427487
470.076660	1005.780212	15589.592773	1162.791138	1.076611
470.432068	973.922913	15928.645508	1165.066650	1.278150
470.787445	996.678101	15318.805664	1151.413574	1.080394
471.142792	987.576050	15703.369141	1121.831787	0.912324
471.498016	951.167725	15748.879883	1158.240112	1.399354
471.853271	996.678101	15539.531250	1117.280762	0.829292
472.208496	994.402588	15753.430664	1155.964600	1.094666
472.563660	951.167725	15739.777344	1178.719727	1.538698
472.918762	935.239075	16310.933594	1158.240112	1.450348
473.273865	987.576050	16649.986328	1117.280762	0.828127
473.628876	980.749451	17055.029297	1258.363037	1.727067
473.983917	969.371887	16995.865234	1219.679199	1.561835
474.338837	978.473938	17004.966797	1203.750488	1.405651
474.693787	978.473938	16938.976563	1174.168701	1.226119
475.048645	939.790100	16695.496094	1192.372925	1.603120
475.403503	946.616638	16784.242188	1226.505737	1.767241
475.758270	1023.984375	17027.722656	1237.883301	1.336556
476.113037	946.616638	16768.312500	1165.066650	1.380699
476.467773	994.402588	17419.111328	1215.128052	1.343862
476.822418	1026.259888	18315.666016	1217.403687	1.105554
477.177063	917.034912	18183.687500	1215.128052	1.726410
477.531647	976.198425	18700.230469	1231.056763	1.437925
477.886200	928.412476	19109.824219	1221.954712	1.614518
478.240723	919.310425	19703.734375	1155.964600	1.259843
478.595184	964.820801	19690.082031	1187.821899	1.190910
478.949585	951.167725	20377.289063	1233.332275	1.452501
479.303986	907.932800	20322.675781	1235.607788	1.687764
479.658325	1023.984375	20322.675781	1281.118164	1.332390
480.012634	962.545288	20349.982422	1165.066650	1.044601
480.366913	955.718750	21021.261719	1233.332275	1.383534
480.721130	901.106262	21558.283203	1221.954712	1.553206
481.075317	946.616638	22486.697266	1338.006226	1.817029
481.429474	962.545288	23492.476563	1251.536499	1.282699
481.783569	996.678101	24436.818359	1228.781250	0.990195
482.137604	962.545288	25881.773438	1322.077637	1.442791
482.491669	964.820801	28155.019531	1281.118164	1.163277
482.845612	1019.433350	31054.033203	1287.944824	0.894007
483.199554	939.790100	35204.582031	1490.466064	1.607119
483.553436	1019.433350	41039.019531	1476.812988	1.142889
483.907318	980.749451	47870.132813	1683.885376	1.499563
484.261139	937.514587	53791.035156	1738.497925	1.515478
484.614899	892.004150	56366.925781	1733.946899	1.517700
484.968628	1014.882263	55886.789063	1722.569214	1.289707
485.322357	989.851563	53520.250000	1615.619751	1.191250
485.675964	964.820801	49763.363281	1583.762451	1.268361
486.029572	989.851563	45565.027344	1570.109375	1.301751
486.383148	976.198425	43346.394531	1488.190552	1.208378
486.736694	1026.259888	40661.281250	1419.924927	0.993225
487.090149	1001.229126	40847.875000	1476.812988	1.193536
487.443604	944.341125	41958.328125	1531.425537	1.431425
487.796997	932.963501	44281.636719	1604.242188	1.548557
488.150360	987.576050	45189.566406	1588.313477	1.359073
488.503693	962.545288	45797.132813	1513.221313	1.228239
488.856964	835.116150	45071.242188	1545.078613	1.604938
489.210175	953.443237	42074.378906	1490.466064	1.305960
489.563416	917.034912	40065.093750	1344.832764	1.092769
489.916565	996.678101	37700.828125	1488.190552	1.339120
490.269653	948.892151	35341.113281	1485.915039	1.561466
490.622772	967.096313	34267.066406	1408.547363	1.325680
490.975769	960.269775	34125.984375	1372.139038	1.241853
491.328735	957.994263	35564.113281	1381.241089	1.223040
491.681732	980.749451	37780.472656	1435.853638	1.236705
492.034607	1005.780212	40306.300781	1515.496826	1.296972
492.387482	1005.780212	40998.058594	1515.496826	1.274538
492.740326	946.616638	39530.347656	1408.547363	1.197216
493.093079	1008.055725	37689.449219	1442.680176	1.184863
493.445862	1026.259888	34558.335938	1449.506714	1.262215
493.798523	960.269775	31911.904297	1410.822876	1.455668
494.151215	937.514587	29486.199219	1312.975464	1.315160
494.503815	942.065613	27454.158203	1331.179688	1.467685
494.856384	951.167725	25943.212891	1299.322388	1.393062
495.208923	1035.361938	24632.511719	1260.638550	0.954677
495.561432	923.861450	23874.763672	1244.709839	1.397977
495.913879	969.371887	24197.888672	1322.077637	1.518417
496.266296	926.136963	24345.796875	1249.260864	1.379712
496.618683	1021.708862	24015.845703	1260.638550	1.039090
496.970978	969.371887	24914.677734	1292.495850	1.349425
497.323273	985.300537	25158.158203	1317.526489	1.374376
497.675507	1019.433350	25296.964844	1260.638550	0.993533
498.027710	1028.535400	25349.300781	1281.118164	1.038548
498.379852	923.861450	24955.636719	1276.567139	1.467664
498.731995	971.647400	24409.511719	1260.638550	1.233010
499.084076	1051.290649	24320.765625	1308.424438	1.105026
499.436096	1080.872437	23981.712891	1335.730713	1.112877
499.788086	1049.015137	23340.017578	1303.873413	1.143324
500.140106	989.851563	22666.462891	1246.985352	1.186227
500.491943	1033.086426	22322.859375	1246.985352	1.004703
500.843842	1044.463989	22081.654297	1224.230225	0.854516
501.195679	1001.229126	21544.630859	1253.812012	1.229509
501.547455	1001.229126	21237.435547	1231.056763	1.135725
501.899231	987.576050	21189.650391	1258.363037	1.340392
502.250885	932.963501	21080.423828	1242.434326	1.536029
502.602600	957.994263	20941.617188	1240.158813	1.411979
502.954193	930.687988	20843.771484	1262.914063	1.668381
503.305786	1026.259888	20861.974609	1228.781250	1.020993
503.657379	932.963501	20909.759766	1274.291626	1.708623
504.008820	971.647400	20918.863281	1210.577026	1.197809
504.360291	994.402588	21096.353516	1297.046875	1.505547
504.711700	994.402588	21253.365234	1226.505737	1.145681
505.063080	946.616638	21226.058594	1226.505737	1.380162
505.414368	951.167725	21146.414063	1212.852539	1.295774
505.765656	1037.637451	21053.119141	1178.719727	0.704866
506.116943	932.963501	21353.486328	1262.914063	1.615779
506.468109	960.269775	20693.585938	1174.168701	1.083948
506.819305	989.851563	20880.179688	1183.270874	0.972429
507.170410	1023.984375	20930.240234	1244.709839	1.108825
507.521484	978.473938	20877.904297	1276.567139	1.497999
507.872559	1021.708862	21073.597656	1322.077637	1.497957
508.223480	967.096313	21073.597656	1260.638550	1.459937
508.574493	885.177612	21262.466797	1328.904175	2.177554
508.925385	994.402588	21788.111328	1262.914063	1.291311
509.276245	946.616638	21926.917969	1235.607788	1.377440
509.627045	939.790100	22284.175781	1281.118164	1.599147
509.977814	926.136963	22739.279297	1258.363037	1.523055
510.328613	1014.882263	22832.576172	1299.322388	1.303713
510.679260	1010.331238	22991.861328	1315.250977	1.387163
511.029999	987.576050	23171.628906	1251.536499	1.189866
511.380585	1017.157776	23201.210938	1331.179688	1.415530
511.731140	960.269775	23362.771484	1344.832764	1.716607
512.081726	1008.055725	23556.191406	1285.669312	1.231204
512.432129	1039.912964	23692.722656	1278.842651	1.054746
512.782654	978.473938	24061.357422	1292.495850	1.360410
513.133057	955.718750	23738.232422	1403.996338	1.967639
513.483398	989.851563	23968.060547	1376.690063	1.683501
513.833801	983.024963	24152.376953	1294.771362	1.345512
514.183960	1026.259888	23189.832031	1310.699951	1.283367
514.534302	983.024963	23406.007813	1310.699951	1.461335
514.884460	946.616638	23410.558594	1347.108276	1.782820
515.234619	953.443237	23091.984375	1349.383789	1.788467
515.584717	996.678101	23228.515625	1260.638550	1.187308
515.934753	898.830688	23228.515625	1315.250977	1.864873
516.284851	932.963501	23522.058594	1287.944824	1.571472
516.634766	948.892151	23239.894531	1351.659302	1.806860
516.984741	964.820801	24375.378906	1347.108276	1.632970
517.334595	1028.535400	24841.861328	1338.006226	1.299570
517.684448	994.402588	25497.210938	1262.914063	1.095840
518.034363	1014.882263	26805.634766	1363.036987	1.349921
518.384094	937.514587	27913.814453	1272.016113	1.239983
518.733826	969.371887	29092.533203	1438.129150	1.666801
519.083496	978.473938	29463.443359	1356.210449	1.326091
519.433167	962.545288	29993.640625	1388.067749	1.465747
519.782776	937.514587	29716.025391	1385.792114	1.557681
520.132324	944.341125	29001.511719	1403.996338	1.638281
520.481873	944.341125	28471.316406	1394.894287	1.636770
520.831299	1049.015137	27925.191406	1410.822876	1.346202
521.180786	930.687988	26867.074219	1426.751587	1.912616
521.530151	998.953613	26491.613281	1433.578125	1.704901
521.879517	1019.433350	26300.468750	1385.792114	1.449145
522.228882	953.443237	26352.806641	1406.271851	1.782835
522.578064	987.576050	25906.804688	1317.526489	1.324080
522.927307	930.687988	26020.580078	1372.139038	1.759478
523.276489	935.239075	25786.201172	1342.557251	1.639044
523.625610	976.198425	26459.755859	1335.730713	1.410840
523.974792	992.127075	27005.880859	1358.485962	1.408328
524.323792	889.728638	27486.015625	1394.894287	1.899384
524.672852	1012.606750	27542.904297	1383.516602	1.398061
525.021790	992.127075	28767.134766	1449.506714	1.646731
525.370728	1003.504700	30485.152344	1510.945801	1.721210
525.719604	973.922913	31427.218750	1422.200562	1.472017
526.068420	919.310425	33479.738281	1483.639526	1.733175
526.417297	932.963501	35088.531250	1515.496826	1.705530
526.765991	951.167725	35894.066406	1524.598877	1.641052
527.114746	964.820801	37357.226563	1604.242188	1.757019
527.463379	1019.433350	38074.015625	1629.272949	1.645787
527.812012	976.198425	40579.363281	1661.130127	1.729487
528.160706	996.678101	44131.449219	1579.211426	1.350496
528.509155	1012.606750	49189.933594	1736.222412	1.501984
528.857727	1062.668213	53458.808594	1770.355225	1.350647
529.206177	951.167725	56300.937500	1920.539551	1.751357
529.554565	1003.504700	56191.710938	1824.967651	1.488476
529.902893	994.402588	54935.625000	1838.620850	1.565071
530.251221	957.994263	52339.253906	1909.161987	1.851196
530.599548	1008.055725	48313.859375	1652.028076	1.361297
530.947876	951.167725	44802.730469	1718.018188	1.748742
531.296021	914.759338	41305.253906	1690.711914	1.921127
531.644165	1017.157776	38961.468750	1592.864502	1.517241
531.992249	980.749451	37025.000000	1567.833862	1.628788
532.340454	962.545288	36335.515625	1554.180664	1.672564
532.688354	983.024963	36740.558594	1604.242188	1.737304
533.036438	951.167725	37864.667969	1649.752563	1.892491
533.384338	967.096313	39432.500000	1658.854614	1.798391
533.732239	1012.606750	41605.621094	1640.650513	1.547172
534.080139	932.963501	42103.960938	1604.242188	1.630465
534.427917	946.616638	41940.125000	1761.253052	1.987233
534.775757	932.963501	39448.429688	1663.405762	1.896491
535.123474	1033.086426	38074.015625	1654.303589	1.677110
535.471191	896.555176	35598.246094	1520.047852	1.796721
535.818848	1019.433350	34287.546875	1515.496826	1.491108
536.166382	989.851563	33807.414063	1515.496826	1.601719
536.513977	921.585938	33406.921875	1563.282837	1.975343
536.861511	946.616638	34207.902344	1599.691162	1.963467
537.208984	1030.810913	33928.015625	1449.506714	1.272740
537.556396	939.790100	33862.023438	1540.527588	1.824717
537.903809	976.198425	32872.171875	1561.007324	1.833488
538.251160	935.239075	32066.638672	1567.833862	2.032015
538.598389	1001.229126	30960.736328	1504.119263	1.678566
538.945740	1046.739624	29486.199219	1467.710938	1.480237
539.292969	969.371887	29192.656250	1504.119263	1.894703
539.640137	898.830688	29256.371094	1504.119263	2.134489
539.987244	946.616638	29422.484375	1497.292725	1.933834
540.334351	951.167725	30228.017578	1513.221313	1.919788
540.681458	994.402588	32282.814453	1515.496826	1.665454
541.028442	978.473938	35184.101563	1547.354126	1.663119
541.375366	971.647400	38706.609375	1622.446289	1.724658
541.722290	960.269775	41466.816406	1729.395752	1.898769
542.069153	978.473938	43143.875000	1736.222412	1.797086
542.416016	1012.606750	43473.824219	1772.630737	1.789925
542.762756	989.851563	42204.085938	1697.538574	1.717094
543.109558	944.341125	40850.148438	1724.844727	1.955865
543.456299	894.279663	38672.476563	1672.507813	2.059993
543.802917	951.167725	37111.468750	1679.334351	2.013718
544.149536	962.545288	35668.789063	1636.099487	1.940729
544.496094	985.300537	33263.562500	1631.548462	2.002115
544.842651	1014.882263	31766.269531	1565.558350	1.790736
545.189148	912.483826	29968.609375	1531.425537	2.130159
545.535583	917.034912	29158.523438	1545.078613	2.223834
545.882019	960.269775	28459.939453	1551.905151	2.151427
546.228333	962.545288	27904.710938	1565.558350	2.238176
546.574707	967.096313	28334.785156	1472.261963	1.845847
546.920898	948.892151	28414.427734	1599.691162	2.369512
547.267212	1010.331238	28339.335938	1595.140137	2.139884
547.613342	1001.229126	27868.302734	1538.252075	1.998814
547.959473	1021.708862	27856.925781	1633.823975	2.281014
548.305664	914.759338	27094.626953	1531.425537	2.355498
548.651611	1033.086426	25761.171875	1574.660400	2.190117
548.997742	992.127075	24564.246094	1526.874512	2.268559
549.343689	946.616638	23660.865234	1474.537476	2.324184
549.689575	951.167725	22741.554688	1485.915039	2.454051
550.035522	896.555176	21897.335938	1454.057739	2.654675
550.381287	1001.229126	21128.210938	1363.036987	1.797626
550.727173	1017.157776	21094.078125	1419.924927	2.006120
551.072876	983.024963	20452.380859	1451.782227	2.407667
551.418640	987.576050	20293.093750	1440.404663	2.345592
551.764282	923.861450	20463.757813	1456.333252	2.725049
552.109863	967.096313	20309.023438	1576.935913	3.152941
552.455505	994.402588	20861.974609	1438.129150	2.233421
552.801025	1008.055725	20846.046875	1485.915039	2.408809
553.146545	969.371887	21210.128906	1426.751587	2.259696
553.491943	953.443237	21075.873047	1515.496826	2.793169
553.837341	992.127075	21464.988281	1485.915039	2.411915
554.182800	996.678101	21221.507813	1495.017212	2.463997
554.528015	1010.331238	20670.830078	1520.047852	2.592592
554.873352	964.820801	19983.623047	1483.639526	2.727925
555.218628	978.473938	20179.318359	1474.537476	2.583551
555.563721	935.239075	19756.072266	1492.741699	2.962157
555.908875	987.576050	19323.722656	1508.670288	2.841896
556.254028	930.687988	19057.486328	1538.252075	3.351745
556.599121	942.065613	18859.515625	1479.088501	2.997206
556.944031	903.381775	18745.740234	1440.404663	3.009820
557.289063	996.678101	18666.097656	1410.822876	2.343850
557.633972	960.269775	18704.781250	1549.629639	3.321364
557.978882	969.371887	18593.281250	1456.333252	2.763072
558.323792	994.402588	18352.076172	1490.466064	2.857892
558.668518	998.953613	17846.910156	1483.639526	2.876823
559.013306	1003.504700	18176.859375	1581.486938	3.365576
559.358032	987.576050	17931.103516	1581.486938	3.505238
559.702637	1014.882263	18049.431641	1579.211426	3.312851
560.047363	994.402588	18272.431641	1647.477051	3.779797
560.391846	1019.433350	18047.156250	1611.068726	3.474542
560.736450	964.820801	17926.552734	1692.987427	4.292997
561.080933	948.892151	18256.503906	1686.160889	4.259795
561.425354	939.790100	18092.666016	1645.201538	4.112497
561.769775	957.994263	18461.300781	1617.895264	3.770150
562.114136	1012.606750	18368.003906	1604.242188	3.408942
562.458496	1001.229126	18374.830078	1715.742676	4.112639
562.802673	951.167725	18456.750000	1667.956787	4.094631
563.146912	980.749451	18149.554688	1667.956787	4.002651
563.491150	946.616638	18003.919922	1692.987427	4.375667
563.835266	980.749451	18181.412109	1663.405762	3.968779
564.179443	948.892151	18167.757813	1688.436401	4.294965
564.523438	894.279663	18333.871094	1667.956787	4.436326
564.867493	973.922913	18072.185547	1720.293701	4.365185
565.211426	1003.504700	18170.033203	1713.467163	4.135737
565.555359	928.412476	18882.271484	1793.110352	4.816223
565.899231	987.576050	19184.916016	1904.610962	5.039390
566.243042	1008.055725	19794.755859	1868.202637	4.578489
566.586914	973.922913	20065.542969	1840.896362	4.541121
566.930603	998.953613	20318.125000	1922.815063	4.782096
567.274292	989.851563	20243.033203	2038.866699	5.448529
567.617981	978.473938	20281.716797	1941.019287	4.986444
567.961609	996.678101	20126.982422	2061.621826	5.566789
568.305237	951.167725	19726.490234	2009.284912	5.635681
568.648682	1021.708862	19574.029297	2022.937988	5.396787
568.992188	955.718750	19182.640625	1929.641602	5.343320
569.335632	969.371887	18859.515625	2091.203613	6.270669
569.679016	1026.259888	18820.832031	2041.142212	5.703325
570.022461	919.310425	18934.609375	2077.550537	6.429203
570.365662	939.790100	18818.556641	2157.193604	6.809215
570.708984	969.371887	18775.322266	2214.081787	6.990416
571.052185	942.065613	19280.488281	2164.020264	6.663357
571.395386	989.851563	19175.814453	2173.122314	6.506506
571.738525	1010.331238	19815.234375	2355.164063	7.151501
572.081604	1001.229126	20229.380859	2421.154053	7.384614
572.424683	978.473938	20372.738281	2525.828125	7.978412
572.767578	1039.912964	20791.433594	2430.256104	7.039170
573.110596	1062.668213	20513.820313	2393.847900	6.843706
573.453552	962.545288	20450.105469	2523.552490	8.010275
573.796387	1033.086426	20202.074219	2591.818115	8.131528
574.139282	948.892151	20154.287109	2655.532715	8.886256
574.481995	962.545288	19899.429688	2662.359375	8.976208
574.824768	1008.055725	19742.417969	2589.542725	8.441639
575.167480	992.127075	19840.265625	2660.083740	8.849450
575.510132	980.749451	19314.621094	2792.063965	9.879607
575.852722	894.279663	19410.193359	2855.778564	10.593584
576.195251	967.096313	19118.925781	2810.268311	10.154194
576.537842	1014.882263	19159.884766	2858.054199	10.158014
576.880188	948.892151	19023.353516	2751.104736	9.971045
577.222717	998.953613	18404.412109	2848.952148	10.628840
577.565063	1021.708862	17997.093750	2864.880615	10.857908
577.907410	1012.606750	17999.369141	2776.135498	10.381783
578.249756	953.443237	17130.121094	2803.441650	11.436208
578.591919	964.820801	16936.701172	2985.483398	12.651376
578.934204	955.718750	16602.199219	2971.830078	12.885398
579.276306	1005.780212	16279.076172	3046.922363	13.364123
579.618469	937.514587	15960.502930	2896.738037	13.041503
579.960571	928.412476	15962.778320	2896.738037	13.092175
580.302551	1014.882263	15250.540039	2942.248291	13.539001
580.644531	994.402588	15227.785156	3035.544678	14.340527
580.986511	1044.463989	15332.458984	3033.269287	13.919415
581.328369	901.106262	15218.683594	2978.656738	14.510489
581.670227	983.024963	15364.316406	3110.636963	14.794305
582.012024	985.300537	15104.907227	3117.463379	15.100724
582.353821	942.065613	14995.681641	3137.943115	15.624999
582.695496	1005.780212	15050.294922	3222.137451	15.780946
583.037231	1026.259888	14809.089844	3292.678711	16.443785
583.378845	957.994263	14868.252930	3253.994629	16.505808
583.720398	901.106262	14608.843750	3283.576416	17.380478
584.062012	948.892151	14415.423828	3340.464600	17.759380
584.403442	946.616638	14595.190430	3395.077148	17.939314
584.744934	1028.535400	14542.853516	3340.464600	17.107258
585.086365	953.443237	14447.281250	3483.822266	18.752108
585.427734	957.994263	14344.882813	3538.434814	19.275879
585.768982	948.892151	14183.321289	3599.874023	20.030951
586.110291	973.922913	14297.097656	3752.333740	20.853970
586.451599	896.555176	14103.677734	3765.986816	21.726395
586.792725	971.647400	14470.037109	3699.996826	20.212406
587.133850	1010.331238	13987.625977	3770.538086	21.269508
587.474915	971.647400	14376.740234	3854.732178	21.507383
587.815979	989.851563	14358.536133	3970.783691	22.297873
588.157043	939.790100	14549.679688	4068.631104	22.989468
588.497925	926.136963	14408.597656	4166.478516	24.033754
588.838867	1028.535400	14549.679688	4068.631104	22.484011
589.179749	1074.045776	14492.791992	4225.642090	23.486517
589.520569	955.718750	14941.069336	4321.213867	24.064432
589.861450	1023.984375	14979.753906	4421.336914	24.343714
590.202087	951.167725	14902.385742	4496.429199	25.411842
590.542847	964.820801	15148.141602	4607.929688	25.685867
590.883484	969.371887	14909.211914	4585.174316	25.938623
591.224121	930.687988	14781.783203	4723.980957	27.386230
591.564636	901.106262	14888.732422	4644.337891	26.761023
591.905151	962.545288	14827.293945	4821.828613	27.835218
592.245667	976.198425	14563.333008	4726.256836	27.600067
592.585999	1001.229126	14495.067383	4805.899902	28.195618
592.926453	987.576050	14278.892578	4673.919922	27.734978
593.266724	971.647400	14520.098633	4828.655273	28.468256
593.607056	1005.780212	14235.658203	4962.910645	29.910559
593.947388	1028.535400	14319.852539	4956.084473	29.549734
594.287476	1049.015137	14483.689453	5126.748535	30.352306
594.627686	989.851563	14633.874023	5190.462891	30.787191
594.967773	948.892151	15000.233398	5151.779297	29.910933
595.307861	1010.331238	15293.775391	5286.034668	29.934681
595.647888	946.616638	15063.947266	5292.861328	30.786589
595.987854	1001.229126	15334.734375	5597.781250	32.068584
596.327820	998.953613	15628.277344	5816.230957	32.928913
596.667725	853.320313	16201.708008	5798.026855	32.216457
597.007568	939.790100	16556.689453	6191.691895	33.629608
597.347351	1008.055725	17216.589844	6423.795410	33.412891
597.687073	1023.984375	17466.898438	6441.999512	32.950455
598.026794	962.545288	17407.734375	6464.754395	33.457863
598.366455	951.167725	16975.384766	6362.355957	33.768818
598.706116	937.514587	16424.708984	6203.069824	33.999413
599.045654	980.749451	15976.431641	6168.937012	34.597874
599.385193	989.851563	15025.263672	5920.905273	35.132946
599.724731	978.473938	14802.262695	5784.374023	34.765430
600.064087	912.483826	14770.405273	5700.179688	34.548439
600.403564	971.647400	14037.687500	5757.067871	36.624870
600.742920	921.585938	13980.799805	5820.782227	37.515247
601.082153	955.718750	13789.656250	5572.750488	35.975178
601.421387	926.136963	13996.728516	5691.077637	36.455429
601.760620	973.922913	13527.970703	5588.679199	36.759109
602.099854	946.616638	13871.575195	5766.169922	37.288731
602.438843	973.922913	13762.349609	5820.782227	37.900356
602.778015	937.514587	13960.320313	5875.394531	37.917175
603.117065	1042.188477	14617.945313	6091.569336	37.194103
603.456055	873.799988	14827.293945	6175.763672	37.997391
603.794983	983.024963	15059.396484	6271.335449	37.568707
604.133850	969.371887	15737.501953	6687.755859	38.721111
604.472778	996.678101	16229.014648	6730.990723	37.645653
604.811584	953.443237	16706.873047	6994.951172	38.350430
605.150330	948.892151	17339.468750	7172.441406	37.970291
605.489075	948.892151	17318.988281	7334.003418	39.004726
605.827698	948.892151	17328.091797	7229.329590	38.343983
606.166382	971.647400	16806.996094	7258.911133	39.703979
606.504883	985.300537	16376.922852	6983.573242	38.971024
606.843445	985.300537	16031.043945	6885.726074	39.216579
607.181946	876.075500	15546.358398	6715.062012	39.801456
607.520386	951.167725	14961.548828	6548.948730	39.954525
607.858826	942.065613	15004.784180	6376.009277	38.640778
608.197083	1012.606750	14456.383789	6348.703125	39.691940
608.535461	971.647400	14429.077148	6223.549316	39.026039
608.873718	989.851563	14265.240234	6282.712891	39.869728
609.211914	935.239075	14479.138672	6264.508789	39.348118
609.550171	1014.882263	14834.120117	6533.020020	39.930840
609.888245	971.647400	15468.990234	6617.214355	38.942081
610.226318	935.239075	15637.378906	6762.847656	39.637825
610.564392	1023.984375	15905.890625	7131.482422	41.039757
610.902344	1019.433350	15432.582031	7085.971680	42.090305
611.240295	955.718750	15268.744141	7156.512695	43.322735
611.578247	1017.157776	14916.039063	7035.910156	43.303864
611.916138	1008.055725	14595.190430	6994.951172	44.062973
612.253845	964.820801	14128.708984	6862.970703	44.805527
612.591675	953.443237	13939.840820	6514.815918	42.824600
612.929382	955.718750	13598.512695	6528.469238	44.078472
613.267090	989.851563	13236.704102	6244.029297	42.902271
613.604736	985.300537	13170.714844	6244.029297	43.155930
613.942261	955.718750	12959.090820	5968.690918	41.763031
614.279785	971.647400	12804.355469	6068.813965	43.076923
614.617310	955.718750	12508.538086	6059.711914	44.179634
614.954712	921.585938	12353.802734	5811.680176	42.774681
615.292175	973.922913	12262.781250	5848.088379	43.176781
615.629517	944.341125	12397.037109	5955.038086	43.751240
615.966797	1014.882263	12265.056641	5750.241211	42.091427
616.304138	1012.606750	12312.842773	5795.751465	42.327827
616.641296	967.096313	12255.955078	5804.853516	42.854267
616.978516	1014.882263	11978.341797	5759.343262	43.275215
617.315552	971.647400	12001.096680	5738.863281	43.222610
617.652771	923.861450	12342.424805	5772.996094	42.467117
617.989685	998.953613	12296.914063	5788.924805	42.396774
618.326721	994.402588	12331.046875	5734.312500	41.810520
618.663696	987.576050	12121.699219	5716.108398	42.468834
619.000549	1033.086426	12169.485352	5768.445313	42.521458
619.337463	1001.229126	12246.852539	5791.200684	42.594097
619.674194	1008.055725	11966.963867	5804.853516	43.770763
620.010986	964.820801	12244.577148	5647.842773	41.517052
620.347778	971.647400	12044.332031	5613.709961	41.923550
620.684387	942.065613	11561.920898	5759.343262	45.361050
621.020996	951.167725	11787.197266	5625.087402	43.133141
621.357605	910.208313	11871.391602	5609.158691	42.869003
621.694214	967.096313	11607.431641	5584.127930	43.391788
622.030579	935.239075	11571.023438	5486.280762	42.789902
622.367065	1014.882263	11691.625977	5479.454102	41.815853
622.703430	969.371887	11611.982422	5554.546387	43.083176
623.039795	944.341125	11659.768555	5397.535156	41.558712
623.376160	896.555176	11596.053711	5502.209473	43.045517
623.712402	935.239075	11530.063477	5506.760254	43.148624
624.048645	1008.055725	11493.655273	5540.893066	43.229168
624.384766	994.402588	11434.492188	5531.791016	43.461205
624.720886	939.790100	11370.777344	5463.525391	43.368237
625.057007	1019.433350	11778.095703	5449.872559	41.180206
625.392944	944.341125	11748.513672	5372.504395	40.985676
625.729004	923.861450	11625.635742	5509.035645	42.844990
626.064941	1023.984375	11935.106445	5479.454102	40.834202
626.400818	935.239075	12192.240234	5800.302734	43.218113
626.736633	932.963501	12531.292969	5813.955566	42.083580
627.072449	932.963501	12590.457031	5745.689941	41.284405
627.408264	1003.504700	12597.283203	5850.363770	41.805687
627.743896	957.994263	12758.844727	5939.109375	42.209797
628.079590	998.953613	12790.702148	5961.864258	42.087997
628.415161	992.127075	12765.671875	5886.772461	41.573254
628.750793	1014.882263	12262.781250	5811.680176	42.646168
629.086365	955.718750	12228.648438	5738.863281	42.430359
629.421753	942.065613	12071.637695	5584.127930	41.709263
629.757263	919.310425	11805.402344	5463.525391	41.743309
630.092651	960.269775	11928.280273	5445.321289	40.892117
630.427917	960.269775	11348.022461	5404.361816	42.782032
630.763184	976.198425	11402.634766	5438.494629	42.797905
631.098511	942.065613	11309.338867	5429.392578	43.283581
631.433716	1019.433350	11099.990234	5249.626465	41.963886
631.768799	992.127075	11061.306641	5304.238770	42.824856
632.103943	985.300537	10747.285156	5320.167480	44.405594
632.438965	1026.259888	10865.612305	5165.432129	42.067528
632.773987	985.300537	10799.622070	5051.656250	41.432877
633.109070	983.024963	10578.896484	4999.319336	41.854401
633.443848	994.402588	10308.109375	5092.615723	44.001953
633.778870	1021.708862	10647.162109	4892.369629	40.212765
634.113708	1005.780212	10603.926758	5113.095215	42.792793
634.448425	926.136963	10788.244141	4876.440918	40.055374
634.783264	994.402588	10917.949219	5226.871094	42.650764
635.117859	1003.504700	10549.314453	4903.747559	40.858170
635.452576	951.167725	10804.172852	4949.257813	40.577370
635.787170	953.443237	10628.958008	4976.563965	41.580429
636.121704	964.820801	10376.375000	4917.400391	41.997097
636.456177	957.994263	10394.579102	4865.063477	41.403423
636.790588	987.576050	10280.802734	4771.767090	40.719883
637.125122	978.473938	10116.965820	4769.491699	41.484062
637.459412	971.647400	10062.352539	4669.368652	40.675846
637.793762	957.994263	9825.699219	4623.858398	41.339493
638.128052	944.341125	9802.943359	4660.266602	41.947086
638.462280	957.994263	9695.994141	4598.827637	41.666668
638.796509	892.004150	9673.239258	4607.929688	42.316662
639.130615	985.300537	9468.442383	4489.602539	41.309013
639.464722	998.953613	9620.902344	4519.184082	40.828709
639.798767	955.718750	9500.299805	4396.306152	40.266308
640.132751	1035.361938	9240.889648	4496.429199	42.179707
640.466736	1033.086426	9331.911133	4503.255859	41.815193
640.800598	957.994263	9229.512695	4482.775879	42.613480
641.134521	980.749451	8958.725586	4350.795898	42.241871
641.468262	989.851563	9045.195313	4287.081055	40.932201
641.802063	978.473938	9195.379883	4262.050293	39.961224
642.135803	917.034912	8910.939453	4321.213867	42.584686
642.469421	942.065613	8888.184570	4257.499512	41.723938
642.803101	971.647400	8976.929688	4232.468750	40.733372
643.136658	971.647400	8669.734375	4339.417969	43.748150
643.470215	969.371887	8742.550781	4084.559814	40.076115
643.803711	969.371887	8712.968750	4207.437988	41.816048
644.137085	939.790100	8847.224609	4132.345703	40.374100
644.470581	964.820801	8726.622070	4168.753906	41.278217
644.803833	985.300537	8772.132813	4054.978027	39.421391
645.137207	1001.229126	8642.427734	4073.182129	40.202503
645.470459	985.300537	8672.009766	4114.141602	40.704559
645.803589	996.678101	8560.508789	4073.182129	40.673885
646.136780	1039.912964	8772.132813	4041.324951	38.816952
646.469849	1012.606750	8519.549805	4130.070313	41.527740
646.802979	998.953613	8656.081055	4218.815430	42.050518
647.135986	946.616638	8826.745117	4157.376465	40.745018
647.468994	969.371887	8799.438477	3982.161377	38.477192
647.801941	989.851563	8628.774414	4086.835449	40.542152
648.134766	939.790100	8703.867188	4143.723145	41.266117
648.467651	1019.433350	8990.583008	4109.590332	38.766769
648.800354	992.127075	8685.663086	4143.723145	40.964211
649.133179	937.514587	8667.458984	4009.467773	39.740948
649.465881	1060.392700	8790.336914	4141.447754	39.858700
649.798462	917.034912	8699.316406	4111.866211	41.052631
650.131104	976.198425	8533.203125	4009.467773	40.138512
650.463623	992.127075	8815.367188	4070.906738	39.354279
650.796143	973.922913	8724.346680	4020.845215	39.312977
651.128662	1008.055725	8681.112305	4048.151611	39.620403
651.461060	989.851563	8763.030273	4196.060547	41.247078
651.793396	907.932800	8986.031250	4107.314941	39.605633
652.125732	951.167725	8865.428711	4123.243652	40.080509
652.458008	976.198425	8790.336914	4105.039551	40.040768
652.790222	1005.780212	8724.346680	4041.324951	39.327831
653.122437	921.585938	8772.132813	4000.365479	39.217388
653.454529	914.759338	8774.408203	3886.589600	37.811234
653.786621	935.239075	8460.386719	4059.529053	41.517990
654.118713	957.994263	8533.203125	3975.334961	39.831783
654.450623	1017.157776	8544.581055	3863.834229	37.817410
654.782654	946.616638	8489.967773	3991.263428	40.361992
655.114502	989.851563	8453.559570	3984.437012	40.121952
655.446350	1026.259888	8235.109375	3802.395264	38.510101
655.778198	973.922913	8526.375977	3854.732178	38.144020
656.109863	1001.229126	8405.773438	3909.344727	39.274742
656.441650	985.300537	8310.202148	3784.191162	38.210625
656.773254	1023.984375	8273.793945	3845.630127	38.920273
657.104919	962.545288	8291.998047	3847.905762	39.366653
657.436462	998.953613	8255.589844	3975.334961	41.015991
657.767944	957.994263	8357.988281	3952.579590	40.467403
658.099548	983.024963	8451.284180	3900.242676	39.061550
658.430908	1058.117188	8535.478516	3982.161377	39.105293
658.762268	919.310425	8840.398438	4041.324951	39.413963
659.093628	1014.882263	9081.603516	4089.110840	38.110012
659.424927	944.341125	9284.125000	4250.672852	39.645290
659.756226	989.851563	9589.044922	4325.765137	38.793331
660.087341	953.443237	9805.218750	4498.704590	40.051414
660.418518	983.024963	9766.535156	4312.111816	37.901558
660.749573	937.514587	9650.483398	4268.876953	38.234528
661.080627	964.820801	9541.258789	4318.938477	39.108521
661.411621	971.647400	9347.839844	4082.284424	37.136646
661.742554	971.647400	9270.471680	4255.224121	39.566769
662.073547	994.402588	9024.715820	4095.937500	38.622837
662.404297	937.514587	8872.255859	4029.947266	38.973328
662.735229	1030.810913	8378.467773	3995.814453	40.353046
663.065979	953.443237	8606.019531	3850.181152	37.853107
663.396667	937.514587	8419.426758	3809.221924	38.381996
663.727417	1028.535400	8153.190918	3681.792725	37.240501
664.057922	998.953613	7993.904785	3734.129639	39.102146
664.388611	939.790100	8037.139648	3843.354736	40.910549
664.719116	992.127075	7868.750977	3656.761963	38.749172
665.049622	978.473938	7720.842285	3643.108887	39.520760
665.380005	953.443237	7732.219727	3574.843262	38.670696
665.710388	994.402588	7682.158203	3549.812500	38.210274
666.040771	946.616638	7764.077148	3547.536865	38.150864
666.371033	1001.229126	7679.882813	3454.240479	36.729126
666.701294	992.127075	7459.157227	3504.302002	38.845879
667.031555	967.096313	7568.382324	3581.669678	39.607029
667.361633	964.820801	7711.740234	3513.404053	37.774029
667.691772	1019.433350	7561.555664	3483.822266	37.669563
668.021790	980.749451	7399.993652	3554.363525	40.092167
668.351807	932.963501	7816.414063	3465.618164	36.793388
668.681763	962.545288	7463.708008	3595.322754	40.497025
669.011719	951.167725	7563.831055	3490.648926	38.403305
669.341614	942.065613	7561.555664	3527.057129	39.051216
669.671387	960.269775	7700.362305	3417.832275	36.461849
670.001221	930.687988	7638.923340	3449.689453	37.550880
670.330933	944.341125	7645.750000	3604.425049	39.694401
670.660583	946.616638	7643.474609	3529.332764	38.566086
670.990173	944.341125	7677.607422	3583.945313	39.202435
671.319763	994.402588	7420.473145	3472.444824	38.562328
671.649292	960.269775	7495.565430	3513.404053	39.066849
671.978821	960.269775	7327.176758	3404.179199	38.384563
672.308289	973.922913	7313.523926	3338.188965	37.293610
672.637695	980.749451	7390.891602	3442.863037	38.409657
672.966980	1026.259888	7281.666504	3360.944336	37.322666
673.296326	1012.606750	7390.891602	3440.587402	38.066360
673.625610	967.096313	7277.115723	3429.209961	39.019115
673.954773	994.402588	7161.063965	3365.495361	38.450188
674.283936	1042.188477	7283.941895	3276.750000	35.800220
674.613037	971.647400	6972.195801	3331.362549	39.324989
674.942078	1014.882263	7085.971680	3288.127441	37.443775
675.271118	926.136963	7136.033203	3194.831299	36.533527
675.600098	1021.708862	7060.940918	3224.413086	36.473248
675.928955	957.994263	7045.012207	3201.657715	36.859814
676.257813	960.269775	7099.625000	3188.004639	36.286137
676.586670	948.892151	7008.604004	3308.607178	38.941044
676.915466	1008.055725	7124.655762	3101.534912	34.226192
677.244141	992.127075	7056.390137	3190.280273	36.247658
677.572876	962.545288	7017.706055	3342.739990	39.308533
677.901489	964.820801	6940.338379	3301.780762	39.108913
678.230042	1028.535400	6935.787598	3194.831299	36.671806
678.558594	1019.433350	7029.083984	3301.780762	37.978039
678.887085	937.514587	7042.736816	3185.729004	36.824448
679.215515	942.065613	6994.951172	3370.046387	40.112778
679.543945	992.127075	7279.391113	3372.321777	37.857403
679.872253	1019.433350	7113.277832	3340.464600	38.088127
680.200562	1008.055725	7343.105469	3411.005615	37.931034
680.528809	962.545288	7418.197754	3358.668701	37.116676
680.856995	930.687988	7618.443848	3490.648926	38.278324
681.185120	939.790100	7864.199707	3577.118652	38.087414
681.513306	957.994263	7850.546875	3449.689453	36.150543
681.841309	1046.739624	7707.188965	3542.985840	37.478645
682.169373	919.310425	7607.065918	3310.882813	35.760464
682.497314	1019.433350	7632.096680	3456.516113	36.854786
682.825134	887.453125	7557.004395	3354.117676	36.983967
683.153076	987.576050	7657.127441	3365.495361	35.653366
683.480896	978.473938	7379.514160	3376.872803	37.468895
683.808655	1008.055725	7454.605957	3292.678711	35.439468
684.136414	1028.535400	7099.625000	3224.413086	36.169415
684.464050	987.576050	7051.838867	3340.464600	38.799255
684.791626	962.545288	6812.909180	3197.106689	38.195259
685.119263	1001.229126	6810.633789	3240.341553	38.542885
685.446838	1085.423462	6724.164063	3078.779541	35.351086
685.774292	944.341125	6646.796387	3131.116699	38.347969
686.101685	935.239075	6769.674316	3035.544678	35.998440
686.429077	942.065613	6585.357422	3051.473389	37.379028
686.756348	907.932800	6553.500000	3083.330566	38.532845
687.083679	921.585938	6553.500000	3026.442627	37.373737
687.410950	989.851563	6546.673340	2894.462402	34.275185
687.738159	953.443237	6478.407715	3017.340576	37.355850
688.065308	964.820801	6696.857910	3026.442627	35.966652
688.392395	980.749451	6692.306641	3276.750000	40.199203
688.719421	978.473938	6592.183594	3133.392090	38.386707
689.046448	1003.504700	6635.418457	3112.912354	37.454548
689.373413	973.922913	6496.611816	3074.228516	38.030491
689.700317	939.790100	6512.540527	3037.820313	37.648022
690.027100	1028.535400	6726.439453	2990.034424	34.424919
690.353943	932.963501	6426.070801	2987.758789	37.406796
690.680725	953.443237	6305.468262	2992.309814	38.095238
691.007446	1012.606750	6284.988281	2983.207764	37.375919
691.334106	1026.259888	6002.823730	2896.738037	37.585735
691.660645	983.024963	6107.498047	2887.635986	37.166965
691.987244	1026.259888	6061.987305	2878.533936	36.782650
692.313721	1008.055725	5964.140137	2876.258301	37.695133
692.640259	996.678101	5895.874512	2823.921387	37.296799
692.966675	1074.045776	5838.986328	2885.360352	38.013374
693.293030	971.647400	5916.354004	2748.829102	35.941093
693.619324	1044.463989	5791.200684	2653.257324	33.892616
693.945618	969.371887	5925.456055	2669.185791	34.297520
694.271851	939.790100	5838.986328	2678.288086	35.485371
694.598083	973.922913	5609.158691	2764.757813	38.635250
694.924194	932.963501	5775.271973	2719.247314	36.889095
695.250244	967.096313	5593.229980	2584.991699	34.972950
695.576294	1003.504700	5732.037109	2566.787354	33.060635
695.902283	964.820801	5584.127930	2707.869873	37.733994
696.228210	928.412476	5625.087402	2742.002686	38.614346
696.554138	996.678101	5768.445313	2639.604248	34.430141
696.879944	939.790100	5852.639648	2755.655762	36.961555
697.205750	969.371887	5877.670410	2789.788574	37.088551
697.531433	951.167725	5952.762207	2773.859863	36.442219
697.857178	921.585938	6021.027832	2912.666504	39.045067
698.182739	987.576050	6155.283691	2889.911377	36.811977
698.508423	944.341125	6628.592285	2962.728027	35.508408
698.833984	971.647400	6787.878418	3042.371338	35.602505
699.159485	971.647400	6833.389160	3049.197754	35.442543
699.484924	973.922913	7113.277832	3253.994629	37.138622
699.810303	921.585938	7393.166992	3106.085938	33.755276
700.135681	939.790100	7190.645508	3238.066162	36.767384
700.460999	889.728638	7129.206543	3081.055176	35.120354
700.786255	973.922913	6958.542480	3228.964111	37.680611
701.111450	866.973450	6787.878418	3015.064941	36.279785
701.436646	969.371887	6494.336426	2958.177002	35.996704
701.761719	1060.392700	6360.080566	2867.156250	34.091885
702.086792	973.922913	6362.355957	2771.584229	33.361485
702.411865	987.576050	5970.966797	2762.482178	35.616436
702.736816	1001.229126	5791.200684	2719.247314	35.866982
703.061646	937.514587	5763.894043	2657.808350	35.643566
703.386536	1010.331238	5656.944824	2566.787354	33.496567
703.711365	1033.086426	5326.994141	2616.848877	36.883942
704.036194	1044.463989	5306.514648	2525.828125	34.757072
704.360901	1019.433350	5342.922852	2448.460449	33.052635
704.685547	1023.984375	5199.564941	2509.899414	35.585831
705.010132	994.402588	5279.208496	2450.735840	33.988316
705.334717	964.820801	5067.584961	2368.817139	34.220741
705.659302	973.922913	5163.156738	2462.113525	35.524174
705.983765	973.922913	4965.186523	2457.562500	37.172180
706.308228	980.749451	5119.921875	2382.470215	33.864758
706.632568	967.096313	5156.330078	2462.113525	35.687126
706.956909	953.443237	5042.554199	2412.052002	35.670559
707.281189	951.167725	5076.687012	2427.980713	35.797020
707.605408	939.790100	5067.584961	2421.154053	35.887539
707.929626	967.096313	4874.165527	2516.726074	39.662201
708.253784	892.004150	5144.952637	2478.042236	37.292675
708.577820	989.851563	5008.421387	2437.082764	36.013588
708.901855	964.820801	4999.319336	2493.970703	37.901859
709.225830	960.269775	5076.687012	2525.828125	38.032063
709.549805	1003.504700	5067.584961	2546.307861	37.961929
709.873718	971.647400	4937.880371	2389.296875	35.742970
710.197510	1005.780212	5188.187500	2418.878662	33.786724
710.521362	962.545288	5069.860352	2521.277100	37.950142
710.845093	1001.229126	5190.462891	2605.471436	38.294407
711.168701	989.851563	5320.167480	2478.042236	34.366791
711.492432	953.443237	5349.749512	2650.981689	38.612835
711.816040	1021.708862	5370.229004	2512.175049	34.275253
712.139587	923.861450	5486.280762	2598.644775	36.708229
712.463074	994.402588	5342.922852	2632.777588	37.676609
712.786499	946.616638	5361.126953	2505.348389	35.309277
713.109924	944.341125	5317.892090	2559.960938	36.940689
713.433350	948.892151	5358.851563	2575.889648	36.893707
713.756592	1055.841675	5122.197266	2546.307861	36.653614
714.079834	955.718750	5169.983398	2414.327637	34.611233
714.403015	1014.882263	5158.605469	2475.766602	35.255356
714.726196	996.678101	5188.187500	2391.572266	33.279041
715.049255	1012.606750	4992.492676	2480.317627	36.878216
715.372375	939.790100	4997.043457	2480.317627	37.969715
715.695435	960.269775	5049.380859	2498.521729	37.618248
716.018311	967.096313	5081.237793	2375.643799	34.236729
716.341248	923.861450	5044.829590	2409.776611	36.057426
716.664063	1026.259888	4994.768066	2318.755615	32.568806
716.987000	939.790100	5051.656250	2348.337402	34.255672
717.309692	989.851563	4906.022949	2307.378174	33.643230
717.632385	951.167725	4919.675781	2402.949951	36.582569
717.955078	948.892151	4667.093262	2421.154053	39.596081
718.277649	1005.780212	4710.328125	2270.969727	34.152332
718.600220	957.994263	4819.553223	2204.979736	32.292278
718.922791	1008.055725	4573.796875	2305.102539	36.375240
719.245300	985.300537	4587.449707	2204.979736	33.859764
719.567688	996.678101	4475.949219	2241.387939	35.775017
719.890015	976.198425	4548.766113	2193.602051	34.076431
720.212341	967.096313	4423.612305	2002.458252	29.953917
720.534607	937.514587	4428.163574	2141.265137	34.485004
720.856873	937.514587	4296.183105	2134.438477	35.636856
721.179016	937.514587	4232.468750	2070.723877	34.392262
721.501160	894.279663	4118.692871	2041.142212	35.568104
721.823242	953.443237	4184.682617	2150.367188	37.042255
722.145264	1064.943726	4068.631104	2109.407715	34.772724
722.467224	1003.504700	4109.590332	2000.182739	32.087914
722.789185	951.167725	4089.110840	1941.019287	31.544600
723.111023	951.167725	4102.764160	2100.305664	36.462090
723.432861	960.269775	4100.488281	2052.519775	34.782612
723.754578	948.892151	4089.110840	2070.723877	35.724640
724.076294	967.096313	3979.885986	1986.529663	33.836861
724.397949	946.616638	3925.273438	2022.937988	36.134453
724.719666	976.198425	3941.202148	2061.621826	36.607826
725.041260	985.300537	4109.590332	2072.999512	34.814278
725.362732	973.922913	3948.028564	2027.489014	35.424637
725.684265	914.759338	3988.988037	2002.458252	35.381199
726.005676	930.687988	4048.151611	2025.213501	35.109489
726.327087	928.412476	3988.988037	2016.111450	35.539032
726.648438	885.177612	4020.845215	2054.795166	37.300434
726.969666	976.198425	4200.611328	2093.479248	34.650673
727.290894	948.892151	4182.407227	2088.927979	35.256859
727.612061	1001.229126	4139.172363	2061.621826	33.792603
727.933228	964.820801	4277.979004	2088.927979	33.928570
728.254395	951.167725	4284.805664	2136.714111	35.563141
728.575378	987.576050	4248.397461	2220.908203	37.822746
728.896301	953.443237	4182.407227	2077.550537	34.813251
729.217285	1058.117188	4293.907715	2132.163086	33.192688
729.538147	1042.188477	4332.591797	2041.142212	30.359613
729.858948	992.127075	4237.019531	2200.428711	37.237030
730.179810	980.749451	4396.306152	2184.500000	35.243172
730.500549	957.994263	4268.876953	2116.234375	34.982819
730.821228	996.678101	4232.468750	2041.142212	32.278484
731.141846	998.953613	4293.907715	2082.101563	32.872929
731.462402	967.096313	4330.315918	2132.163086	34.641411
731.782898	1005.780212	4480.500488	2159.469238	33.202354
732.103455	942.065613	4555.592773	2084.376953	31.612085
732.423889	971.647400	4530.562012	2123.060791	32.352936
732.744263	983.024963	4359.897949	2068.448486	32.142860
733.064636	973.922913	4364.448730	2161.744873	35.033562
733.384888	901.106262	4473.673828	2075.274902	32.866241
733.705200	998.953613	4343.969238	2070.723877	32.040813
734.025330	978.473938	4353.071289	2132.163086	34.187462
734.345520	1033.086426	4439.541016	2184.500000	33.800938
734.665527	969.371887	4341.693848	2045.693237	31.916327
734.985596	932.963501	4218.815430	2066.172852	34.487534
735.305542	998.953613	4200.611328	2043.417725	32.622604
735.625549	994.402588	4000.365479	2127.612061	37.698719
735.945435	1010.331238	4114.141602	2025.213501	32.697948
736.265259	896.555176	4057.253662	2068.448486	37.077034
736.585083	905.657288	4036.773926	1954.672363	33.502907
736.904785	987.576050	3836.528076	1900.059814	32.028751
737.224426	962.545288	3932.099854	1947.845825	33.180077
737.544128	969.371887	3936.650879	1934.192627	32.515335
737.863708	978.473938	3891.140625	1968.325439	33.984371
738.183289	939.790100	3922.997803	1938.743774	33.485889
738.502808	951.167725	3984.437012	1954.672363	33.083267
738.822205	1005.780212	3954.855225	2070.723877	36.111107
739.141541	946.616638	3954.855225	1920.539551	32.375191
739.460938	1049.015137	3970.783691	2052.519775	34.345795
739.780212	994.402588	4123.243652	1988.805176	31.781818
740.099426	932.963501	3934.375488	1975.152100	34.723274
740.418640	987.576050	3979.885986	1997.907227	33.764256
740.737793	935.239075	4070.906738	2009.284912	34.252541
741.056885	957.994263	4050.427002	1988.805176	33.333336
741.375977	983.024963	4054.978027	2007.009399	33.333336
741.694946	953.443237	3888.864990	1922.815063	33.023254
742.013855	926.136963	3872.936523	1918.264038	33.667953
742.332703	976.198425	3877.487549	1927.366089	32.784313
742.651550	969.371887	3893.416016	1943.294800	33.307392
742.970398	878.351013	3672.690674	1900.059814	36.563515
743.289124	939.790100	3638.557861	1870.478149	34.485664
743.607788	971.647400	3800.119629	1890.957764	32.502010
743.926453	978.473938	3770.538086	1875.029175	32.110840
744.245056	994.402588	3704.547852	1877.304688	32.577667
744.563599	955.718750	3661.312988	1893.233276	34.650967
744.882141	944.341125	3718.200928	1920.539551	35.192780
745.200500	942.065613	3574.843262	1765.804199	31.287815
745.518860	983.024963	3659.037354	1836.345337	31.887758
745.837219	939.790100	3583.945313	1772.630737	31.497417
746.155518	951.167725	3542.985840	1786.283813	32.221245
746.473755	946.616638	3486.097900	1822.692139	34.498207
746.791992	998.953613	3681.792725	1847.722900	31.636980
747.110107	955.718750	3461.067139	1820.416626	34.514076
747.428162	985.300537	3618.078125	1711.191650	27.571304
747.746216	983.024963	3465.618164	1815.865601	33.547203
748.064148	1010.331238	3536.159424	1777.181763	30.360361
748.382080	1028.535400	3433.760986	1772.630737	30.936613
748.700073	987.576050	3383.699463	1784.008301	33.238365
749.017822	1014.882263	3531.608398	1824.967651	32.188065
749.335632	985.300537	3461.067139	1872.753662	35.845589
749.653320	1021.708862	3540.710449	1770.355225	29.719965
749.971008	921.585938	3583.945313	1902.335449	36.837608
750.288696	994.402588	3504.302002	1843.171875	33.816864
750.606262	921.585938	3561.189941	1806.763550	33.534485
750.923828	935.239075	3579.394287	1749.875488	30.808949
751.241272	946.616638	3545.261475	1720.293701	29.772329
751.558716	957.994263	3522.506104	1774.906250	31.854485
751.876038	983.024963	3508.853027	1829.518677	33.513512
752.193481	1001.229126	3497.475586	1779.457275	31.175932
752.510681	889.728638	3467.893799	1811.314575	35.745808
752.827942	957.994263	3431.485352	1790.834839	33.670650
753.145081	939.790100	3440.587402	1838.620850	35.941765
753.462219	955.718750	3495.199951	1765.804199	31.899643
753.779297	980.749451	3385.974854	1740.773438	31.598867
754.096375	951.167725	3404.179199	1799.937012	34.601112
754.413330	1012.606750	3431.485352	1740.773438	30.103481
754.730286	989.851563	3360.944336	1765.804199	32.725529
755.047119	1003.504700	3379.148438	1802.212524	33.620689
755.363892	1008.055725	3349.566650	1777.181763	32.847424
755.680725	919.310425	3370.046387	1713.467163	32.404827
755.997498	985.300537	3317.709229	1661.130127	28.975607
756.314148	978.473938	3308.607178	1708.916138	31.347658
756.630737	976.198425	3390.525879	1695.262939	29.783222
756.947327	998.953613	3356.393066	1754.426514	32.046333
757.263855	980.749451	3194.831299	1772.630737	35.765675
757.580261	1010.331238	3322.260254	1772.630737	32.972446
757.896729	996.678101	3324.535889	1692.987427	29.912020
758.213074	971.647400	3502.026611	1740.773438	30.395683
758.529419	1017.157776	3440.587402	1713.467163	28.732395
758.845642	971.647400	3436.036377	1824.967651	34.626038
759.161865	1046.739624	3547.536865	1879.580200	33.303001
759.478149	1010.331238	3445.138428	1763.528564	30.934578
759.794189	957.994263	3542.985840	1820.416626	33.362675
760.110229	987.576050	3529.332764	1768.079712	30.707251
760.426270	960.269775	3504.302002	1784.008301	32.379250
760.742249	978.473938	3413.281250	1774.906250	32.710281
761.058105	992.127075	3556.638916	1820.416626	32.298138
761.374023	971.647400	3568.016602	1859.100464	34.180542
761.689819	976.198425	3524.781738	1797.661377	32.232140
762.005554	1037.637451	3558.914551	1827.243164	31.317688
762.321289	932.963501	3561.189941	1822.692139	33.852814
762.636902	967.096313	3549.812500	1831.794189	33.480171
762.952515	1021.708862	3634.006836	1704.365112	26.132404
763.268127	937.514587	3686.343750	1754.426514	29.718542
763.583618	983.024963	3761.435791	1904.610962	33.169537
763.899048	992.127075	4152.825684	1925.090576	29.517635
764.214478	1019.433350	4612.480469	2189.051025	32.552250
764.529785	919.310425	4778.593750	2125.336426	31.250000
764.845093	964.820801	5006.145996	2252.765625	31.869370
765.160400	978.473938	4874.165527	2232.285889	32.184582
765.475586	964.820801	4874.165527	2200.428711	31.606522
765.790771	980.749451	4612.480469	2118.509766	31.328320
766.105835	973.922913	4434.990234	2045.693237	30.966467
766.420837	951.167725	4116.416992	1950.121338	31.560030
766.735840	935.239075	4082.284424	2016.111450	34.345623
767.050842	969.371887	3822.875000	1911.437500	33.014355
767.365662	1023.984375	3852.456787	2002.458252	34.593723
767.680542	992.127075	3643.108887	1824.967651	31.416306
767.995300	926.136963	3483.822266	1872.753662	37.010677
768.309998	969.371887	3520.230713	1859.100464	34.879570
768.624817	987.576050	3467.893799	1827.243164	33.853207
768.939392	951.167725	3506.577637	1686.160889	28.762241
769.254028	996.678101	3272.198975	1756.702026	33.399998
769.568481	969.371887	3281.301025	1699.814087	31.594488
769.882935	921.585938	3360.944336	1713.467163	32.462685
770.197388	992.127075	3274.474365	1715.742676	31.704887
770.511841	871.524475	3183.453613	1713.467163	36.417320
770.826172	923.861450	3183.453613	1688.436401	33.836853
771.140442	980.749451	3188.004639	1729.395752	33.917526
771.454651	989.851563	3185.729004	1708.916138	32.746117
771.768860	937.514587	3035.544678	1604.242188	31.778744
772.082886	992.127075	3172.075928	1645.201538	29.958248
772.397034	994.402588	3046.922363	1558.731689	27.494453
772.711060	935.239075	2994.585449	1652.028076	34.806625
773.025024	996.678101	3028.718262	1615.619751	30.459126
773.338928	919.310425	3062.851074	1613.344238	32.377918
773.652771	973.922913	3081.055176	1615.619751	30.453562
773.966614	1001.229126	2942.248291	1613.344238	31.535759
774.280457	971.647400	2962.728027	1638.375000	33.485718
774.594116	976.198425	2914.942139	1570.109375	30.633804
774.907776	978.473938	2928.595215	1636.099487	33.722290
775.221375	889.728638	2917.217773	1547.354126	32.435463
775.534912	960.269775	2965.003662	1547.354126	29.284903
775.848450	939.790100	2962.728027	1620.170776	33.633293
776.161926	1023.984375	2889.911377	1572.384888	29.390245
776.475342	939.790100	2871.707275	1526.874512	30.388693
776.788696	998.953613	2896.738037	1531.425537	28.057556
777.101990	937.514587	2860.329590	1581.486938	33.491123
777.415283	989.851563	2798.890625	1474.537476	26.792452
777.728516	926.136963	2812.543701	1567.833862	34.016891
778.041626	951.167725	2883.084961	1510.945801	28.975262
778.354736	910.208313	2794.339600	1563.282837	34.661835
778.667725	914.759338	2807.992676	1554.180664	33.774036
778.980774	971.647400	2773.859863	1570.109375	33.207073
779.293640	994.402588	2767.033203	1533.701050	30.423624
779.606567	967.096313	2803.441650	1613.344238	35.192070
779.919434	935.239075	2771.584229	1485.915039	29.987606
780.232239	914.759338	2714.696289	1529.150024	34.134010
780.544983	923.861450	2835.298828	1538.252075	32.142860
780.857666	953.443237	2817.094727	1549.629639	31.990231
781.170227	932.963501	2653.257324	1435.853638	29.232805
781.482849	901.106262	2771.584229	1506.394775	32.360096
781.795410	964.820801	2807.992676	1554.180664	31.975307
782.107910	957.994263	2676.012451	1481.364014	30.463575
782.420288	914.759338	2628.226563	1574.660400	38.512615
782.732666	1005.780212	2694.216553	1526.874512	30.862539
783.044983	1026.259888	2612.297852	1497.292725	29.698711
783.357300	1017.157776	2605.471436	1533.701050	32.521488
783.669495	1083.147949	2678.288086	1390.343262	19.258202
783.981689	942.065613	2707.869873	1499.568237	31.572166
784.293762	1001.229126	2632.777588	1497.292725	30.404467
784.605835	1046.739624	2569.062988	1419.924927	24.514194
784.917908	1035.361938	2666.910400	1526.874512	30.125526
785.229858	978.473938	2532.654541	1426.751587	28.843342
785.541748	935.239075	2459.837891	1460.884399	34.477615
785.853577	942.065613	2582.716064	1415.373901	28.848820
786.165405	1030.810913	2523.552490	1456.333252	28.506096
786.477173	1021.708862	2537.205811	1401.720825	25.075073
786.788879	989.851563	2521.277100	1465.435425	31.054977
787.100525	971.647400	2530.379150	1429.027100	29.343067
787.412109	928.412476	2478.042236	1392.618774	29.955950
787.723694	898.830688	2450.735840	1476.812988	37.243404
788.035156	948.892151	2478.042236	1456.333252	33.184517
788.346558	951.167725	2612.297852	1474.537476	31.506849
788.658081	960.269775	2807.992676	1547.354126	31.773397
788.969360	944.341125	2685.114502	1574.660400	36.209152
789.280640	1014.882263	2707.869873	1529.150024	30.376347
789.591919	946.616638	2748.829102	1554.180664	33.712120
789.903076	953.443237	2814.819336	1529.150024	30.929096
790.214172	973.922913	2753.380127	1476.812988	28.260868
790.525269	964.820801	2662.359375	1558.731689	34.986591
790.836365	973.922913	2682.839111	1474.537476	29.294271
791.147339	948.892151	2557.685303	1426.751587	29.702974
791.458191	1014.882263	2537.205811	1504.119263	32.137520
791.769104	994.402588	2516.726074	1463.159912	30.792229
792.079895	1026.259888	2455.286865	1440.404663	28.980892
792.390686	1035.361938	2380.194824	1367.588013	24.703894
792.701416	1028.535400	2334.684326	1481.364014	34.668987
793.012085	939.790100	2402.949951	1474.537476	36.547432
793.322693	937.514587	2443.909424	1358.485962	27.945621
793.633240	967.096313	2453.011475	1369.863525	27.105667
793.943787	980.749451	2400.674561	1397.169800	29.326925
794.254272	953.443237	2357.439453	1440.404663	34.683956
794.564636	1012.606750	2375.643799	1467.710938	33.388981
794.875000	939.790100	2357.439453	1324.353149	27.126808
795.185303	1026.259888	2414.327637	1388.067749	26.065577
795.495544	1037.637451	2325.582275	1390.343262	27.385164
795.805786	985.300537	2466.664551	1417.649414	29.185863
796.115906	998.953613	2418.878662	1454.057739	32.051277
796.426025	928.412476	2327.857666	1374.414551	31.869921
796.736023	987.576050	2421.154053	1342.557251	24.761904
797.045959	935.239075	2434.807373	1483.639526	36.570553
797.355896	985.300537	2596.369141	1410.822876	26.412428
797.665833	944.341125	2437.082764	1506.394775	37.652439
797.975708	967.096313	2514.450439	1474.537476	32.794121
798.285461	1003.504700	2491.695313	1413.098389	27.522930
798.595154	921.585938	2503.072998	1408.547363	30.791363
798.904846	955.718750	2487.144287	1365.312500	26.745914
799.214478	1026.259888	2352.888428	1340.281738	23.670670
799.524109	953.443237	2471.215576	1385.792114	28.485752
799.833557	887.453125	2414.327637	1376.690063	32.041725
800.143005	998.953613	2396.123291	1415.373901	29.804562
800.452393	992.127075	2368.817139	1322.077637	23.966946
800.761780	976.198425	2359.715088	1326.628662	25.328951
801.071106	1023.984375	2366.541748	1335.730713	23.220337
801.380371	923.861450	2261.867676	1372.139038	33.503399
801.689575	957.994263	2230.010498	1442.680176	38.103752
801.998718	951.167725	2243.663574	1356.210449	31.338030
802.307800	946.616638	2323.306641	1328.904175	27.768600
802.616882	987.576050	2261.867676	1322.077637	26.250002
802.925903	1021.708862	2250.489990	1335.730713	25.555555
803.234863	932.963501	2141.265137	1310.699951	31.261768
803.543701	1023.984375	2268.694336	1388.067749	29.250460
803.852539	955.718750	2159.469238	1344.832764	32.325138
804.161316	967.096313	2141.265137	1388.067749	35.852718
804.470032	957.994263	2202.704102	1299.322388	27.422304
804.778809	1008.055725	2280.071777	1358.485962	27.549198
805.087341	923.861450	2175.397949	1351.659302	34.181812
805.395935	1012.606750	2195.877686	1344.832764	28.076918
805.704468	964.820801	2173.122314	1351.659302	32.015064
806.012939	964.820801	2293.724854	1390.343262	32.020557
806.321350	962.545288	2261.867676	1367.588013	31.173382
806.629761	964.820801	2273.245361	1324.353149	27.478264
806.938049	889.728638	2341.510986	1312.975464	29.153601
807.246277	1014.882263	2227.734863	1349.383789	27.579737
807.554504	992.127075	2204.979736	1388.067749	32.645405
807.862671	971.647400	2234.561523	1363.036987	30.990992
808.170715	894.279663	2314.204590	1406.271851	36.057693
808.478821	944.341125	2113.958740	1310.699951	31.322956
808.786804	1008.055725	2157.193604	1297.046875	25.148518
809.094727	989.851563	2184.500000	1367.588013	31.619047
809.402649	1003.504700	2259.592041	1326.628662	25.724640
809.710510	1037.637451	2095.754639	1301.597900	24.946239
810.018311	983.024963	2095.754639	1358.485962	33.742336
810.326050	1008.055725	2027.489014	1244.709839	23.214281
810.633667	1012.606750	2143.540527	1258.363037	21.730387
810.941345	1021.708862	2111.683350	1349.383789	30.062624
811.248901	960.269775	2029.764526	1308.424438	32.553192
811.556396	960.269775	2034.315552	1324.353149	33.898312
811.863892	935.239075	2054.795166	1340.281738	36.178860
812.171326	944.341125	2043.417725	1317.526489	33.954445
812.478699	967.096313	2036.591064	1281.118164	29.361700
812.786011	953.443237	2036.591064	1297.046875	31.722691
813.093262	921.585938	2027.489014	1249.260864	29.629623
813.400391	921.585938	2123.060791	1401.720825	39.962124
813.707642	939.790100	2018.386963	1246.985352	28.481007
814.014709	944.341125	2059.346436	1299.322388	31.836731
814.321716	1026.259888	2077.550537	1292.495850	25.324677
814.628723	955.718750	2154.918213	1294.771362	28.273247
814.935669	1037.637451	2011.560425	1249.260864	21.728968
815.242554	1010.331238	1970.601074	1256.087524	25.592421
815.549438	978.473938	2041.142212	1365.312500	36.402573
815.856201	948.892151	1991.080688	1258.363037	29.694330
816.162964	1012.606750	2022.937988	1256.087524	24.099104
816.469604	1001.229126	2084.376953	1283.393677	26.050419
816.776184	878.351013	2020.662476	1312.975464	38.047806
817.082825	964.820801	2127.612061	1306.148926	29.354204
817.389343	955.718750	2041.142212	1274.291626	29.350100
817.695801	866.973450	2059.346436	1287.944824	35.305340
818.002197	1037.637451	2075.274902	1276.567139	23.026318
818.308533	1033.086426	2070.723877	1322.077637	27.850885
818.614868	1023.984375	2166.295898	1317.526489	25.697203
818.921143	935.239075	2116.234375	1278.842651	29.094406
819.227356	960.269775	2061.621826	1344.832764	34.917355
819.533447	919.310425	2054.795166	1351.659302	38.076149
819.839539	948.892151	2152.642578	1378.965576	35.727787
820.145569	917.034912	2164.020264	1312.975464	31.751822
820.451538	969.371887	2318.755615	1308.424438	25.126472
820.757568	1026.259888	2496.246338	1292.495850	18.111456
821.063416	957.994263	2650.981689	1513.221313	32.795700
821.369263	969.371887	2721.522949	1447.231201	27.272722
821.675049	946.616638	2860.329590	1490.466064	28.418549
821.980713	946.616638	3001.411865	1533.701050	28.571432
822.286438	894.279663	3342.739990	1624.721802	29.832712
822.592102	951.167725	4150.549805	1852.273926	28.165007
822.897583	971.647400	6237.202637	2464.388916	28.349174
823.203125	976.198425	8794.887695	3226.688477	28.783468
823.508545	946.616638	10378.650391	3750.058350	29.722555
823.813965	894.279663	10824.652344	3841.079102	29.674608
824.119263	996.678101	9841.627930	3515.679688	28.479544
824.424622	976.198425	8301.099609	3096.983887	28.953091
824.729858	985.300537	6979.022461	2830.747803	30.789673
825.035095	989.851563	6162.110352	2412.052002	27.496698
825.340149	937.514587	5295.136719	2241.387939	29.921669
825.645264	994.402588	4894.645020	2154.918213	29.754961
825.950256	928.412476	4541.939453	1981.978638	29.156174
826.255310	980.749451	4271.152344	1979.703125	30.359617
826.560242	1055.841675	4016.294189	1863.651489	27.286699
826.865112	973.922913	3743.231689	1840.896362	31.306492
827.169922	1026.259888	3681.792725	1884.131226	32.305058
827.474670	960.269775	3734.129639	1847.722900	31.993437
827.779419	983.024963	4289.356934	1986.529663	30.350996
828.084045	987.576050	4744.460938	2107.132324	29.800123
828.388672	969.371887	5288.310547	2186.775391	28.187565
828.693176	955.718750	5019.798828	2204.979736	30.739084
828.997681	971.647400	4548.766113	2043.417725	29.961832
829.302124	1042.188477	4050.427002	1963.774414	30.635401
829.606567	973.922913	3538.434814	1743.048950	29.991127
829.910828	953.443237	3306.331787	1617.895264	28.239841
830.215149	1071.770264	3017.340576	1613.344238	27.836258
830.519348	983.024963	2883.084961	1590.588989	31.976044
830.823547	901.106262	2826.196777	1451.782227	28.605198
831.127686	957.994263	2573.614014	1426.751587	29.014088
831.431763	998.953613	2512.175049	1458.608887	30.375942
831.735779	1033.086426	2261.867676	1433.578125	32.592594
832.039734	1012.606750	2266.418701	1365.312500	28.130672
832.343628	1003.504700	2125.336426	1381.241089	33.671394
832.647461	1012.606750	2157.193604	1246.985352	20.477135
832.951233	1014.882263	2239.112549	1281.118164	21.747210
833.255127	1046.739624	2143.540527	1351.659302	27.800823
833.558777	973.922913	2239.112549	1269.740601	23.381290
833.862366	1019.433350	2437.082764	1433.578125	29.213484
834.165955	957.994263	2637.328613	1422.200562	27.642281
834.469482	998.953613	2946.799316	1567.833862	29.205612
834.773010	980.749451	3397.352539	1740.773438	31.450096
835.076416	948.892151	3606.700439	1718.018188	28.938356
835.379822	957.994263	3549.812500	1695.262939	28.446001
835.683105	939.790100	3297.229736	1604.242188	28.185328
835.986389	1042.188477	2992.309814	1611.068726	29.171532
836.289612	976.198425	2771.584229	1419.924927	24.714828
836.592773	987.576050	2621.399902	1485.915039	30.501390
836.895874	957.994263	2519.001465	1410.822876	29.008745
837.198914	1001.229126	2407.500977	1378.965576	26.860842
837.501892	996.678101	2350.613037	1376.690063	28.067225
837.804871	866.973450	2275.520752	1301.597900	30.856218
838.107666	962.545288	2148.091553	1306.148926	28.982727
838.410583	1042.188477	2018.386963	1269.740601	23.310026
838.713379	969.371887	1929.641602	1246.985352	28.909946
839.016052	969.371887	1920.539551	1224.230225	26.794260
839.318787	983.024963	1852.273926	1203.750488	25.392670
839.621338	998.953613	1784.008301	1208.301514	26.666664
839.923889	1014.882263	1815.865601	1130.933838	14.488638
840.226440	1080.872437	1784.008301	1196.923950	16.504848
840.528931	1005.780212	1947.845825	1224.230225	23.188408
840.831299	976.198425	1988.805176	1283.393677	30.337072
841.133606	942.065613	2134.438477	1249.260864	25.763355
841.435913	942.065613	2084.376953	1201.474976	22.709166
841.738220	1008.055725	1925.090576	1308.424438	32.754341
842.040405	983.024963	1950.121338	1231.056763	25.647060
842.342529	1001.229126	1849.998413	1210.577026	24.664877
842.644592	923.861450	1872.753662	1151.413574	23.980820
842.946594	983.024963	1772.630737	1155.964600	21.902023
843.248596	928.412476	1777.181763	1269.740601	40.214478
843.550598	960.269775	1733.946899	1180.995239	28.529404
843.852478	969.371887	1708.916138	1183.270874	28.923082
844.154236	1044.463989	1702.089600	1201.474976	23.875437
844.455994	978.473938	1649.752563	1180.995239	30.169485
844.757690	967.096313	1624.721802	1074.045776	16.262974
845.059326	1046.739624	1645.201538	1064.943726	3.041815
845.360962	953.443237	1588.313477	1165.066650	33.333332
845.662476	914.759338	1488.190552	1169.617676	44.444447
845.963989	957.994263	1504.119263	1101.352051	26.249996
846.265381	951.167725	1558.731689	1087.698975	22.471914
846.566772	935.239075	1515.496826	1151.413574	37.254910
846.868042	912.483826	1465.435425	1078.596802	30.041142
847.169373	973.922913	1529.150024	1053.566162	14.344265
847.470581	923.861450	1517.772339	1112.729614	31.800758
847.771729	1017.157776	1481.364014	1110.454102	20.098034
848.072815	976.198425	1513.221313	1035.361938	11.016945
848.373901	992.127075	1551.905151	1128.658325	24.390245
848.674866	926.136963	1435.853638	1103.627563	34.821423
848.975891	942.065613	1401.720825	1105.903076	35.643555
849.276794	964.820801	1510.945801	1064.943726	18.333334
849.577637	960.269775	1581.486938	1053.566162	15.018321
849.878357	1003.504700	1451.782227	1119.556274	25.888332
850.179077	955.718750	1463.159912	1053.566162	19.282515
850.479736	987.576050	1417.649414	1121.831787	31.216938
850.780396	992.127075	1415.373901	1144.586914	36.021496
851.080994	1017.157776	1499.568237	1146.862427	26.886782
851.381470	1023.984375	1440.404663	1089.974487	15.846997
851.681946	951.167725	1410.822876	1049.015137	21.287134
851.982361	1019.433350	1403.996338	1099.076538	20.710051
852.282715	955.718750	1454.057739	1069.494751	22.831045
852.583008	962.545288	1351.659302	1180.995239	56.140347
852.883240	983.024963	1403.996338	1067.219238	20.000000
853.183411	930.687988	1454.057739	1092.250000	30.869574
853.483521	1005.780212	1415.373901	1117.280762	27.222233
853.783630	951.167725	1422.200562	1155.964600	43.478260
854.083679	1069.494751	1399.445313	1101.352051	9.655173
854.383667	962.545288	1390.343262	1026.259888	14.893619
854.683533	898.830688	1442.680176	1119.556274	40.585785
854.983337	976.198425	1363.036987	1083.147949	27.647068
855.283203	969.371887	1431.302612	1014.882263	9.852208
855.582886	971.647400	1467.710938	1110.454102	27.981638
855.882629	960.269775	1413.098389	1133.209351	38.190956
856.182312	994.402588	1401.720825	1094.525513	24.581007
856.481873	1014.882263	1426.751587	1074.045776	14.364632
856.781372	1037.637451	1390.343262	1039.912964	0.645159
857.080872	987.576050	1338.006226	1053.566162	18.831173
857.380310	935.239075	1376.690063	1033.086426	22.164942
857.679688	964.820801	1335.730713	1069.494751	28.220856
857.979004	973.922913	1367.588013	1008.055725	8.670521
858.278259	935.239075	1360.761475	1037.637451	24.064157
858.577454	914.759338	1360.761475	1108.178589	43.367336
858.876648	953.443237	1365.312500	1017.157776	15.469603
859.175720	960.269775	1417.649414	1046.739624	18.905487
859.474792	973.922913	1335.730713	1044.463989	19.496838
859.773743	1017.157776	1358.485962	1023.984375	2.000010
860.072693	1014.882263	1415.373901	1021.708862	1.704555
860.371521	1012.606750	1433.578125	1089.974487	18.378384
860.670349	987.576050	1315.250977	1053.566162	20.138895
860.969116	967.096313	1481.364014	1110.454102	27.876102
861.267883	957.994263	1322.077637	1042.188477	23.124981
861.566589	946.616638	1285.669312	1023.984375	22.818796
861.865112	1014.882263	1422.200562	1069.494751	13.407816
862.163635	994.402588	1365.312500	1062.668213	18.404907
862.462158	1010.331238	1369.863525	1035.361938	6.962018
862.760620	964.820801	1394.894287	1042.188477	17.989408
863.059021	967.096313	1408.547363	1117.280762	34.020634
863.357361	1010.331238	1390.343262	1069.494751	15.568853
863.655640	1053.566162	1335.730713	1049.015137	-1.612898
863.953857	910.208313	1365.312500	1094.525513	40.500000
864.251953	973.922913	1435.853638	1064.943726	19.704430
864.550110	980.749451	1344.832764	1071.770264	24.999996
864.848206	905.657288	1340.281738	992.127075	19.895288
865.146179	1012.606750	1347.108276	1085.423462	21.768723
865.444092	980.749451	1287.944824	1030.810913	16.296295
865.741943	985.300537	1422.200562	1092.250000	24.479162
866.039795	976.198425	1349.383789	1019.433350	11.585375
866.337646	989.851563	1351.659302	1142.311401	42.138359
866.635376	996.678101	1435.853638	1001.229126	1.036266
866.933044	969.371887	1435.853638	1089.974487	25.853659
867.230652	994.402588	1426.751587	1071.770264	17.894728
867.528198	937.514587	1333.455200	1055.841675	29.885059
867.825745	962.545288	1406.271851	1083.147949	27.179501
868.123230	983.024963	1333.455200	1071.770264	25.324669
868.420593	985.300537	1338.006226	1049.015137	18.064524
868.717896	926.136963	1449.506714	1042.188477	22.173906
869.015198	953.443237	1365.312500	1053.566162	24.309395
869.312439	896.555176	1312.975464	994.402588	23.497272
869.609619	889.728638	1374.414551	1033.086426	29.577461
869.906738	942.065613	1369.863525	1023.984375	19.148939
870.203796	946.616638	1415.373901	1042.188477	20.388344
870.500854	964.820801	1376.690063	1008.055725	10.497245
870.797791	892.004150	1324.353149	1055.841675	37.894737
871.094666	973.922913	1394.894287	1005.780212	7.567569
871.391602	1010.331238	1342.557251	1069.494751	17.808212
871.688293	992.127075	1328.904175	1074.045776	24.324308
871.985107	969.371887	1358.485962	1074.045776	26.900566
872.281738	994.402588	1358.485962	1094.525513	27.500000
872.578369	998.953613	1347.108276	1023.984375	7.189552
872.874939	907.932800	1381.241089	1142.311401	49.519226
873.171509	910.208313	1388.067749	1094.525513	38.571426
873.467957	957.994263	1317.526489	1021.708862	17.721527
873.764343	919.310425	1365.312500	1151.413574	52.040821
874.060669	937.514587	1326.628662	1144.586914	53.216354
874.356995	953.443237	1338.006226	1083.147949	33.727821
874.653198	1005.780212	1378.965576	1089.974487	22.560980
874.949463	907.932800	1338.006226	1158.240112	58.201065
875.245544	1017.157776	1358.485962	1078.596802	17.999987
875.541626	973.922913	1417.649414	1083.147949	24.615396
875.837646	985.300537	1317.526489	1146.862427	48.630123
876.133606	960.269775	1365.312500	1064.943726	25.842693
876.429565	971.647400	1353.934937	1080.872437	28.571436
876.725403	994.402588	1317.526489	1037.637451	13.380274
877.021179	994.402588	1403.996338	1071.770264	18.888882
877.316956	962.545288	1403.996338	1067.219238	23.711338
877.612610	919.310425	1365.312500	1051.290649	29.591841
877.908203	987.576050	1526.874512	1089.974487	18.987341
878.203857	951.167725	1397.169800	1153.689087	45.408165
878.499390	953.443237	1419.924927	1071.770264	25.365847
878.794800	989.851563	1381.241089	1112.729614	31.395334
879.090271	987.576050	1372.139038	1115.005249	33.136105
879.385559	921.585938	1435.853638	1128.658325	40.265488
879.680847	998.953613	1403.996338	1071.770264	17.977524
879.976196	1005.780212	1483.639526	1039.912964	7.142845
880.271301	957.994263	1515.496826	1064.943726	19.183672
880.566467	992.127075	1556.456177	1192.372925	35.483879
880.861572	994.402588	1624.721802	1178.719727	29.241873
881.156555	869.248962	1820.416626	1162.791138	30.861244
881.451477	973.922913	2004.733887	1256.087524	27.373068
881.746460	1019.433350	2703.318604	1481.364014	27.432430
882.041321	921.585938	3431.485352	1667.956787	29.737082
882.336121	905.657288	4384.928711	1890.957764	28.319160
882.630798	932.963501	4644.337891	2027.489014	29.491110
882.925537	914.759338	4803.624512	1979.703125	27.384438
883.220215	1017.157776	4485.051270	1925.090576	26.181103
883.514771	910.208313	4068.631104	1813.590088	28.602306
883.809326	907.932800	3690.894775	1740.773438	29.926411
884.103760	942.065613	3458.791504	1743.048950	31.826405
884.398132	917.034912	3217.586426	1567.833862	28.288824
884.692505	889.728638	3106.085938	1472.261963	26.283365
884.986816	946.616638	2899.013428	1438.129150	25.174828
885.281067	1001.229126	2714.696289	1424.476074	24.701200
885.575256	1012.606750	2514.450439	1415.373901	26.818180
885.869385	1014.882263	2371.092773	1338.006226	23.825502
886.163452	989.851563	2118.509766	1283.393677	26.008060
886.457458	1019.433350	2011.560425	1246.985352	22.935772
886.751465	1046.739624	1861.375977	1194.648438	18.156422
887.045410	962.545288	1665.681274	1160.515625	28.155342
887.339233	962.545288	1647.477051	1219.679199	37.541538
887.632996	971.647400	1613.344238	1110.454102	21.631197
887.926758	960.269775	1520.047852	1067.219238	19.105690
888.220398	1042.188477	1592.864502	1144.586914	18.595041
888.514099	1012.606750	1506.394775	1080.872437	13.824897
888.807678	1010.331238	1501.843750	1115.005249	21.296307
889.101196	932.963501	1510.945801	1101.352051	29.133860
889.394653	962.545288	1508.670288	1092.250000	23.750004
889.688049	978.473938	1538.252075	1089.974487	19.918703
889.981384	1010.331238	1460.884399	1092.250000	18.181820
890.274719	1017.157776	1413.098389	1074.045776	14.367811
890.567932	948.892151	1388.067749	1053.566162	23.834206
>>>>>End Processed Spectral Data<<<<<
