Jaz Data File
++++++++++++++++++++++++++++++++++++
Date: Wed Feb 07 06:51:32 2024
User: jaz
Dark Spectrum Present: Yes
Reference Spectrum Present: Yes
Processed Spectrum Present: Yes
Spectrometers: JAZA3692
Integration Time (usec): 42900 (JAZA3692)
Spectra Averaged: 1 (JAZA3692)
Boxcar Smoothing: 0 (JAZA3692)
Correct for Electrical Dark: No (JAZA3692)
Strobe/Lamp Enabled: Yes (JAZA3692)
Correct for Detector Non-linearity: No (JAZA3692)
Correct for Stray Light: No (JAZA3692)
Number of Pixels in Processed Spectrum: 2048
>>>>>Begin Processed Spectral Data<<<<<
W	D	R	S	P
190.244385	0.000000	0.000000	0.000000	0.000000
190.627136	0.000000	0.000000	0.000000	0.000000
191.009842	907.932800	948.892151	969.371887	150.000153
191.392532	985.300537	1028.535400	885.177612	-231.579147
191.775177	917.034912	967.096313	919.310425	4.545444
192.157791	989.851563	903.381775	989.851563	-0.000000
192.540390	992.127075	917.034912	944.341125	63.636402
192.922943	905.657288	1001.229126	989.851563	88.095276
193.305481	1003.504700	1035.361938	953.443237	-157.143127
193.687958	1010.331238	1023.984375	994.402588	-116.666595
194.070419	948.892151	1019.433350	907.932800	-58.064438
194.452866	1064.943726	928.412476	957.994263	78.333321
194.835251	1030.810913	1012.606750	962.545288	375.000092
195.217621	1008.055725	976.198425	971.647400	114.285660
195.599960	1039.912964	1003.504700	912.483826	350.000580
195.982254	1080.872437	976.198425	951.167725	123.913002
196.364517	1033.086426	971.647400	973.922913	96.296310
196.746750	962.545288	1003.504700	971.647400	22.222271
197.128952	1014.882263	994.402588	964.820801	244.444611
197.511139	1067.219238	1001.229126	996.678101	106.896523
197.893280	992.127075	1010.331238	987.576050	-24.999916
198.275391	998.953613	935.239075	1017.157776	-28.571442
198.657471	1001.229126	1003.504700	1012.606750	499.989258
199.039520	1049.015137	967.096313	989.851563	72.222198
199.421539	948.892151	1037.637451	1010.331238	69.230804
199.803513	967.096313	973.922913	996.678101	433.331238
200.185471	1001.229126	948.892151	935.239075	126.086868
200.567383	1010.331238	1010.331238	937.514587	0.000000
200.949265	989.851563	989.851563	1046.739624	0.000000
201.331131	930.687988	1044.463989	1005.780212	66.000053
201.712967	946.616638	1037.637451	996.678101	55.000015
202.094742	976.198425	1030.810913	985.300537	16.666723
202.476517	980.749451	1026.259888	1008.055725	60.000027
202.858231	957.994263	1055.841675	953.443237	-4.651145
203.239944	969.371887	994.402588	987.576050	72.727341
203.621582	955.718750	935.239075	978.473938	-111.111076
204.003235	937.514587	969.371887	930.687988	-21.428680
204.384827	935.239075	1019.433350	1019.433350	100.000000
204.766388	937.514587	1017.157776	946.616638	11.428536
205.147934	985.300537	1039.912964	994.402588	16.666630
205.529449	1021.708862	953.443237	989.851563	46.666679
205.910904	976.198425	1044.463989	960.269775	-23.333361
206.292343	948.892151	1019.433350	937.514587	-16.128962
206.673767	930.687988	992.127075	914.759338	-25.925922
207.055115	998.953613	980.749451	978.473938	112.499962
207.436462	1010.331238	1012.606750	942.065613	-3000.010742
207.817780	1014.882263	1069.494751	967.096313	-87.500038
208.199051	967.096313	976.198425	976.198425	100.000000
208.580307	994.402588	983.024963	932.963501	539.999268
208.961517	928.412476	971.647400	983.024963	126.315681
209.342712	983.024963	987.576050	939.790100	-949.989929
209.723846	976.198425	989.851563	964.820801	-83.333405
210.104965	1096.801025	1069.494751	967.096313	474.999664
210.486069	955.718750	1074.045776	951.167725	-3.846142
210.867111	985.300537	1044.463989	923.861450	-103.846352
211.248123	962.545288	1046.739624	969.371887	8.108146
211.629120	962.545288	998.953613	910.208313	-143.750015
212.010071	994.402588	1044.463989	973.922913	-40.909115
212.390991	951.167725	1026.259888	962.545288	15.151465
212.771881	983.024963	923.861450	923.861450	100.000000
213.152756	962.545288	992.127075	967.096313	15.384552
213.533569	962.545288	944.341125	932.963501	162.500122
213.914368	930.687988	960.269775	919.310425	-38.461380
214.295135	989.851563	985.300537	926.136963	1400.005371
214.675858	989.851563	928.412476	1014.882263	-40.740677
215.056549	978.473938	992.127075	946.616638	-233.333191
215.437225	1019.433350	978.473938	957.994263	149.999924
215.817841	978.473938	1071.770264	935.239075	-46.341442
216.198441	1010.331238	985.300537	960.269775	200.000244
216.579025	928.412476	1028.535400	948.892151	20.454531
216.959549	1053.566162	1017.157776	932.963501	331.249664
217.340057	973.922913	1012.606750	907.932800	-170.588333
217.720535	1003.504700	1008.055725	921.585938	-1800.006714
218.100967	1003.504700	1001.229126	980.749451	999.978516
218.481369	994.402588	987.576050	957.994263	533.335144
218.861740	1003.504700	1067.219238	971.647400	-50.000050
219.242065	955.718750	978.473938	878.351013	-340.000427
219.622391	969.371887	1019.433350	1019.433350	100.000000
220.002670	994.402588	1012.606750	962.545288	-175.000076
220.382919	976.198425	962.545288	962.545288	100.000000
220.763123	932.963501	996.678101	953.443237	32.142925
221.143295	937.514587	1014.882263	989.851563	67.647079
221.523453	992.127075	1005.780212	967.096313	-183.333405
221.903549	957.994263	1003.504700	976.198425	39.999973
222.283630	1046.739624	1023.984375	996.678101	219.999893
222.663696	976.198425	1035.361938	985.300537	15.384671
223.043701	923.861450	978.473938	960.269775	66.666664
223.423676	978.473938	1033.086426	921.585938	-104.166656
223.803635	967.096313	1012.606750	901.106262	-144.999817
224.183548	928.412476	996.678101	1003.504700	110.000053
224.563431	962.545288	1014.882263	994.402588	60.869587
224.943283	946.616638	1008.055725	910.208313	-59.259224
225.323105	937.514587	1058.117188	955.718750	15.094337
225.702881	1008.055725	1033.086426	1012.606750	18.181774
226.082642	919.310425	1026.259888	928.412476	8.510610
226.462357	1017.157776	1035.361938	946.616638	-387.500031
226.842041	998.953613	967.096313	910.208313	278.571320
227.221695	926.136963	1019.433350	948.892151	24.390213
227.601318	937.514587	1021.708862	942.065613	5.405386
227.980911	989.851563	996.678101	903.381775	-1266.671143
228.360474	976.198425	1021.708862	1019.433350	95.000023
228.739990	1028.535400	1135.484863	946.616638	-76.595764
229.119476	971.647400	1124.107300	969.371887	-1.492532
229.498932	1005.780212	1130.933838	1003.504700	-1.818176
229.878372	996.678101	1187.821899	971.647400	-13.095220
230.257736	1008.055725	1212.852539	969.371887	-18.888887
230.637115	980.749451	1203.750488	994.402588	6.122455
231.016449	992.127075	1128.658325	992.127075	0.000000
231.395737	903.381775	1121.831787	1005.780212	46.874996
231.774994	937.514587	1014.882263	992.127075	70.588249
232.154221	964.820801	1146.862427	973.922913	5.000017
232.533417	937.514587	1146.862427	1014.882263	36.956520
232.912582	917.034912	1167.342163	1058.117188	56.363640
233.291702	928.412476	1115.005249	971.647400	23.170738
233.670792	996.678101	1119.556274	926.136963	-57.407379
234.049866	907.932800	1133.209351	989.851563	36.363644
234.428894	957.994263	1176.444214	964.820801	3.124990
234.807892	973.922913	1183.270874	955.718750	-8.695648
235.186874	985.300537	1133.209351	930.687988	-36.923119
235.565781	967.096313	1212.852539	985.300537	7.407431
235.944687	1028.535400	1185.546387	932.963501	-60.869560
236.323547	948.892151	1256.087524	923.861450	-8.148137
236.702377	926.136963	1201.474976	985.300537	21.487616
237.081177	980.749451	1174.168701	980.749451	0.000000
237.459946	980.749451	1190.097412	983.024963	1.086952
237.838669	942.065613	1165.066650	998.953613	25.510195
238.217361	928.412476	1256.087524	907.932800	-6.249995
238.596039	994.402588	1208.301514	960.269775	-15.957449
238.974670	942.065613	1208.301514	942.065613	0.000000
239.353271	957.994263	1224.230225	948.892151	-3.418814
239.731842	980.749451	1240.158813	939.790100	-15.789465
240.110367	919.310425	1158.240112	935.239075	6.666668
240.488876	928.412476	1237.883301	944.341125	5.147060
240.867340	964.820801	1253.812012	994.402588	10.236224
241.245789	1019.433350	1258.363037	976.198425	-18.095249
241.624176	969.371887	1228.781250	1003.504700	13.157895
242.002548	957.994263	1467.710938	978.473938	4.017855
242.380890	1023.984375	1495.017212	1019.433350	-0.966180
242.759186	1019.433350	1533.701050	978.473938	-7.964609
243.137451	932.963501	1592.864502	960.269775	4.137935
243.515686	971.647400	1658.854614	985.300537	1.986757
243.893890	964.820801	1658.854614	1058.117188	13.442629
244.272049	967.096313	1517.772339	987.576050	3.719017
244.650192	889.728638	1606.517700	976.198425	12.063492
245.028290	905.657288	1506.394775	971.647400	10.984850
245.406357	960.269775	1492.741699	948.892151	-2.136756
245.784393	955.718750	1447.231201	1028.535400	14.814813
246.162384	907.932800	1501.843750	1005.780212	16.475098
246.540359	948.892151	1592.864502	976.198425	4.240287
246.918289	955.718750	1615.619751	985.300537	4.482761
247.296204	989.851563	1756.702026	932.963501	-7.418404
247.674057	973.922913	2066.172852	989.851563	1.458334
248.051895	976.198425	2243.663574	980.749451	0.359065
248.429703	948.892151	2352.888428	985.300537	2.593197
248.807465	1010.331238	2336.959961	1058.117188	3.602059
249.185196	1019.433350	2095.754639	1037.637451	1.691326
249.562897	964.820801	1893.233276	978.473938	1.470590
249.940567	1001.229126	1840.896362	980.749451	-2.439023
250.318192	1021.708862	1779.457275	1071.770264	6.606599
250.695801	994.402588	1649.752563	1058.117188	9.722225
251.073349	980.749451	1579.211426	1023.984375	7.224339
251.450882	955.718750	1501.843750	1053.566162	17.916670
251.828400	1053.566162	1524.598877	1021.708862	-6.763288
252.205872	987.576050	1565.558350	935.239075	-9.055118
252.583313	926.136963	1636.099487	967.096313	5.769227
252.960693	980.749451	1722.569214	980.749451	0.000000
253.338074	955.718750	1913.713013	1001.229126	4.750590
253.715408	1019.433350	1845.447388	978.473938	-4.958682
254.092682	923.861450	1665.681274	989.851563	8.895706
254.469955	989.851563	1654.303589	1046.739624	8.561650
254.847198	937.514587	1574.660400	1053.566162	18.214289
255.224365	1017.157776	1508.670288	939.790100	-15.740734
255.601563	910.208313	1506.394775	953.443237	7.251913
255.978683	973.922913	1547.354126	992.127075	3.174603
256.355743	976.198425	1499.568237	1019.433350	8.260875
256.732819	930.687988	1570.109375	1021.708862	14.234881
257.109894	944.341125	1549.629639	976.198425	5.263159
257.486877	1005.780212	1576.935913	1023.984375	3.187250
257.863831	1028.535400	1683.885376	976.198425	-7.986111
258.240753	1008.055725	1672.507813	969.371887	-5.821915
258.617645	1017.157776	1692.987427	996.678101	-3.030301
258.994507	1003.504700	1799.937012	935.239075	-8.571428
259.371307	980.749451	1836.345337	989.851563	1.063833
259.748108	985.300537	2125.336426	948.892151	-3.193618
260.124878	998.953613	2314.204590	994.402588	-0.346020
260.501617	898.830688	2500.797363	1023.984375	7.812502
260.878296	919.310425	2803.441650	1083.147949	8.695654
261.254944	951.167725	2889.911377	942.065613	-0.469485
261.631561	989.851563	2864.880615	983.024963	-0.364080
262.008179	946.616638	2521.277100	1010.331238	4.046244
262.384735	960.269775	2168.571289	1062.668213	8.474577
262.761261	973.922913	2018.386963	1051.290649	7.407410
263.137695	926.136963	2027.489014	1003.504700	7.024796
263.514191	928.412476	1934.192627	998.953613	7.013574
263.890594	996.678101	1970.601074	1037.637451	4.205605
264.267029	944.341125	1909.161987	1014.882263	7.311320
264.643341	978.473938	1875.029175	996.678101	2.030456
265.019653	942.065613	1845.447388	1049.015137	11.838796
265.395935	992.127075	1831.794189	989.851563	-0.271002
265.772217	1017.157776	1863.651489	996.678101	-2.419353
266.148407	953.443237	1829.518677	985.300537	3.636365
266.524597	992.127075	1970.601074	1003.504700	1.162793
266.900726	926.136963	2029.764526	1101.352051	15.876287
267.276855	967.096313	2004.733887	1046.739624	7.675446
267.652924	967.096313	2241.387939	1030.810913	5.000001
268.028992	953.443237	2168.571289	942.065613	-0.936331
268.404999	955.718750	2118.509766	1060.392700	9.001957
268.781006	894.279663	2111.683350	1037.637451	11.775699
269.156921	980.749451	2125.336426	1062.668213	7.157059
269.532837	973.922913	2170.846924	935.239075	-3.231937
269.908661	953.443237	2086.652588	1010.331238	5.020079
270.284546	892.004150	2143.540527	971.647400	6.363638
270.660339	1023.984375	2148.091553	1026.259888	0.202428
271.036133	937.514587	2141.265137	1028.535400	7.561435
271.411835	944.341125	2364.266113	1014.882263	4.967948
271.787537	969.371887	2448.460449	1046.739624	5.230771
272.163239	967.096313	2616.848877	1019.433350	3.172417
272.538849	1035.361938	2780.686523	1140.035889	5.997392
272.914459	987.576050	2812.543701	1005.780212	0.997506
273.290070	980.749451	2632.777588	1017.157776	2.203856
273.665588	944.341125	2491.695313	1092.250000	9.558825
274.041046	996.678101	2537.205811	1112.729614	7.533231
274.416565	1010.331238	2441.633789	1037.637451	1.907788
274.791962	1005.780212	2389.296875	1110.454102	7.565785
275.167389	971.647400	2316.480225	1017.157776	3.384092
275.542755	983.024963	2402.949951	1023.984375	2.884618
275.918060	989.851563	2245.938965	962.545288	-2.173915
276.293365	1005.780212	2336.959961	996.678101	-0.683763
276.668640	976.198425	2475.766602	1037.637451	4.097115
277.043854	1023.984375	2489.419678	998.953613	-1.708077
277.419037	937.514587	2514.450439	1021.708862	5.339106
277.794189	964.820801	2439.358398	971.647400	0.462965
278.169312	971.647400	2491.695313	930.687988	-2.694613
278.544373	976.198425	2514.450439	1035.361938	3.846152
278.919464	930.687988	2509.899414	1069.494751	8.789625
279.294464	935.239075	2330.133301	1049.015137	8.156609
279.669464	985.300537	2459.837891	1058.117188	4.938271
280.044403	1012.606750	2380.194824	1099.076538	6.322794
280.419312	944.341125	2437.082764	1023.984375	5.335367
280.794189	1019.433350	2430.256104	1051.290649	2.258065
281.169037	1037.637451	2559.960938	1051.290649	0.896866
281.543854	998.953613	2553.134277	1012.606750	0.878478
281.918671	980.749451	2589.542725	1049.015137	4.243285
282.293365	987.576050	2869.431641	1049.015137	3.264814
282.668091	926.136963	2878.533936	1049.015137	6.293708
283.042786	978.473938	3003.687500	1042.188477	3.146065
283.417419	967.096313	3005.962891	1089.974487	6.026788
283.792053	980.749451	2889.911377	1074.045776	4.886769
284.166595	973.922913	2937.697266	1078.596802	5.330240
284.541138	960.269775	2785.237549	1092.250000	7.231921
284.915619	998.953613	2939.972900	1046.739624	2.461903
285.290100	1055.841675	2921.768799	1012.606750	-2.317075
285.664520	996.678101	2894.462402	1051.290649	2.877701
286.038940	930.687988	2935.421875	1067.219238	6.810442
286.413300	987.576050	3140.218750	1078.596802	4.228326
286.787628	896.555176	3165.249512	1160.515625	11.634906
287.161896	955.718750	3219.861816	1124.107300	7.437187
287.536194	1001.229126	3304.056152	1178.719727	7.707509
287.910400	987.576050	3137.943115	1089.974487	4.761905
288.284607	937.514587	3074.228516	1117.280762	8.413208
288.658752	955.718750	2935.421875	1037.637451	4.137928
289.032867	971.647400	2814.819336	1014.882263	2.345677
289.406921	1005.780212	2851.227539	1110.454102	5.672007
289.781006	912.483826	2853.503174	1067.219238	7.971864
290.154999	1008.055725	2878.533936	1076.321289	3.649632
290.529022	1003.504700	3169.800537	1115.005249	5.147060
290.902954	910.208313	3112.912354	1124.107300	9.710746
291.276825	1026.259888	3253.994629	1035.361938	0.408579
291.650757	985.300537	3331.362549	1117.280762	5.625607
292.024597	960.269775	3297.229736	1069.494751	4.673806
292.398407	962.545288	3265.372314	1085.423462	5.335970
292.772156	969.371887	3119.739014	1053.566162	3.915344
293.145905	978.473938	3115.187988	1096.801025	5.537806
293.519592	989.851563	2969.554688	1162.791138	8.735632
293.893280	1037.637451	3053.749023	1167.342163	6.433409
294.266907	917.034912	3110.636963	1023.984375	4.875518
294.640533	980.749451	3294.954102	1087.698975	4.621438
295.014069	978.473938	3249.443604	1167.342163	8.316633
295.387604	1001.229126	3547.536865	1135.484863	5.272565
295.761078	1019.433350	3588.496338	1064.943726	1.771478
296.134552	967.096313	3465.618164	1144.586914	7.103824
296.507996	967.096313	3547.536865	1089.974487	4.761907
296.881378	923.861450	3549.812500	1101.352051	6.759098
297.254730	939.790100	3729.578613	1080.872437	5.057098
297.628021	1028.535400	3988.988037	1185.546387	5.303614
298.001282	953.443237	4034.498291	1099.076538	4.726735
298.374573	1019.433350	4091.386475	1153.689087	4.370371
298.747803	1001.229126	3909.344727	1112.729614	3.834115
299.121002	998.953613	3747.782715	1053.566162	1.986757
299.494141	885.177612	3602.149414	1212.852539	12.060300
299.867188	1001.229126	3565.741211	1037.637451	1.419698
300.240265	1001.229126	3388.250488	1101.352051	4.194471
300.613312	969.371887	3367.770752	1115.005249	6.072107
300.986328	1026.259888	3345.015625	1160.515625	5.789990
301.359314	987.576050	3203.933350	1087.698975	4.517454
301.732239	951.167725	3140.218750	1087.698975	6.237006
302.105103	921.585938	3265.372314	1083.147949	6.893206
302.477997	953.443237	3188.004639	1101.352051	6.619143
302.850830	1003.504700	3367.770752	1167.342163	6.929739
303.223602	1008.055725	3135.667725	1076.321289	3.208553
303.596375	1051.290649	3208.484375	1062.668213	0.527424
303.969116	973.922913	3071.953125	1035.361938	2.928415
304.341766	987.576050	3076.504150	1055.841675	3.267974
304.714478	980.749451	3156.147461	1058.117188	3.556487
305.087067	944.341125	3162.973877	1133.209351	8.512820
305.459656	989.851563	3144.769775	1092.250000	4.751848
305.832214	1003.504700	3172.075928	1133.209351	5.981111
306.204681	971.647400	3040.095703	996.678101	1.210120
306.577148	907.932800	3056.024414	1023.984375	5.402543
306.949646	998.953613	3140.218750	1030.810913	1.487779
307.322021	921.585938	3167.524902	1010.331238	3.951367
307.694397	935.239075	3126.565674	1039.912964	4.776736
308.066742	1019.433350	3053.749023	1112.729614	4.586125
308.439026	980.749451	3324.535889	1089.974487	4.660196
308.811279	1001.229126	3217.586426	1053.566162	2.361399
309.183502	998.953613	3417.832275	1146.862427	6.114768
309.555695	946.616638	3481.546875	1155.964600	8.258530
309.927887	951.167725	3415.556641	1087.698975	5.540166
310.299988	1023.984375	3556.638916	1117.280762	3.683739
310.672058	942.065613	3499.750977	1037.637451	3.736654
311.044128	946.616638	3558.914551	1078.596802	5.052263
311.416168	914.759338	3654.486328	1130.933838	7.890366
311.788147	942.065613	3636.282227	1101.352051	5.912162
312.160065	967.096313	3615.802490	1103.627563	5.154640
312.531982	944.341125	3549.812500	1167.342163	8.558951
312.903870	992.127075	3433.760986	1028.535400	1.491146
313.275696	948.892151	3417.832275	1001.229126	2.119815
313.647491	1014.882263	3319.984863	1030.810913	0.691017
314.019318	1001.229126	3404.179199	1105.903076	4.356060
314.391022	1017.157776	3415.556641	1053.566162	1.518029
314.762726	1003.504700	3445.138428	1042.188477	1.584340
315.134369	989.851563	3563.465576	967.096313	-0.884175
315.505981	937.514587	3699.996826	1083.147949	5.271830
315.877594	976.198425	3759.160400	1030.810913	1.962387
316.249146	1049.015137	3593.047363	1046.739624	-0.089445
316.620636	928.412476	3467.893799	1026.259888	3.853047
316.992157	973.922913	3276.750000	1099.076538	5.434782
317.363586	896.555176	3290.403076	1083.147949	7.794680
317.735016	985.300537	3256.270264	1035.361938	2.204406
318.106354	960.269775	3304.056152	1126.382813	7.087379
318.477722	1026.259888	3347.291016	1121.831787	4.117648
318.849060	919.310425	3253.994629	1101.352051	7.797270
319.220306	910.208313	3244.892578	1030.810913	5.165692
319.591522	1014.882263	3442.863037	1049.015137	1.405813
319.962738	985.300537	3454.240479	1042.188477	2.304144
320.333923	944.341125	3304.056152	1051.290649	4.532307
320.705017	1042.188477	3310.882813	964.820801	-3.410229
321.076111	998.953613	3329.086914	1042.188477	1.855467
321.447144	978.473938	3283.576416	960.269775	-0.789733
321.818176	914.759338	3222.137451	1033.086426	5.128205
322.189178	967.096313	3201.657715	1030.810913	2.851325
322.560120	1005.780212	3326.811523	1089.974487	3.627451
322.931030	962.545288	3299.505127	1101.352051	5.939630
323.301910	985.300537	3411.005615	1060.392700	3.095684
323.672729	1030.810913	3679.517090	1058.117188	1.030929
324.043549	980.749451	3795.568604	1124.107300	5.092968
324.414337	983.024963	3918.446777	1115.005249	4.496127
324.785095	976.198425	4132.345703	1137.760376	5.118961
325.155792	985.300537	4089.110840	1094.525513	3.519061
325.526428	910.208313	4109.590332	1092.250000	5.689901
325.897034	987.576050	3968.508301	1171.893188	6.183205
326.267670	946.616638	3893.416016	1053.566162	3.629345
326.638184	889.728638	4009.467773	1067.219238	5.689277
327.008728	1028.535400	4068.631104	1101.352051	2.395209
327.379211	1014.882263	4048.151611	1062.668213	1.575394
327.749634	937.514587	3927.548828	1089.974487	5.098935
328.120026	978.473938	3891.140625	1053.566162	2.578126
328.490417	937.514587	3811.497314	1105.903076	5.859064
328.860748	987.576050	3659.037354	1078.596802	3.407152
329.231079	946.616638	3654.486328	1083.147949	5.042019
329.601318	973.922913	3834.252441	1023.984375	1.750199
329.971558	942.065613	3786.466553	1087.698975	5.120001
330.341736	969.371887	3754.609375	1087.698975	4.248366
330.711914	971.647400	3690.894775	1060.392700	3.263598
331.082062	957.994263	3756.884766	1067.219238	3.902438
331.452148	973.922913	3709.098877	1067.219238	3.410981
331.822174	1021.708862	3634.006836	971.647400	-1.916376
332.192200	926.136963	3877.487549	980.749451	1.850424
332.562134	989.851563	3872.936523	1078.596802	3.078135
332.932129	996.678101	4009.467773	1062.668213	2.190333
333.302063	894.279663	4077.733398	1080.872437	5.861331
333.671906	953.443237	4145.999023	1099.076538	4.561653
334.041718	930.687988	4152.825684	1099.076538	5.225989
334.411499	967.096313	4216.540039	1051.290649	2.591038
334.781281	992.127075	4307.561035	1055.841675	1.921757
335.151001	1008.055725	4230.193359	1099.076538	2.824858
335.520721	1010.331238	3986.712402	1035.361938	0.840978
335.890350	944.341125	4216.540039	1028.535400	2.573018
336.259979	926.136963	4221.091309	1087.698975	4.903316
336.629547	930.687988	4266.601563	1030.810913	3.001364
336.999084	948.892151	4328.040527	1069.494751	3.569023
337.368622	912.483826	4150.549805	1060.392700	4.567815
337.738098	878.351013	4303.009766	1085.423462	6.046514
338.107513	951.167725	4243.846191	1064.943726	3.455424
338.476898	944.341125	4252.948242	1085.423462	4.264101
338.846252	967.096313	4419.061523	1060.392700	2.702703
339.215576	1055.841675	4425.888184	1094.525513	1.147873
339.584869	971.647400	4189.233887	1053.566162	2.545969
339.954132	944.341125	4186.958496	1028.535400	2.596491
340.323334	1028.535400	4155.101074	1140.035889	3.566229
340.692505	926.136963	3950.304199	1010.331238	2.784048
341.061646	960.269775	3977.610352	1058.117188	3.242836
341.430786	967.096313	4173.305176	1074.045776	3.335698
341.799896	926.136963	4127.794922	1096.801025	5.330490
342.168915	876.075500	4373.550781	1112.729614	6.766427
342.537903	937.514587	4428.163574	1071.770264	3.846152
342.906830	1026.259888	4478.225098	1001.229126	-0.725116
343.275757	1001.229126	4496.429199	1055.841675	1.562501
343.644684	1042.188477	4460.020996	1128.658325	2.529962
344.013550	1017.157776	4587.449707	1085.423462	1.912048
344.382355	1001.229126	4828.655273	1140.035889	3.626635
344.751129	983.024963	4849.134766	1064.943726	2.118894
345.119873	1092.250000	5015.248047	1137.760376	1.160092
345.488586	1008.055725	5311.065430	1078.596802	1.639343
345.857269	1001.229126	5301.963379	1062.668213	1.428572
346.225891	1008.055725	5531.791016	1060.392700	1.156942
346.594482	1035.361938	5570.475098	1121.831787	1.906675
346.963043	1046.739624	5622.812012	1117.280762	1.541522
347.331543	1010.331238	5042.554199	1110.454102	2.483069
347.700043	948.892151	4976.563965	1046.739624	2.429380
348.068512	887.453125	4933.329102	1076.321289	4.668165
348.436951	994.402588	4985.666016	1167.342163	4.332953
348.805328	951.167725	4769.491699	1126.382813	4.588796
349.173645	1021.708862	4776.318359	1062.668213	1.090908
349.541931	983.024963	4760.389648	1051.290649	1.807230
349.910217	978.473938	4865.063477	1083.147949	2.693210
350.278473	923.861450	4944.706543	1037.637451	2.829654
350.646667	1021.708862	4999.319336	1042.188477	0.514872
351.014801	914.759338	5085.789063	1119.556274	4.909985
351.382935	980.749451	5024.350098	1023.984375	1.069219
351.751007	1035.361938	5010.696777	1105.903076	1.774470
352.119049	1071.770264	5188.187500	1117.280762	1.105585
352.487091	1028.535400	5126.748535	1078.596802	1.221542
352.855072	917.034912	5185.912109	1115.005249	4.637527
353.222992	985.300537	5092.615723	1096.801025	2.714680
353.590881	1010.331238	5427.117188	1183.270874	3.915509
353.958740	987.576050	5620.536621	1151.413574	3.536346
354.326599	987.576050	5697.904297	1165.066650	3.768116
354.694397	985.300537	5889.047852	1153.689087	3.433875
355.062134	898.830688	5964.140137	1110.454102	4.177897
355.429840	994.402588	5925.456055	1174.168701	3.645592
355.797516	992.127075	6159.834961	1126.382813	2.597975
356.165192	1014.882263	6259.957520	1162.791138	2.819957
356.532776	912.483826	6401.040039	1087.698975	3.192372
356.900360	978.473938	6583.081543	1190.097412	3.775884
357.267883	992.127075	6528.469238	1217.403687	4.069051
357.635376	1051.290649	6803.807129	1160.515625	1.898734
358.002808	1008.055725	7493.290039	1265.189575	3.964912
358.370270	948.892151	7682.158203	1151.413574	3.007774
358.737640	955.718750	7552.453613	1201.474976	3.725422
359.105011	1005.780212	7322.625977	1174.168701	2.665705
359.472321	1044.463989	7111.002441	1203.750488	2.625657
359.839569	1067.219238	7090.522949	1203.750488	2.266717
360.206787	962.545288	7024.532715	1176.444214	3.528528
360.574005	873.799988	7136.033203	1226.505737	5.632267
360.941193	962.545288	7754.975098	1201.474976	3.517588
361.308319	926.136963	8021.210938	1171.893188	3.463758
361.675415	1017.157776	8676.560547	1206.026001	2.465835
362.042450	926.136963	9129.389648	1206.026001	3.411927
362.409424	928.412476	9871.208984	1244.709839	3.536895
362.776428	1014.882263	9916.719727	1274.291626	2.914110
363.143402	1033.086426	9432.034180	1251.536499	2.600922
363.510284	946.616638	8792.612305	1215.128052	3.422273
363.877136	989.851563	7898.332520	1256.087524	3.853755
364.243988	955.718750	7388.616211	1171.893188	3.360452
364.610779	964.820801	7172.441406	1190.097412	3.629033
364.977539	951.167725	6967.644531	1151.413574	3.328291
365.344269	1044.463989	6658.173828	1062.668213	0.324282
365.710938	985.300537	6737.816895	1210.577026	3.916138
366.077576	905.657288	6637.694336	1208.301514	5.279872
366.444183	976.198425	6587.632813	1108.178589	2.351986
366.810760	983.024963	6471.581055	1146.862427	2.985074
367.177277	944.341125	6583.081543	1151.413574	3.672318
367.543823	976.198425	6660.449219	1142.311401	2.922337
367.910248	1051.290649	6583.081543	1167.342163	2.097901
368.276642	948.892151	6517.091797	1146.862427	3.555373
368.643036	935.239075	6476.132324	1224.230225	5.215606
369.009399	980.749451	6303.192383	1174.168701	3.634032
369.375671	932.963501	6253.131348	1087.698975	2.908470
369.741974	987.576050	6253.131348	1185.546387	3.759724
370.108215	948.892151	6216.722656	1146.862427	3.758099
370.474396	921.585938	6091.569336	1078.596802	3.036970
370.840546	892.004150	6125.702148	1206.026001	5.999999
371.206665	973.922913	6401.040039	1146.862427	3.186582
371.572784	964.820801	6644.520508	1146.862427	3.205128
371.938843	1008.055725	6601.285645	1121.831787	2.034175
372.304840	935.239075	6705.959961	1176.444214	4.179810
372.670807	932.963501	6649.071777	1183.270874	4.378982
373.036713	962.545288	6712.786133	1251.536499	5.025724
373.402649	964.820801	6503.438477	1212.852539	4.478225
373.768524	985.300537	6594.459473	1183.270874	3.529412
374.134308	960.269775	6494.336426	1180.995239	3.988486
374.500122	894.279663	6412.417480	1162.791138	4.865980
374.865875	971.647400	6692.306641	1231.056763	4.534606
375.231567	996.678101	6708.235352	1219.679199	3.904384
375.597260	1019.433350	6730.990723	1180.995239	2.828684
375.962891	996.678101	6951.715820	1249.260864	4.241498
376.328461	1008.055725	7156.512695	1249.260864	3.923019
376.694031	1019.433350	7215.676270	1272.016113	4.076385
377.059540	985.300537	7659.402832	1196.923950	3.170815
377.425049	1005.780212	7932.465332	1258.363037	3.646518
377.790497	1001.229126	8314.752930	1333.455200	4.542626
378.155945	935.239075	8612.846680	1278.842651	4.475399
378.521301	962.545288	8301.099609	1265.189575	4.124032
378.886597	894.279663	8121.333984	1221.954712	4.534006
379.251892	935.239075	7802.760742	1237.883301	4.406891
379.617157	1010.331238	7584.311035	1333.455200	4.915195
379.982422	944.341125	7286.217773	1210.577026	4.198062
380.347595	942.065613	7167.890625	1240.158813	4.788011
380.712738	998.953613	7240.707031	1210.577026	3.390448
381.077820	992.127075	7288.493164	1308.424438	5.023490
381.442902	960.269775	7463.708008	1294.771362	5.143457
381.807953	983.024963	7163.339355	1308.424438	5.265096
382.172974	980.749451	7161.063965	1312.975464	5.375552
382.537933	951.167725	7097.349609	1315.250977	5.923731
382.902832	987.576050	7151.961914	1272.016113	4.614248
383.267700	998.953613	7593.413086	1358.485962	5.452037
383.632538	932.963501	7566.106445	1351.659302	6.312178
383.997345	976.198425	7805.036133	1438.129150	6.764412
384.362152	912.483826	7741.321777	1463.159912	8.063979
384.726898	971.647400	7761.801270	1342.557251	5.462466
385.091553	942.065613	7939.291992	1378.965576	6.243902
385.456238	985.300537	8114.507324	1381.241089	5.553781
385.820862	980.749451	7962.047363	1426.751587	6.388527
386.185425	980.749451	7925.639160	1381.241089	5.766710
386.549988	946.616638	8157.742188	1415.373901	6.500473
386.914490	960.269775	8109.956055	1444.955688	6.779121
387.278961	983.024963	8166.844238	1415.373901	6.018372
387.643372	1012.606750	8319.303711	1499.568237	6.664591
388.007782	996.678101	8542.304688	1424.476074	5.669483
388.372101	957.994263	8749.377930	1497.292725	6.921729
388.736450	930.687988	8401.222656	1481.364014	7.371307
389.100739	942.065613	8348.885742	1542.803101	8.110599
389.464966	969.371887	8285.170898	1520.047852	7.527216
389.829163	983.024963	8166.844238	1545.078613	7.823884
390.193329	989.851563	8043.965820	1633.823975	9.129033
390.557495	926.136963	8305.651367	1517.772339	8.017267
390.921570	882.902100	8469.488281	1606.517700	9.538093
391.285614	948.892151	8642.427734	1579.211426	8.192842
391.649597	1012.606750	9017.888672	1570.109375	6.964185
392.013550	978.473938	9504.850586	1665.681274	8.059781
392.377502	964.820801	9752.881836	1733.946899	8.751944
392.741455	1019.433350	9507.125977	1720.293701	8.257372
393.105316	1014.882263	9536.708008	1697.538574	8.010681
393.469086	973.922913	9534.432617	1645.201538	7.841573
393.832886	1026.259888	9279.574219	1704.365112	8.216156
394.196655	973.922913	9454.789063	1645.201538	7.915213
394.560333	973.922913	9666.412109	1697.538574	8.324608
394.924042	983.024963	9593.595703	1777.181763	9.223045
395.287659	987.576050	9623.177734	1797.661377	9.380763
395.651245	928.412476	9520.779297	1786.283813	9.984109
396.014771	939.790100	9131.665039	1824.967651	10.805555
396.378296	1035.361938	8854.051758	1797.661377	9.749708
396.741791	928.412476	8776.683594	1813.590088	11.278632
397.105255	953.443237	8453.559570	1868.202637	12.196603
397.468628	1001.229126	8351.161133	1779.457275	10.588236
397.832001	935.239075	8260.140625	1756.702026	11.214663
398.195313	948.892151	8656.081055	1831.794189	11.455564
398.558624	935.239075	8540.029297	1747.599976	10.682226
398.921844	898.830688	8565.060547	1770.355225	11.368359
399.285095	946.616638	8669.734375	1875.029175	12.021214
399.648254	942.065613	8701.591797	1786.283813	10.879765
400.011383	932.963501	8574.162109	1811.314575	11.494938
400.374451	953.443237	8501.345703	1774.906250	10.883328
400.737549	992.127075	8608.294922	1865.927002	11.472960
401.100586	973.922913	8469.488281	1859.100464	11.809350
401.463562	983.024963	8553.682617	1861.375977	11.602044
401.826508	994.402588	8844.949219	1881.855713	11.304348
402.189392	1014.882263	8626.499023	1852.273926	11.001495
402.552246	960.269775	8694.764648	1922.815063	12.444837
402.915070	996.678101	8685.663086	1856.824951	11.186742
403.277893	996.678101	8872.255859	1979.703125	12.481942
403.640656	955.718750	9131.665039	2086.652588	13.832452
404.003326	953.443237	9568.565430	1988.805176	12.017961
404.366028	962.545288	9454.789063	2086.652588	13.236870
404.728699	969.371887	9896.240234	2154.918213	13.280653
405.091248	939.790100	10103.312500	2125.336426	12.937671
405.453857	994.402588	10301.282227	2179.948975	12.738387
405.816345	971.647400	9934.923828	2204.979736	13.759838
406.178833	1030.810913	10176.128906	2068.448486	11.346107
406.541260	1008.055725	10112.414063	2152.642578	12.571856
406.903687	944.341125	9775.637695	2148.091553	13.630507
407.266052	962.545288	9707.372070	2050.244141	12.438197
407.628387	967.096313	9552.636719	2029.764526	12.377419
407.990662	1001.229126	9552.636719	2141.265137	13.331560
408.352905	1008.055725	9463.890625	2168.571289	13.724436
408.715118	989.851563	9336.461914	2173.122314	14.176662
409.077332	998.953613	9236.338867	2211.806152	14.723758
409.439484	1037.637451	9409.278320	2134.438477	13.101387
409.801575	1021.708862	9648.208008	2220.908203	13.901344
410.163605	951.167725	9853.004883	2268.694336	14.800615
410.525635	1055.841675	9971.332031	2293.724854	13.884634
410.887604	971.647400	10112.414063	2350.613037	15.085885
411.249573	978.473938	10148.823242	2259.592041	13.970222
411.611481	994.402588	10219.364258	2243.663574	13.542180
411.973328	976.198425	9937.199219	2311.929199	14.906044
412.335144	926.136963	10064.628906	2298.276123	15.014940
412.696930	1008.055725	9752.881836	2384.745850	15.742910
413.058685	946.616638	9923.545898	2318.755615	15.285170
413.420410	953.443237	9707.372070	2195.877686	14.192879
413.782104	980.749451	9837.076172	2380.194824	15.801644
414.143707	978.473938	9900.791016	2352.888428	15.404233
414.505310	989.851563	9907.617188	2366.541748	15.437613
414.866852	987.576050	9932.648438	2448.460449	16.331722
415.228394	1003.504700	10360.446289	2448.460449	15.442608
415.589874	932.963501	10294.456055	2355.164063	15.192028
415.951324	978.473938	10346.792969	2480.317627	16.031090
416.312683	973.922913	10663.090820	2475.766602	15.500235
416.674072	955.718750	11029.449219	2493.970703	15.269934
417.035370	967.096313	11393.532227	2418.878662	13.924052
417.396667	1033.086426	11527.788086	2573.614014	14.679099
417.757935	1021.708862	11725.758789	2557.685303	14.349489
418.119141	1026.259888	12174.036133	2616.848877	14.268218
418.480286	985.300537	12328.771484	2687.390137	15.005016
418.841400	887.453125	13157.061523	2757.931152	15.244806
419.202484	869.248962	13216.224609	2787.512939	15.536306
419.563568	953.443237	13830.615234	2787.512939	14.242799
419.924591	973.922913	14813.640625	2873.982666	13.729035
420.285553	917.034912	14708.966797	2962.728027	14.832535
420.646484	987.576050	16024.217773	3165.249512	14.482445
421.007355	960.269775	15990.084961	3137.943115	14.489022
421.368225	976.198425	17257.548828	3260.821289	14.032146
421.729065	998.953613	17457.794922	3356.393066	14.323240
422.089874	955.718750	17962.960938	3577.118652	15.413433
422.450592	935.239075	17699.000000	3695.445801	16.465319
422.811279	987.576050	17787.746094	3558.914551	15.305430
423.171936	962.545288	17689.898438	3522.506104	15.304040
423.532593	1005.780212	17282.580078	3570.292236	15.755628
423.893127	955.718750	17614.806641	3629.455566	16.049719
424.253723	985.300537	18033.501953	3765.986816	16.310732
424.614197	1042.188477	18001.644531	3772.813477	16.100899
424.974670	1012.606750	18290.636719	3852.456787	16.436192
425.335052	1026.259888	18879.996094	3872.936523	15.944431
425.695496	1014.882263	17787.746094	3795.568604	16.578484
426.055817	932.963501	17960.685547	3795.568604	16.811438
426.416168	1003.504700	17792.296875	3704.547852	16.088371
426.776398	1023.984375	16720.527344	3517.955078	15.888662
427.136627	955.718750	16126.616211	3506.577637	16.814159
427.496826	930.687988	16160.749023	3613.527100	17.615419
427.856995	935.239075	15562.287109	3517.955078	17.657125
428.217102	971.647400	14902.385742	3276.750000	16.546881
428.577179	1010.331238	14731.721680	3231.239502	16.185738
428.937195	1003.504700	14381.291016	3197.106689	16.397346
429.297180	969.371887	13807.860352	3165.249512	17.103865
429.657135	996.678101	13587.134766	3181.177979	17.350443
430.017059	971.647400	13707.737305	3240.341553	17.813112
430.376984	978.473938	13878.401367	3208.484375	17.287001
430.736786	939.790100	13414.195313	3103.810303	17.347683
431.096588	964.820801	13471.083008	2990.034424	16.193598
431.456360	896.555176	13584.859375	3135.667725	17.647058
431.816071	983.024963	13234.428711	3003.687500	16.493315
432.175781	964.820801	13400.541992	3003.687500	16.395243
432.535400	937.514587	13352.755859	2996.860840	16.587242
432.895020	942.065613	13359.583008	3183.453613	18.050209
433.254578	976.198425	13687.257813	3210.759766	17.579662
433.614105	985.300537	13764.625000	3267.647949	17.859688
433.973602	953.443237	14190.147461	3317.709229	17.861441
434.333038	871.524475	13967.146484	3415.556641	19.426586
434.692444	969.371887	14356.260742	3506.577637	18.952917
435.051819	957.994263	14233.382813	3506.577637	19.197807
435.411133	1021.708862	14285.719727	3506.577637	18.733915
435.770416	932.963501	13939.840820	3404.179199	18.999302
436.129669	989.851563	14267.515625	3629.455566	19.880033
436.488861	992.127075	13946.666992	3454.240479	19.005795
436.848083	992.127075	14051.340820	3686.343750	20.630774
437.207184	998.953613	13930.738281	3677.241699	20.710892
437.566254	969.371887	14433.628906	3709.098877	20.348148
437.925293	1010.331238	14308.474609	3611.251465	19.558521
438.284363	967.096313	14374.464844	3761.435791	20.841818
438.643311	1046.739624	14572.435547	3802.395264	20.373486
439.002258	932.963501	14449.556641	4029.947266	22.912460
439.361145	1021.708862	15478.092773	4066.355713	21.060917
439.719971	948.892151	15614.624023	4177.855957	22.017067
440.078827	971.647400	15842.175781	4239.295410	21.973988
440.437592	1037.637451	16379.198242	4460.020996	22.307922
440.796295	1042.188477	16545.312500	4535.112793	22.530455
441.155029	1017.157776	17614.806641	4701.226074	22.196327
441.513672	898.830688	18336.146484	4728.532227	21.962679
441.872253	969.371887	17960.685547	4808.175293	22.592739
442.230865	923.861450	17544.265625	4762.665039	23.096933
442.589386	1085.423462	17341.744141	4721.705566	22.368422
442.947876	960.269775	17068.681641	4771.767090	23.661533
443.306335	967.096313	16820.650391	4505.531250	22.319508
443.664764	957.994263	16074.279297	4546.490723	23.739275
444.023102	919.310425	16688.669922	4689.848145	23.910532
444.381500	973.922913	16586.271484	4758.113770	24.238447
444.739777	957.994263	16424.708984	4598.827637	23.539799
445.098022	851.044800	16467.943359	4876.440918	25.775900
445.456238	978.473938	16631.781250	4710.328125	23.840675
445.814423	917.034912	17150.599609	4953.808594	24.866835
446.172577	996.678101	18217.820313	5085.789063	23.744713
446.530701	932.963501	18365.728516	5217.769043	24.579035
446.888733	910.208313	18727.537109	5322.443359	24.763729
447.246765	944.341125	19808.408203	5504.484863	24.173704
447.604736	962.545288	18905.027344	5436.219238	24.933416
447.962677	930.687988	19376.060547	5463.525391	24.574387
448.320587	967.096313	19637.744141	5352.024902	23.485680
448.678436	1005.780212	18859.515625	5449.872559	24.891665
449.036255	971.647400	18907.302734	5222.320313	23.699568
449.394043	971.647400	17696.724609	5142.677246	24.938776
449.751770	971.647400	17869.664063	5179.085449	24.899004
450.109467	939.790100	17398.632813	5133.574707	25.480436
450.467163	935.239075	17325.814453	5003.870117	24.822990
450.824768	980.749451	16959.457031	4994.768066	25.121046
451.182343	953.443237	17166.529297	5028.900879	25.136841
451.539886	923.861450	16097.034180	4810.451172	25.614880
451.897369	951.167725	16388.300781	4906.022949	25.619104
452.254822	985.300537	16392.851563	4762.665039	24.516321
452.612274	962.545288	16438.361328	4683.021973	24.040583
452.969635	996.678101	16624.955078	4826.379395	24.504948
453.326965	957.994263	16647.710938	4783.144531	24.379984
453.684326	953.443237	16165.299805	4801.349121	25.295439
454.041534	967.096313	15971.880859	4653.439941	24.567789
454.398773	978.473938	15532.705078	4669.368652	25.359600
454.755951	880.626526	15305.153320	4491.877930	25.035494
455.113098	1021.708862	14902.385742	4325.765137	23.803278
455.470215	969.371887	14747.650391	4473.673828	25.433525
455.827240	932.963501	15018.437500	4453.194336	24.991924
456.184265	960.269775	14704.415039	4250.672852	23.940397
456.541260	962.545288	14565.608398	4239.295410	24.088324
456.898193	1008.055725	14834.120117	4291.632324	23.749178
457.255096	1010.331238	14972.926758	4300.734375	23.565842
457.611969	964.820801	14649.802734	4339.417969	24.659126
457.968781	1003.504700	15009.334961	4407.683594	24.305443
458.325531	1010.331238	15321.082031	4412.234863	23.771664
458.682312	973.922913	15762.532227	4444.092285	23.465151
459.039001	953.443237	16816.099609	4689.848145	23.554724
459.395630	969.371887	17287.130859	5003.870117	24.724586
459.752289	971.647400	18870.894531	5138.125977	23.277393
460.108856	951.167725	20306.748047	5497.658203	23.489300
460.465363	930.687988	20816.464844	5725.210449	24.110310
460.821899	921.585938	20930.240234	5634.189453	23.552826
461.178345	928.412476	20238.482422	5538.617676	23.874617
461.534760	942.065613	19869.847656	5399.811035	23.551338
461.891144	976.198425	18597.832031	5169.983398	23.799072
462.247467	1023.984375	18158.656250	4994.768066	23.173969
462.603760	937.514587	17769.541016	4869.614746	23.360823
462.960052	987.576050	16793.343750	4801.349121	24.128996
463.316254	1049.015137	16317.759766	4537.388672	22.846498
463.672424	967.096313	16001.461914	4357.622559	22.551842
464.028564	962.545288	15616.899414	4337.142578	23.027948
464.384644	1008.055725	15585.041992	4394.030762	23.228224
464.740723	992.127075	15990.084961	4396.306152	22.697618
465.096741	921.585938	15614.624023	4293.907715	22.951834
465.452698	932.963501	15703.369141	4316.663086	22.908646
465.808655	901.106262	15849.001953	4252.948242	22.423504
466.164520	889.728638	15439.408203	4250.672852	23.099783
466.520355	971.647400	16347.341797	4421.336914	22.435991
466.876190	973.922913	16413.332031	4444.092285	22.476051
467.231964	978.473938	16331.413086	4444.092285	22.572996
467.587677	983.024963	17155.150391	4507.806641	21.795414
467.943390	948.892151	17246.171875	4532.837402	21.991066
468.299011	998.953613	16404.228516	4530.562012	22.924669
468.654633	939.790100	16467.943359	4400.857422	22.288982
469.010223	1039.912964	16565.791016	4357.622559	21.368900
469.365723	1005.780212	15673.787109	4300.734375	22.463543
469.721191	1030.810913	16015.115234	4419.061523	22.611998
470.076660	1005.780212	15589.592773	4127.794922	21.407396
470.432068	973.922913	15928.645508	4175.580566	21.409008
470.787445	996.678101	15318.805664	4125.519043	21.846201
471.142792	987.576050	15703.369141	4180.131836	21.694757
471.498016	951.167725	15748.879883	4068.631104	21.067198
471.853271	996.678101	15539.531250	4054.978027	21.029572
472.208496	994.402588	15753.430664	4068.631104	20.829477
472.563660	951.167725	15739.777344	4066.355713	21.064779
472.918762	935.239075	16310.933594	4171.029785	21.044844
473.273865	987.576050	16649.986328	4200.611328	20.514309
473.628876	980.749451	17055.029297	4337.142578	20.880518
473.983917	969.371887	16995.865234	4346.244629	21.070566
474.338837	978.473938	17004.966797	4391.755371	21.297745
474.693787	978.473938	16938.976563	4289.356934	20.744228
475.048645	939.790100	16695.496094	4239.295410	20.941654
475.403503	946.616638	16784.242188	4243.846191	20.818962
475.758270	1023.984375	17027.722656	4214.264648	19.934593
476.113037	946.616638	16768.312500	4282.530273	21.084425
476.467773	994.402588	17419.111328	4280.254395	20.005541
476.822418	1026.259888	18315.666016	4466.847168	19.899975
477.177063	917.034912	18183.687500	4348.520020	19.873482
477.531647	976.198425	18700.230469	4466.847168	19.694441
477.886200	928.412476	19109.824219	4546.490723	19.899874
478.240723	919.310425	19703.734375	4594.276367	19.563900
478.595184	964.820801	19690.082031	4710.328125	20.002430
478.949585	951.167725	20377.289063	4642.062500	18.999649
479.303986	907.932800	20322.675781	4632.960449	19.186594
479.658325	1023.984375	20322.675781	4669.368652	18.889282
480.012634	962.545288	20349.982422	4557.868164	18.544600
480.366913	955.718750	21021.261719	4846.859375	19.392153
480.721130	901.106262	21558.283203	4840.032715	19.068077
481.075317	946.616638	22486.697266	4878.716797	18.254807
481.429474	962.545288	23492.476563	4992.492676	17.887081
481.783569	996.678101	24436.818359	5254.177734	18.163284
482.137604	962.545288	25881.773438	5468.076660	18.080542
482.491669	964.820801	28155.019531	5754.791992	17.616535
482.845612	1019.433350	31054.033203	6366.907227	17.804379
483.199554	939.790100	35204.582031	6867.521973	17.299774
483.553436	1019.433350	41039.019531	8098.578613	17.689201
483.907318	980.749451	47870.132813	9363.768555	17.878290
484.261139	937.514587	53791.035156	10442.365234	17.983383
484.614899	892.004150	56366.925781	11191.011719	18.565159
484.968628	1014.882263	55886.789063	11029.449219	18.250811
485.322357	989.851563	53520.250000	10403.680664	17.920727
485.675964	964.820801	49763.363281	9356.941406	17.197483
486.029572	989.851563	45565.027344	8560.508789	16.984020
486.383148	976.198425	43346.394531	8028.037598	16.643396
486.736694	1026.259888	40661.281250	7663.954102	16.747044
487.090149	1001.229126	40847.875000	7593.413086	16.543888
487.443604	944.341125	41958.328125	7616.167969	16.267199
487.796997	932.963501	44281.636719	8028.037598	16.367455
488.150360	987.576050	45189.566406	8237.385742	16.401545
488.503693	962.545288	45797.132813	8276.069336	16.312237
488.856964	835.116150	45071.242188	7989.353516	16.172838
489.210175	953.443237	42074.378906	7711.740234	16.435173
489.563416	917.034912	40065.093750	7183.819336	16.007906
489.916565	996.678101	37700.828125	6528.469238	15.071297
490.269653	948.892151	35341.113281	6376.009277	15.780071
490.622772	967.096313	34267.066406	5959.588867	14.992484
490.975769	960.269775	34125.984375	5900.425293	14.895368
491.328735	957.994263	35564.113281	6087.018066	14.821148
491.681732	980.749451	37780.472656	6473.856445	14.927033
492.034607	1005.780212	40306.300781	6862.970703	14.903595
492.387482	1005.780212	40998.058594	6883.450195	14.697012
492.740326	946.616638	39530.347656	6576.254883	14.590705
493.093079	1008.055725	37689.449219	6237.202637	14.255584
493.445862	1026.259888	34558.335938	5763.894043	14.128665
493.798523	960.269775	31911.904297	5288.310547	13.983239
494.151215	937.514587	29486.199219	5049.380859	14.402997
494.503815	942.065613	27454.158203	4717.154785	14.239122
494.856384	951.167725	25943.212891	4398.581543	13.794044
495.208923	1035.361938	24632.511719	4218.815430	13.490839
495.561432	923.861450	23874.763672	4118.692871	13.920287
495.913879	969.371887	24197.888672	3934.375488	12.764498
496.266296	926.136963	24345.796875	4054.978027	13.359891
496.618683	1021.708862	24015.845703	4077.733398	13.290451
496.970978	969.371887	24914.677734	3984.437012	12.591466
497.323273	985.300537	25158.158203	4057.253662	12.708275
497.675507	1019.433350	25296.964844	3909.344727	11.903646
498.027710	1028.535400	25349.300781	3973.059326	12.107037
498.379852	923.861450	24955.636719	4057.253662	13.038538
498.731995	971.647400	24409.511719	4041.324951	13.097087
499.084076	1051.290649	24320.765625	3927.548828	12.360650
499.436096	1080.872437	23981.712891	3772.813477	11.754769
499.788086	1049.015137	23340.017578	3788.742188	12.290730
500.140106	989.851563	22666.462891	3517.955078	11.662817
500.491943	1033.086426	22322.859375	3563.465576	11.885421
500.843842	1044.463989	22081.654297	3545.261475	11.887507
501.195679	1001.229126	21544.630859	3381.423828	11.586176
501.547455	1001.229126	21237.435547	3383.699463	11.773304
501.899231	987.576050	21189.650391	3424.658691	12.063526
502.250885	932.963501	21080.423828	3301.780762	11.757399
502.602600	957.994263	20941.617188	3213.035400	11.284446
502.954193	930.687988	20843.771484	3242.617188	11.610101
503.305786	1026.259888	20861.974609	3279.025391	11.357119
503.657379	932.963501	20909.759766	3203.933350	11.368037
504.008820	971.647400	20918.863281	3160.698486	10.974217
504.360291	994.402588	21096.353516	3203.933350	10.991623
504.711700	994.402588	21253.365234	3365.495361	11.703919
505.063080	946.616638	21226.058594	3172.075928	10.973968
505.414368	951.167725	21146.414063	3099.259277	10.636620
505.765656	1037.637451	21053.119141	3142.494141	10.516143
506.116943	932.963501	21353.486328	3005.962891	10.151549
506.468109	960.269775	20693.585938	3024.167236	10.458949
506.819305	989.851563	20880.179688	3028.718262	10.250544
507.170410	1023.984375	20930.240234	2969.554688	9.773663
507.521484	978.473938	20877.904297	2960.452637	9.959978
507.872559	1021.708862	21073.597656	3017.340576	9.952338
508.223480	967.096313	21073.597656	2994.585449	10.083749
508.574493	885.177612	21262.466797	2933.146240	10.050251
508.925385	994.402588	21788.111328	2965.003662	9.476910
509.276245	946.616638	21926.917969	3026.442627	9.913232
509.627045	939.790100	22284.175781	3030.993652	9.797441
509.977814	926.136963	22739.279297	3051.473389	9.743376
510.328613	1014.882263	22832.576172	2987.758789	9.042553
510.679260	1010.331238	22991.861328	2928.595215	8.726708
511.029999	987.576050	23171.628906	3003.687500	9.088112
511.380585	1017.157776	23201.210938	2892.187012	8.452149
511.731140	960.269775	23362.771484	2994.585449	9.080752
512.081726	1008.055725	23556.191406	2978.656738	8.739531
512.432129	1039.912964	23692.722656	2901.289063	8.216976
512.782654	978.473938	24061.357422	2985.483398	8.694796
513.133057	955.718750	23738.232422	2914.942139	8.599681
513.483398	989.851563	23968.060547	2837.574463	8.041196
513.833801	983.024963	24152.376953	2892.187012	8.240032
514.183960	1026.259888	23189.832031	2826.196777	8.121150
514.534302	983.024963	23406.007813	2819.370361	8.189569
514.884460	946.616638	23410.558594	2762.482178	8.083467
515.234619	953.443237	23091.984375	2726.073975	8.006989
515.584717	996.678101	23228.515625	2707.869873	7.697032
515.934753	898.830688	23228.515625	2621.399902	7.714256
516.284851	932.963501	23522.058594	2742.002686	8.008462
516.634766	948.892151	23239.894531	2639.604248	7.584729
516.984741	964.820801	24375.378906	2630.501953	7.115085
517.334595	1028.535400	24841.861328	2644.155273	6.784520
517.684448	994.402588	25497.210938	2726.073975	7.067236
518.034363	1014.882263	26805.634766	2789.788574	6.881948
518.384094	937.514587	27913.814453	2707.869873	6.562632
518.733826	969.371887	29092.533203	2821.645752	6.586293
519.083496	978.473938	29463.443359	2867.156250	6.630453
519.433167	962.545288	29993.640625	2801.166016	6.333281
519.782776	937.514587	29716.025391	2939.972900	6.958172
520.132324	944.341125	29001.511719	2764.757813	6.488241
520.481873	944.341125	28471.316406	2789.788574	6.704142
520.831299	1049.015137	27925.191406	2685.114502	6.087545
521.180786	930.687988	26867.074219	2616.848877	6.501140
521.530151	998.953613	26491.613281	2614.573486	6.337588
521.879517	1019.433350	26300.468750	2498.521729	5.850585
522.228882	953.443237	26352.806641	2414.327637	5.751657
522.578064	987.576050	25906.804688	2466.664551	5.935531
522.927307	930.687988	26020.580078	2339.235352	5.614003
523.276489	935.239075	25786.201172	2361.990479	5.741232
523.625610	976.198425	26459.755859	2375.643799	5.491562
523.974792	992.127075	27005.880859	2525.828125	5.895731
524.323792	889.728638	27486.015625	2389.296875	5.638262
524.672852	1012.606750	27542.904297	2498.521729	5.600823
525.021790	992.127075	28767.134766	2439.358398	5.210552
525.370728	1003.504700	30485.152344	2537.205811	5.202223
525.719604	973.922913	31427.218750	2596.369141	5.327654
526.068420	919.310425	33479.738281	2660.083740	5.346285
526.417297	932.963501	35088.531250	2698.767578	5.169887
526.765991	951.167725	35894.066406	2782.961914	5.242250
527.114746	964.820801	37357.226563	2792.063965	5.020947
527.463379	1019.433350	38074.015625	2807.992676	4.826824
527.812012	976.198425	40579.363281	2949.074951	4.981613
528.160706	996.678101	44131.449219	3051.473389	4.763664
528.509155	1012.606750	49189.933594	3272.198975	4.690157
528.857727	1062.668213	53458.808594	3347.291016	4.360288
529.206177	951.167725	56300.937500	3634.006836	4.847064
529.554565	1003.504700	56191.710938	3581.669678	4.671587
529.902893	994.402588	54935.625000	3497.475586	4.640371
530.251221	957.994263	52339.253906	3244.892578	4.450842
530.599548	1008.055725	48313.859375	3147.045166	4.521622
530.947876	951.167725	44802.730469	2960.452637	4.582015
531.296021	914.759338	41305.253906	2730.625000	4.495775
531.644165	1017.157776	38961.468750	2662.359375	4.335832
531.992249	980.749451	37025.000000	2423.429688	4.002525
532.340454	962.545288	36335.515625	2405.225586	4.078482
532.688354	983.024963	36740.558594	2389.296875	3.932799
533.036438	951.167725	37864.667969	2441.633789	4.037726
533.384338	967.096313	39432.500000	2509.899414	4.010885
533.732239	1012.606750	41605.621094	2539.481201	3.761422
534.080139	932.963501	42103.960938	2539.481201	3.902062
534.427917	946.616638	41940.125000	2555.409912	3.924507
534.775757	932.963501	39448.429688	2434.807373	3.899327
535.123474	1033.086426	38074.015625	2371.092773	3.612237
535.471191	896.555176	35598.246094	2268.694336	3.954099
535.818848	1019.433350	34287.546875	2182.224365	3.495212
536.166382	989.851563	33807.414063	2084.376953	3.335182
536.513977	921.585938	33406.921875	2020.662476	3.383301
536.861511	946.616638	34207.902344	2138.989502	3.584867
537.208984	1030.810913	33928.015625	2102.581299	3.257938
537.556396	939.790100	33862.023438	2032.040039	3.317667
537.903809	976.198425	32872.171875	1972.876587	3.124778
538.251160	935.239075	32066.638672	2095.754639	3.727798
538.598389	1001.229126	30960.736328	2009.284912	3.364727
538.945740	1046.739624	29486.199219	1875.029175	2.912466
539.292969	969.371887	29192.656250	1840.896362	3.087963
539.640137	898.830688	29256.371094	1915.988525	3.586904
539.987244	946.616638	29422.484375	1884.131226	3.292313
540.334351	951.167725	30228.017578	1925.090576	3.326597
540.681458	994.402588	32282.814453	1959.223389	3.083636
541.028442	978.473938	35184.101563	1995.631714	2.973656
541.375366	971.647400	38706.609375	2022.937988	2.785985
541.722290	960.269775	41466.816406	2159.469238	2.960508
542.069153	978.473938	43143.875000	2245.938965	3.005936
542.416016	1012.606750	43473.824219	2157.193604	2.695606
542.762756	989.851563	42204.085938	2191.326416	2.915194
543.109558	944.341125	40850.148438	2102.581299	2.902435
543.456299	894.279663	38672.476563	2109.407715	3.216480
543.802917	951.167725	37111.468750	2011.560425	2.932477
544.149536	962.545288	35668.789063	1966.049927	2.891424
544.496094	985.300537	33263.562500	1768.079712	2.425097
544.842651	1014.882263	31766.269531	1781.732788	2.493710
545.189148	912.483826	29968.609375	1781.732788	2.991620
545.535583	917.034912	29158.523438	1692.987427	2.747562
545.882019	960.269775	28459.939453	1738.497925	2.829955
546.228333	962.545288	27904.710938	1633.823975	2.491554
546.574707	967.096313	28334.785156	1617.895264	2.377983
546.920898	948.892151	28414.427734	1663.405762	2.601492
547.267212	1010.331238	28339.335938	1724.844727	2.614488
547.613342	1001.229126	27868.302734	1713.467163	2.650970
547.959473	1021.708862	27856.925781	1674.783325	2.433647
548.305664	914.759338	27094.626953	1588.313477	2.572794
548.651611	1033.086426	25761.171875	1506.394775	1.914052
548.997742	992.127075	24564.246094	1542.803101	2.336133
549.343689	946.616638	23660.865234	1595.140137	2.855140
549.689575	951.167725	22741.554688	1595.140137	2.955305
550.035522	896.555176	21897.335938	1520.047852	2.968902
550.381287	1001.229126	21128.210938	1372.139038	1.842849
550.727173	1017.157776	21094.078125	1408.547363	1.949450
551.072876	983.024963	20452.380859	1392.618774	2.103787
551.418640	987.576050	20293.093750	1344.832764	1.850542
551.764282	923.861450	20463.757813	1399.445313	2.433912
552.109863	967.096313	20309.023438	1394.894287	2.211765
552.455505	994.402588	20861.974609	1374.414551	1.912725
552.801025	1008.055725	20846.046875	1467.710938	2.317045
553.146545	969.371887	21210.128906	1378.965576	2.023608
553.491943	953.443237	21075.873047	1353.934937	1.990275
553.837341	992.127075	21464.988281	1479.088501	2.378570
554.182800	996.678101	21221.507813	1440.404663	2.193969
554.528015	1010.331238	20670.830078	1374.414551	1.851852
554.873352	964.820801	19983.623047	1410.822876	2.345059
555.218628	978.473938	20179.318359	1394.894287	2.168761
555.563721	935.239075	19756.072266	1374.414551	2.333454
555.908875	987.576050	19323.722656	1356.210449	2.010425
556.254028	930.687988	19057.486328	1410.822876	2.648757
556.599121	942.065613	18859.515625	1328.904175	2.159005
556.944031	903.381775	18745.740234	1374.414551	2.639969
557.289063	996.678101	18666.097656	1340.281738	1.944623
557.633972	960.269775	18704.781250	1358.485962	2.244165
557.978882	969.371887	18593.281250	1249.260864	1.588121
558.323792	994.402588	18352.076172	1335.730713	1.966439
558.668518	998.953613	17846.910156	1274.291626	1.634252
559.013306	1003.504700	18176.859375	1208.301514	1.192526
559.358032	987.576050	17931.103516	1299.322388	1.839914
559.702637	1014.882263	18049.431641	1378.965576	2.137323
560.047363	994.402588	18272.431641	1303.873413	1.791123
560.391846	1019.433350	18047.156250	1374.414551	2.084725
560.736450	964.820801	17926.552734	1317.526489	2.079420
561.080933	948.892151	18256.503906	1285.669312	1.945833
561.425354	939.790100	18092.666016	1290.220337	2.042983
561.769775	957.994263	18461.300781	1292.495850	1.911077
562.114136	1012.606750	18368.003906	1326.628662	1.809362
562.458496	1001.229126	18374.830078	1258.363037	1.480026
562.802673	951.167725	18456.750000	1315.250977	2.079812
563.146912	980.749451	18149.554688	1353.934937	2.173625
563.491150	946.616638	18003.919922	1285.669312	1.987727
563.835266	980.749451	18181.412109	1253.812012	1.587512
564.179443	948.892151	18167.757813	1281.118164	1.929430
564.523438	894.279663	18333.871094	1256.087524	2.074635
564.867493	973.922913	18072.185547	1265.189575	1.703487
565.211426	1003.504700	18170.033203	1242.434326	1.391834
565.555359	928.412476	18882.271484	1251.536499	1.799747
565.899231	987.576050	19184.916016	1267.465088	1.538077
566.243042	1008.055725	19794.755859	1265.189575	1.368702
566.586914	973.922913	20065.542969	1310.699951	1.764005
566.930603	998.953613	20318.125000	1317.526489	1.648999
567.274292	989.851563	20243.033203	1326.628662	1.749202
567.617981	978.473938	20281.716797	1319.802124	1.768243
567.961609	996.678101	20126.982422	1244.709839	1.296538
568.305237	951.167725	19726.490234	1303.873413	1.878560
568.648682	1021.708862	19574.029297	1283.393677	1.410523
568.992188	955.718750	19182.640625	1144.586914	1.036204
569.335632	969.371887	18859.515625	1240.158813	1.513610
569.679016	1026.259888	18820.832031	1267.465088	1.355499
570.022461	919.310425	18934.609375	1281.118164	2.008336
570.365662	939.790100	18818.556641	1237.883301	1.667303
570.708984	969.371887	18775.322266	1215.128052	1.380191
571.052185	942.065613	19280.488281	1272.016113	1.799231
571.395386	989.851563	19175.814453	1240.158813	1.376376
571.738525	1010.331238	19815.234375	1221.954712	1.125363
572.081604	1001.229126	20229.380859	1269.740601	1.396450
572.424683	978.473938	20372.738281	1203.750488	1.161563
572.767578	1039.912964	20791.433594	1253.812012	1.082950
573.110596	1062.668213	20513.820313	1262.914063	1.029481
573.453552	962.545288	20450.105469	1294.771362	1.704811
573.796387	1033.086426	20202.074219	1217.403687	0.961539
574.139282	948.892151	20154.287109	1237.883301	1.504739
574.481995	962.545288	19899.429688	1265.189575	1.598174
574.824768	1008.055725	19742.417969	1242.434326	1.251063
575.167480	992.127075	19840.265625	1246.985352	1.352167
575.510132	980.749451	19314.621094	1322.077637	1.861735
575.852722	894.279663	19410.193359	1183.270874	1.560772
576.195251	967.096313	19118.925781	1237.883301	1.491789
576.537842	1014.882263	19159.884766	1267.465088	1.392024
576.880188	948.892151	19023.353516	1246.985352	1.649251
577.222717	998.953613	18404.412109	1206.026001	1.189698
577.565063	1021.708862	17997.093750	1208.301514	1.099195
577.907410	1012.606750	17999.369141	1178.719727	0.977897
578.249756	953.443237	17130.121094	1146.862427	1.195667
578.591919	964.820801	16936.701172	1260.638550	1.852116
578.934204	955.718750	16602.199219	1217.403687	1.672484
579.276306	1005.780212	16279.076172	1094.525513	0.581049
579.618469	937.514587	15960.502930	1208.301514	1.802484
579.960571	928.412476	15962.778320	1149.138062	1.468140
580.302551	1014.882263	15250.540039	1155.964600	0.991049
580.644531	994.402588	15227.785156	1312.975464	2.238209
580.986511	1044.463989	15332.458984	1210.577026	1.162606
581.328369	901.106262	15218.683594	1105.903076	1.430387
581.670227	983.024963	15364.316406	1194.648438	1.471519
582.012024	985.300537	15104.907227	1178.719727	1.369862
582.353821	942.065613	14995.681641	1199.199463	1.829663
582.695496	1005.780212	15050.294922	1187.821899	1.296176
583.037231	1026.259888	14809.089844	1140.035889	0.825491
583.378845	957.994263	14868.252930	1190.097412	1.668575
583.720398	901.106262	14608.843750	1203.750488	2.207835
584.062012	948.892151	14415.423828	1078.596802	0.963163
584.403442	946.616638	14595.190430	1099.076538	1.117039
584.744934	1028.535400	14542.853516	1137.760376	0.808217
585.086365	953.443237	14447.281250	1117.280762	1.214165
585.427734	957.994263	14344.882813	1124.107300	1.240864
585.768982	948.892151	14183.321289	1155.964600	1.564650
586.110291	973.922913	14297.097656	1087.698975	0.853971
586.451599	896.555176	14103.677734	1105.903076	1.585114
586.792725	971.647400	14470.037109	1128.658325	1.163183
587.133850	1010.331238	13987.625977	1110.454102	0.771523
587.474915	971.647400	14376.740234	1124.107300	1.137328
587.815979	989.851563	14358.536133	1194.648438	1.531915
588.157043	939.790100	14549.679688	1210.577026	1.989634
588.497925	926.136963	14408.597656	1185.546387	1.924051
588.838867	1028.535400	14549.679688	1196.923950	1.245372
589.179749	1074.045776	14492.791992	1224.230225	1.119214
589.520569	955.718750	14941.069336	1203.750488	1.773511
589.861450	1023.984375	14979.753906	1244.709839	1.581607
590.202087	951.167725	14902.385742	1180.995239	1.647365
590.542847	964.820801	15148.141602	1171.893188	1.459971
590.883484	969.371887	14909.211914	1178.719727	1.501795
591.224121	930.687988	14781.783203	1178.719727	1.790701
591.564636	901.106262	14888.732422	1178.719727	1.984707
591.905151	962.545288	14827.293945	1158.240112	1.411456
592.245667	976.198425	14563.333008	1158.240112	1.339809
592.585999	1001.229126	14495.067383	1089.974487	0.657673
592.926453	987.576050	14278.892578	1160.515625	1.301147
593.266724	971.647400	14520.098633	1206.026001	1.729929
593.607056	1005.780212	14235.658203	1112.729614	0.808393
593.947388	1028.535400	14319.852539	1133.209351	0.787536
594.287476	1049.015137	14483.689453	1144.586914	0.711381
594.627686	989.851563	14633.874023	1178.719727	1.384256
594.967773	948.892151	15000.233398	1174.168701	1.603239
595.307861	1010.331238	15293.775391	1165.066650	1.083320
595.647888	946.616638	15063.947266	1231.056763	2.014829
595.987854	1001.229126	15334.734375	1244.709839	1.698682
596.327820	998.953613	15628.277344	1242.434326	1.664333
596.667725	853.320313	16201.708008	1212.852539	2.342476
597.007568	939.790100	16556.689453	1169.617676	1.471659
597.347351	1008.055725	17216.589844	1256.087524	1.530254
597.687073	1023.984375	17466.898438	1203.750488	1.093274
598.026794	962.545288	17407.734375	1210.577026	1.508233
598.366455	951.167725	16975.384766	1135.484863	1.150241
598.706116	937.514587	16424.708984	1180.995239	1.572142
599.045654	980.749451	15976.431641	1115.005249	0.895296
599.385193	989.851563	15025.263672	1178.719727	1.345655
599.724731	978.473938	14802.262695	1187.821899	1.514404
600.064087	912.483826	14770.405273	1162.791138	1.806240
600.403564	971.647400	14037.687500	1169.617676	1.515151
600.742920	921.585938	13980.799805	1153.689087	1.777313
601.082153	955.718750	13789.656250	1212.852539	2.003546
601.421387	926.136963	13996.728516	1078.596802	1.166434
601.760620	973.922913	13527.970703	1074.045776	0.797535
602.099854	946.616638	13871.575195	1153.689087	1.602113
602.438843	973.922913	13762.349609	1142.311401	1.316726
602.778015	937.514587	13960.320313	1078.596802	1.083347
603.117065	1042.188477	14617.945313	1115.005249	0.536374
603.456055	873.799988	14827.293945	1155.964600	2.022179
603.794983	983.024963	15059.396484	1219.679199	1.681216
604.133850	969.371887	15737.501953	1196.923950	1.540832
604.472778	996.678101	16229.014648	1192.372925	1.284733
604.811584	953.443237	16706.873047	1196.923950	1.545573
605.150330	948.892151	17339.468750	1221.954712	1.665973
605.489075	948.892151	17318.988281	1203.750488	1.556853
605.827698	948.892151	17328.091797	1201.474976	1.542095
606.166382	971.647400	16806.996094	1176.444214	1.293289
606.504883	985.300537	16376.922852	1206.026001	1.434062
606.843445	985.300537	16031.043945	1142.311401	1.043557
607.181946	876.075500	15546.358398	1133.209351	1.752753
607.520386	951.167725	14961.548828	1128.658325	1.266851
607.858826	942.065613	15004.784180	1153.689087	1.504855
608.197083	1012.606750	14456.383789	1192.372925	1.337170
608.535461	971.647400	14429.077148	1201.474976	1.707812
608.873718	989.851563	14265.240234	1124.107300	1.011313
609.211914	935.239075	14479.138672	1089.974487	1.142473
609.550171	1014.882263	14834.120117	1121.831787	0.773918
609.888245	971.647400	15468.990234	1201.474976	1.585308
610.226318	935.239075	15637.378906	1190.097412	1.733478
610.564392	1023.984375	15905.890625	1171.893188	0.993883
610.902344	1019.433350	15432.582031	1169.617676	1.041995
611.240295	955.718750	15268.744141	1078.596802	0.858505
611.578247	1017.157776	14916.039063	1103.627563	0.622135
611.916138	1008.055725	14595.190430	1142.311401	0.988109
612.253845	964.820801	14128.708984	1146.862427	1.382886
612.591675	953.443237	13939.840820	1099.076538	1.121430
612.929382	955.718750	13598.512695	1126.382813	1.349892
613.267090	989.851563	13236.704102	1099.076538	0.891862
613.604736	985.300537	13170.714844	1210.577026	1.848739
613.942261	955.718750	12959.090820	1153.689087	1.649289
614.279785	971.647400	12804.355469	1080.872437	0.923077
614.617310	955.718750	12508.538086	1183.270874	1.969667
614.954712	921.585938	12353.802734	1094.525513	1.512739
615.292175	973.922913	12262.781250	1119.556274	1.290063
615.629517	944.341125	12397.037109	1169.617676	1.967018
615.966797	1014.882263	12265.056641	1119.556274	0.930421
616.304138	1012.606750	12312.842773	1130.933838	1.047120
616.641296	967.096313	12255.955078	1087.698975	1.068334
616.978516	1014.882263	11978.341797	1201.474976	1.701951
617.315552	971.647400	12001.096680	1133.209351	1.464823
617.652771	923.861450	12342.424805	1158.240112	2.052611
617.989685	998.953613	12296.914063	1115.005249	1.027191
618.326721	994.402588	12331.046875	1174.168701	1.585708
618.663696	987.576050	12121.699219	1162.791138	1.573677
619.000549	1033.086426	12169.485352	1080.872437	0.429098
619.337463	1001.229126	12246.852539	1167.342163	1.477135
619.674194	1008.055725	11966.963867	1126.382813	1.079734
620.010986	964.820801	12244.577148	1108.178589	1.270930
620.347778	971.647400	12044.332031	1155.964600	1.664612
620.684387	942.065613	11561.920898	1140.035889	1.864152
621.020996	951.167725	11787.197266	1176.444214	2.078958
621.357605	910.208313	11871.391602	1142.311401	2.117500
621.694214	967.096313	11607.431641	1153.689087	1.753636
622.030579	935.239075	11571.023438	1146.862427	1.989730
622.367065	1014.882263	11691.625977	1153.689087	1.300086
622.703430	969.371887	11611.982422	1167.342163	1.860167
623.039795	944.341125	11659.768555	1108.178589	1.528987
623.376160	896.555176	11596.053711	1135.484863	2.233093
623.712402	935.239075	11530.063477	1080.872437	1.374571
624.048645	1008.055725	11493.655273	1110.454102	0.976562
624.384766	994.402588	11434.492188	1042.188477	0.457715
624.720886	939.790100	11370.777344	1103.627563	1.570680
625.057007	1019.433350	11778.095703	1146.862427	1.184432
625.392944	944.341125	11748.513672	1046.739624	0.947768
625.729004	923.861450	11625.635742	1115.005249	1.786094
626.064941	1023.984375	11935.106445	1158.240112	1.230448
626.400818	935.239075	12192.240234	1128.658325	1.718213
626.736633	932.963501	12531.292969	1105.903076	1.491073
627.072449	932.963501	12590.457031	1046.739624	0.975991
627.408264	1003.504700	12597.283203	1053.566162	0.431796
627.743896	957.994263	12758.844727	1110.454102	1.291939
628.079590	998.953613	12790.702148	1165.066650	1.408723
628.415161	992.127075	12765.671875	1158.240112	1.410901
628.750793	1014.882263	12262.781250	1174.168701	1.416144
629.086365	955.718750	12228.648438	1110.454102	1.372628
629.421753	942.065613	12071.637695	1124.107300	1.635658
629.757263	919.310425	11805.402344	1178.719727	2.382942
630.092651	960.269775	11928.280273	1146.862427	1.701244
630.427917	960.269775	11348.022461	1026.259888	0.635268
630.763184	976.198425	11402.634766	1128.658325	1.462244
631.098511	942.065613	11309.338867	1153.689087	2.041265
631.433716	1019.433350	11099.990234	1121.831787	1.015801
631.768799	992.127075	11061.306641	1108.178589	1.152542
632.103943	985.300537	10747.285156	1053.566162	0.699301
632.438965	1026.259888	10865.612305	1153.689087	1.295097
632.773987	985.300537	10799.622070	1130.933838	1.483886
633.109070	983.024963	10578.896484	1055.841675	0.758834
633.443848	994.402588	10308.109375	1076.321289	0.879550
633.778870	1021.708862	10647.162109	1165.066650	1.489361
634.113708	1005.780212	10603.926758	1162.791138	1.635846
634.448425	926.136963	10788.244141	996.678101	0.715274
634.783264	994.402588	10917.949219	1080.872437	0.871360
635.117859	1003.504700	10549.314453	1092.250000	0.929678
635.452576	951.167725	10804.172852	1083.147949	1.339492
635.787170	953.443237	10628.958008	1135.484863	1.881467
636.121704	964.820801	10376.375000	1140.035889	1.861702
636.456177	957.994263	10394.579102	1060.392700	1.085122
636.790588	987.576050	10280.802734	1051.290649	0.685603
637.125122	978.473938	10116.965820	1067.219238	0.971115
637.459412	971.647400	10062.352539	1051.290649	0.876095
637.793762	957.994263	9825.699219	1005.780212	0.538876
638.128052	944.341125	9802.943359	1117.280762	1.952223
638.462280	957.994263	9695.994141	992.127075	0.390625
638.796509	892.004150	9673.239258	1089.974487	2.254470
639.130615	985.300537	9468.442383	1053.566162	0.804721
639.464722	998.953613	9620.902344	1151.413574	1.768277
639.798767	955.718750	9500.299805	1137.760376	2.130492
640.132751	1035.361938	9240.889648	1085.423462	0.610095
640.466736	1033.086426	9331.911133	1033.086426	0.000000
640.800598	957.994263	9229.512695	1033.086426	0.907840
641.134521	980.749451	8958.725586	1078.596802	1.226468
641.468262	989.851563	9045.195313	1055.841675	0.819209
641.802063	978.473938	9195.379883	1074.045776	1.163112
642.135803	917.034912	8910.939453	1039.912964	1.537147
642.469421	942.065613	8888.184570	1071.770264	1.632302
642.803101	971.647400	8976.929688	1096.801025	1.563388
643.136658	971.647400	8669.734375	1096.801025	1.625776
643.470215	969.371887	8742.550781	1083.147949	1.463701
643.803711	969.371887	8712.968750	1128.658325	2.057009
644.137085	939.790100	8847.224609	1064.943726	1.582734
644.470581	964.820801	8726.622070	1096.801025	1.700381
644.803833	985.300537	8772.132813	1124.107300	1.782583
645.137207	1001.229126	8642.427734	1121.831787	1.578321
645.470459	985.300537	8672.009766	1058.117188	0.947306
645.803589	996.678101	8560.508789	1101.352051	1.383875
646.136780	1039.912964	8772.132813	1105.903076	0.853443
646.469849	1012.606750	8519.549805	1094.525513	1.091240
646.802979	998.953613	8656.081055	1149.138062	1.961368
647.135986	946.616638	8826.745117	1105.903076	2.021369
647.468994	969.371887	8799.438477	1149.138062	2.295845
647.801941	989.851563	8628.774414	1146.862427	2.055406
648.134766	939.790100	8703.867188	1074.045776	1.729190
648.467651	1019.433350	8990.583008	1146.862427	1.598629
648.800354	992.127075	8685.663086	1160.515625	2.188702
649.133179	937.514587	8667.458984	1101.352051	2.119517
649.465881	1060.392700	8790.336914	1110.454102	0.647629
649.798462	917.034912	8699.316406	1051.290649	1.725146
650.131104	976.198425	8533.203125	1021.708862	0.602229
650.463623	992.127075	8815.367188	1142.311401	1.919720
650.796143	973.922913	8724.346680	1121.831787	1.908397
651.128662	1008.055725	8681.112305	1135.484863	1.660735
651.461060	989.851563	8763.030273	1064.943726	0.966042
651.793396	907.932800	8986.031250	1076.321289	2.084507
652.125732	951.167725	8865.428711	1094.525513	1.811386
652.458008	976.198425	8790.336914	1071.770264	1.223063
652.790222	1005.780212	8724.346680	1067.219238	0.795990
653.122437	921.585938	8772.132813	1051.290649	1.652174
653.454529	914.759338	8774.408203	1096.801025	2.316155
653.786621	935.239075	8460.386719	1094.525513	2.116722
654.118713	957.994263	8533.203125	1092.250000	1.772304
654.450623	1017.157776	8544.581055	1076.321289	0.785973
654.782654	946.616638	8489.967773	1080.872437	1.779790
655.114502	989.851563	8453.559570	1083.147949	1.250000
655.446350	1026.259888	8235.109375	1096.801025	0.978535
655.778198	973.922913	8526.375977	1053.566162	1.054535
656.109863	1001.229126	8405.773438	1133.209351	1.782422
656.441650	985.300537	8310.202148	1146.862427	2.205653
656.773254	1023.984375	8273.793945	1094.525513	0.973007
657.104919	962.545288	8291.998047	1085.423462	1.676499
657.436462	998.953613	8255.589844	1167.342163	2.320477
657.767944	957.994263	8357.988281	1187.821899	3.105781
658.099548	983.024963	8451.284180	1035.361938	0.700792
658.430908	1058.117188	8535.478516	1117.280762	0.791236
658.762268	919.310425	8840.398438	1119.556274	2.528009
659.093628	1014.882263	9081.603516	1124.107300	1.354020
659.424927	944.341125	9284.125000	1187.821899	2.919509
659.756226	989.851563	9589.044922	1162.791138	2.011114
660.087341	953.443237	9805.218750	1112.729614	1.799485
660.418518	983.024963	9766.535156	1099.076538	1.321244
660.749573	937.514587	9650.483398	1128.658325	2.193784
661.080627	964.820801	9541.258789	1128.658325	1.910321
661.411621	971.647400	9347.839844	1053.566162	0.977995
661.742554	971.647400	9270.471680	1051.290649	0.959693
662.073547	994.402588	9024.715820	1142.311401	1.841881
662.404297	937.514587	8872.255859	1071.770264	1.691998
662.735229	1030.810913	8378.467773	1092.250000	0.836173
663.065979	953.443237	8606.019531	1060.392700	1.397562
663.396667	937.514587	8419.426758	1026.259888	1.186131
663.727417	1028.535400	8153.190918	1042.188477	0.191631
664.057922	998.953613	7993.904785	1005.780212	0.097593
664.388611	939.790100	8037.139648	1014.882263	1.058031
664.719116	992.127075	7868.750977	1037.637451	0.661813
665.049622	978.473938	7720.842285	1142.311401	2.429969
665.380005	953.443237	7732.219727	1083.147949	1.913394
665.710388	994.402588	7682.158203	1155.964600	2.415788
666.040771	946.616638	7764.077148	1153.689087	3.037384
666.371033	1001.229126	7679.882813	1115.005249	1.703579
666.701294	992.127075	7459.157227	1130.933838	2.146376
667.031555	967.096313	7568.382324	1087.698975	1.826957
667.361633	964.820801	7711.740234	1085.423462	1.787522
667.691772	1019.433350	7561.555664	1126.382813	1.634782
668.021790	980.749451	7399.993652	1044.463989	0.992555
668.351807	932.963501	7816.414063	1010.331238	1.123967
668.681763	962.545288	7463.708008	1030.810913	1.050053
669.011719	951.167725	7563.831055	1003.504700	0.791466
669.341614	942.065613	7561.555664	1089.974487	2.234445
669.671387	960.269775	7700.362305	1117.280762	2.329508
670.001221	930.687988	7638.923340	1053.566162	1.831751
670.330933	944.341125	7645.750000	1064.943726	1.799660
670.660583	946.616638	7643.474609	1042.188477	1.427115
670.990173	944.341125	7677.607422	987.576050	0.642109
671.319763	994.402588	7420.473145	1099.076538	1.628895
671.649292	960.269775	7495.565430	1083.147949	1.880224
671.978821	960.269775	7327.176758	1110.454102	2.358827
672.308289	973.922913	7313.523926	1076.321289	1.615218
672.637695	980.749451	7390.891602	1121.831787	2.200924
672.966980	1026.259888	7281.666504	1124.107300	1.564205
673.296326	1012.606750	7390.891602	1074.045776	0.963253
673.625610	967.096313	7277.115723	1180.995239	3.389830
673.954773	994.402588	7161.063965	1080.872437	1.402215
674.283936	1042.188477	7283.941895	1108.178589	1.057237
674.613037	971.647400	6972.195801	1149.138062	2.957907
674.942078	1014.882263	7085.971680	1074.045776	0.974512
675.271118	926.136963	7136.033203	1112.729614	3.004763
675.600098	1021.708862	7060.940918	1071.770264	0.828937
675.928955	957.994263	7045.012207	1094.525513	2.242991
676.257813	960.269775	7099.625000	1023.984375	1.037806
676.586670	948.892151	7008.604004	1046.739624	1.614722
676.915466	1008.055725	7124.655762	1058.117188	0.818452
677.244141	992.127075	7056.390137	998.953613	0.112570
677.572876	962.545288	7017.706055	973.922913	0.187900
677.901489	964.820801	6940.338379	1140.035889	2.932216
678.230042	1028.535400	6935.787598	1076.321289	0.808936
678.558594	1019.433350	7029.083984	1037.637451	0.302915
678.887085	937.514587	7042.736816	1049.015137	1.826314
679.215515	942.065613	6994.951172	1085.423462	2.368422
679.543945	992.127075	7279.391113	1051.290649	0.941007
679.872253	1019.433350	7113.277832	1039.912964	0.336071
680.200562	1008.055725	7343.105469	1080.872437	1.149426
680.528809	962.545288	7418.197754	1028.535400	1.022207
680.856995	930.687988	7618.443848	1067.219238	2.041511
681.185120	939.790100	7864.199707	1042.188477	1.478803
681.513306	957.994263	7850.546875	1103.627563	2.112908
681.841309	1046.739624	7707.188965	1103.627563	0.854116
682.169373	919.310425	7607.065918	1076.321289	2.347736
682.497314	1019.433350	7632.096680	1033.086426	0.206469
682.825134	887.453125	7557.004395	1076.321289	2.831797
683.153076	987.576050	7657.127441	1023.984375	0.545889
683.480896	978.473938	7379.514160	1005.780212	0.426591
683.808655	1008.055725	7454.605957	989.851563	-0.282386
684.136414	1028.535400	7099.625000	1067.219238	0.637181
684.464050	987.576050	7051.838867	1042.188477	0.900562
684.791626	962.545288	6812.909180	1005.780212	0.739013
685.119263	1001.229126	6810.633789	1135.484863	2.311007
685.446838	1085.423462	6724.164063	1060.392700	-0.443907
685.774292	944.341125	6646.796387	1019.433350	1.316840
686.101685	935.239075	6769.674316	1046.739624	1.911077
686.429077	942.065613	6585.357422	1055.841675	2.016129
686.756348	907.932800	6553.500000	1033.086426	2.216848
687.083679	921.585938	6553.500000	1033.086426	1.979797
687.410950	989.851563	6546.673340	1110.454102	2.170351
687.738159	953.443237	6478.407715	1044.463989	1.647445
688.065308	964.820801	6696.857910	1046.739624	1.429140
688.392395	980.749451	6692.306641	1074.045776	1.633466
688.719421	978.473938	6592.183594	1051.290649	1.297123
689.046448	1003.504700	6635.418457	1012.606750	0.161616
689.373413	973.922913	6496.611816	1042.188477	1.236093
689.700317	939.790100	6512.540527	1085.423462	2.613312
690.027100	1028.535400	6726.439453	996.678101	-0.559106
690.353943	932.963501	6426.070801	1028.535400	1.739851
690.680725	953.443237	6305.468262	1060.392700	1.998299
691.007446	1012.606750	6284.988281	1067.219238	1.035822
691.334106	1026.259888	6002.823730	1062.668213	0.731596
691.660645	983.024963	6107.498047	1023.984375	0.799290
691.987244	1026.259888	6061.987305	1030.810913	0.090375
692.313721	1008.055725	5964.140137	1046.739624	0.780533
692.640259	996.678101	5895.874512	1030.810913	0.696702
692.966675	1074.045776	5838.986328	1117.280762	0.907356
693.293030	971.647400	5916.354004	1037.637451	1.334560
693.619324	1044.463989	5791.200684	1035.361938	-0.191754
693.945618	969.371887	5925.456055	1021.708862	1.056015
694.271851	939.790100	5838.986328	967.096313	0.557361
694.598083	973.922913	5609.158691	1017.157776	0.932744
694.924194	932.963501	5775.271973	1064.943726	2.725564
695.250244	967.096313	5593.229980	1080.872437	2.459421
695.576294	1003.504700	5732.037109	1037.637451	0.721847
695.902283	964.820801	5584.127930	983.024963	0.394089
696.228210	928.412476	5625.087402	1010.331238	1.744186
696.554138	996.678101	5768.445313	1071.770264	1.573676
696.879944	939.790100	5852.639648	1058.117188	2.408522
697.205750	969.371887	5877.670410	1028.535400	1.205377
697.531433	951.167725	5952.762207	1060.392700	2.183803
697.857178	921.585938	6021.027832	1049.015137	2.498885
698.182739	987.576050	6155.283691	1078.596802	1.761337
698.508423	944.341125	6628.592285	1033.086426	1.561249
698.833984	971.647400	6787.878418	1115.005249	2.464789
699.159485	971.647400	6833.389160	1069.494751	1.669254
699.484924	973.922913	7113.277832	1083.147949	1.779096
699.810303	921.585938	7393.166992	1115.005249	2.988749
700.135681	939.790100	7190.645508	1162.791138	3.567528
700.460999	889.728638	7129.206543	1092.250000	3.245806
700.786255	973.922913	6958.542480	1069.494751	1.596958
701.111450	866.973450	6787.878418	1069.494751	3.420445
701.436646	969.371887	6494.336426	1055.841675	1.565074
701.761719	1060.392700	6360.080566	1030.810913	-0.558180
702.086792	973.922913	6362.355957	1055.841675	1.520271
702.411865	987.576050	5970.966797	1083.147949	1.917809
702.736816	1001.229126	5791.200684	1012.606750	0.237530
703.061646	937.514587	5763.894043	978.473938	0.848656
703.386536	1010.331238	5656.944824	1101.352051	1.958863
703.711365	1033.086426	5326.994141	1039.912964	0.158982
704.036194	1044.463989	5306.514648	1003.504700	-0.961023
704.360901	1019.433350	5342.922852	1067.219238	1.105262
704.685547	1023.984375	5199.564941	1055.841675	0.762943
705.010132	994.402588	5279.208496	1042.188477	1.115240
705.334717	964.820801	5067.584961	989.851563	0.610095
705.659302	973.922913	5163.156738	985.300537	0.271592
705.983765	973.922913	4965.186523	1078.596802	2.622575
706.308228	980.749451	5119.921875	1017.157776	0.879604
706.632568	967.096313	5156.330078	1069.494751	2.444324
706.956909	953.443237	5042.554199	942.065613	-0.278242
707.281189	951.167725	5076.687012	1008.055725	1.378929
707.605408	939.790100	5067.584961	971.647400	0.771775
707.929626	967.096313	4874.165527	1042.188477	1.921956
708.253784	892.004150	5144.952637	1067.219238	4.119850
708.577820	989.851563	5008.421387	964.820801	-0.622877
708.901855	964.820801	4999.319336	1037.637451	1.804850
709.225830	960.269775	5076.687012	996.678101	0.884466
709.549805	1003.504700	5067.584961	1078.596802	1.847702
709.873718	971.647400	4937.880371	1062.668213	2.294893
710.197510	1005.780212	5188.187500	1023.984375	0.435256
710.521362	962.545288	5069.860352	1080.872437	2.880888
710.845093	1001.229126	5190.462891	1046.739624	1.086368
711.168701	989.851563	5320.167480	1055.841675	1.523910
711.492432	953.443237	5349.749512	1017.157776	1.449274
711.816040	1021.708862	5370.229004	1074.045776	1.203557
712.139587	923.861450	5486.280762	1124.107300	4.389028
712.463074	994.402588	5342.922852	1008.055725	0.313972
712.786499	946.616638	5361.126953	1060.392700	2.577320
713.109924	944.341125	5317.892090	1071.770264	2.913631
713.433350	948.892151	5358.851563	1019.433350	1.599588
713.756592	1055.841675	5122.197266	1014.882263	-1.007276
714.079834	955.718750	5169.983398	1042.188477	2.051834
714.403015	1014.882263	5158.605469	987.576050	-0.658978
714.726196	996.678101	5188.187500	1028.535400	0.760044
715.049255	1012.606750	4992.492676	996.678101	-0.400229
715.372375	939.790100	4997.043457	1019.433350	1.962984
715.695435	960.269775	5049.380859	987.576050	0.667780
716.018311	967.096313	5081.237793	1044.463989	1.880530
716.341248	923.861450	5044.829590	1023.984375	2.429597
716.664063	1026.259888	4994.768066	1037.637451	0.286696
716.987000	939.790100	5051.656250	985.300537	1.106807
717.309692	989.851563	4906.022949	1039.912964	1.278325
717.632385	951.167725	4919.675781	980.749451	0.745412
717.955078	948.892151	4667.093262	1039.912964	2.447980
718.277649	1005.780212	4710.328125	1053.566162	1.289927
718.600220	957.994263	4819.553223	1103.627563	3.771360
718.922791	1008.055725	4573.796875	1105.903076	2.744096
719.245300	985.300537	4587.449707	1062.668213	2.147820
719.567688	996.678101	4475.949219	1026.259888	0.850229
719.890015	976.198425	4548.766113	1005.780212	0.828026
720.212341	967.096313	4423.612305	1012.606750	1.316656
720.534607	937.514587	4428.163574	978.473938	1.173402
720.856873	937.514587	4296.183105	1078.596802	4.200540
721.179016	937.514587	4232.468750	983.024963	1.381214
721.501160	894.279663	4118.692871	1099.076538	6.351447
721.823242	953.443237	4184.682617	1030.810913	2.394366
722.145264	1064.943726	4068.631104	1051.290649	-0.454544
722.467224	1003.504700	4109.590332	1062.668213	1.904761
722.789185	951.167725	4089.110840	1021.708862	2.248006
723.111023	951.167725	4102.764160	1028.535400	2.454873
723.432861	960.269775	4100.488281	1026.259888	2.101450
723.754578	948.892151	4089.110840	1001.229126	1.666667
724.076294	967.096313	3979.885986	1026.259888	1.963747
724.397949	946.616638	3925.273438	1037.637451	3.055767
724.719666	976.198425	3941.202148	951.167725	-0.844205
725.041260	985.300537	4109.590332	1074.045776	2.840493
725.362732	973.922913	3948.028564	1055.841675	2.754400
725.684265	914.759338	3988.988037	1055.841675	4.589194
726.005676	930.687988	4048.151611	1062.668213	4.233577
726.327087	928.412476	3988.988037	1023.984375	3.122677
726.648438	885.177612	4020.845215	1008.055725	3.918723
726.969666	976.198425	4200.611328	1037.637451	1.905433
727.290894	948.892151	4182.407227	1092.250000	4.433499
727.612061	1001.229126	4139.172363	1067.219238	2.102973
727.933228	964.820801	4277.979004	1042.188477	2.335164
728.254395	951.167725	4284.805664	989.851563	1.160409
728.575378	987.576050	4248.397461	987.576050	0.000000
728.896301	953.443237	4182.407227	1021.708862	2.114165
729.217285	1058.117188	4293.907715	1033.086426	-0.773559
729.538147	1042.188477	4332.591797	1039.912964	-0.069156
729.858948	992.127075	4237.019531	1046.739624	1.683031
730.179810	980.749451	4396.306152	1060.392700	2.331779
730.500549	957.994263	4268.876953	1060.392700	3.092783
730.821228	996.678101	4232.468750	1087.698975	2.812941
731.141846	998.953613	4293.907715	1060.392700	1.864642
731.462402	967.096313	4330.315918	1046.739624	2.368068
731.782898	1005.780212	4480.500488	1096.801025	2.619515
732.103455	942.065613	4555.592773	1085.423462	3.967255
732.423889	971.647400	4530.562012	1053.566162	2.301791
732.744263	983.024963	4359.897949	1085.423462	3.032347
733.064636	973.922913	4364.448730	1035.361938	1.812080
733.384888	901.106262	4473.673828	1080.872437	5.031848
733.705200	998.953613	4343.969238	992.127075	-0.204081
734.025330	978.473938	4353.071289	1085.423462	3.169253
734.345520	1033.086426	4439.541016	1005.780212	-0.801602
734.665527	969.371887	4341.693848	1058.117188	2.631578
734.985596	932.963501	4218.815430	1092.250000	4.847647
735.305542	998.953613	4200.611328	1085.423462	2.700784
735.625549	994.402588	4000.365479	1023.984375	0.984104
735.945435	1010.331238	4114.141602	1071.770264	1.979471
736.265259	896.555176	4057.253662	1021.708862	3.959684
736.585083	905.657288	4036.773926	1112.729614	6.613370
736.904785	987.576050	3836.528076	1074.045776	3.035141
737.224426	962.545288	3932.099854	1071.770264	3.678160
737.544128	969.371887	3936.650879	1053.566162	2.837424
737.863708	978.473938	3891.140625	1062.668213	2.890625
738.183289	939.790100	3922.997803	1099.076538	5.339435
738.502808	951.167725	3984.437012	1042.188477	3.000747
738.822205	1005.780212	3954.855225	1021.708862	0.540124
739.141541	946.616638	3954.855225	1074.045776	4.236005
739.460938	1049.015137	3970.783691	1037.637451	-0.389411
739.780212	994.402588	4123.243652	1094.525513	3.200000
740.099426	932.963501	3934.375488	1121.831787	6.292647
740.418640	987.576050	3979.885986	1087.698975	3.346008
740.737793	935.239075	4070.906738	1087.698975	4.862119
741.056885	957.994263	4050.427002	1078.596802	3.899925
741.375977	983.024963	4054.978027	1112.729614	4.222221
741.694946	953.443237	3888.864990	1105.903076	5.193797
742.013855	926.136963	3872.936523	1071.770264	4.942084
742.332703	976.198425	3877.487549	1078.596802	3.529410
742.651550	969.371887	3893.416016	1110.454102	4.824900
742.970398	878.351013	3672.690674	1051.290649	6.188927
743.289124	939.790100	3638.557861	1128.658325	6.998313
743.607788	971.647400	3800.119629	1030.810913	2.091713
743.926453	978.473938	3770.538086	1074.045776	3.422982
744.245056	994.402588	3704.547852	1067.219238	2.686817
744.563599	955.718750	3661.312988	1128.658325	6.391926
744.882141	944.341125	3718.200928	1035.361938	3.281378
745.200500	942.065613	3574.843262	1105.903076	6.222989
745.518860	983.024963	3659.037354	1103.627563	4.506803
745.837219	939.790100	3583.945313	1155.964600	8.175560
746.155518	951.167725	3542.985840	1153.689087	7.813872
746.473755	946.616638	3486.097900	1128.658325	7.168460
746.791992	998.953613	3681.792725	1060.392700	2.290077
747.110107	955.718750	3461.067139	1121.831787	6.630337
747.428162	985.300537	3618.078125	1112.729614	4.840100
747.746216	983.024963	3465.618164	1115.005249	5.316226
748.064148	1010.331238	3536.159424	1153.689087	5.675677
748.382080	1028.535400	3433.760986	1133.209351	4.351939
748.700073	987.576050	3383.699463	1140.035889	6.362771
749.017822	1014.882263	3531.608398	1140.035889	4.972874
749.335632	985.300537	3461.067139	1035.361938	2.022057
749.653320	1021.708862	3540.710449	1105.903076	3.342365
749.971008	921.585938	3583.945313	1089.974487	6.324787
750.288696	994.402588	3504.302002	1160.515625	6.618315
750.606262	921.585938	3561.189941	1135.484863	8.103448
750.923828	935.239075	3579.394287	1128.658325	7.314973
751.241272	946.616638	3545.261475	1142.311401	7.530647
751.558716	957.994263	3522.506104	1115.005249	6.122451
751.876038	983.024963	3508.853027	1130.933838	5.855857
752.193481	1001.229126	3497.475586	1135.484863	5.378304
752.510681	889.728638	3467.893799	1130.933838	9.355693
752.827942	957.994263	3431.485352	1162.791138	8.279669
753.145081	939.790100	3440.587402	1158.240112	8.735214
753.462219	955.718750	3495.199951	1215.128052	10.215051
753.779297	980.749451	3385.974854	1221.954712	10.028385
754.096375	951.167725	3404.179199	1246.985352	12.059366
754.413330	1012.606750	3431.485352	1199.199463	7.714017
754.730286	989.851563	3360.944336	1199.199463	8.829174
755.047119	1003.504700	3379.148438	1256.087524	10.632184
755.363892	1008.055725	3349.566650	1221.954712	9.135083
755.680725	919.310425	3370.046387	1153.689087	9.563603
755.997498	985.300537	3317.709229	1215.128052	9.853656
756.314148	978.473938	3308.607178	1192.372925	9.179688
756.630737	976.198425	3390.525879	1199.199463	9.236570
756.947327	998.953613	3356.393066	1210.577026	8.976833
757.263855	980.749451	3194.831299	1221.954712	10.894144
757.580261	1010.331238	3322.260254	1158.240112	6.397639
757.896729	996.678101	3324.535889	1269.740601	11.730205
758.213074	971.647400	3502.026611	1221.954712	9.892087
758.529419	1017.157776	3440.587402	1160.515625	5.915494
758.845642	971.647400	3436.036377	1237.883301	10.803323
759.161865	1046.739624	3547.536865	1262.914063	8.644220
759.478149	1010.331238	3445.138428	1246.985352	9.719625
759.794189	957.994263	3542.985840	1381.241089	16.373238
760.110229	987.576050	3529.332764	1303.873413	12.444045
760.426270	960.269775	3504.302002	1306.148926	13.595706
760.742249	978.473938	3413.281250	1340.281738	14.859812
761.058105	992.127075	3556.638916	1294.771362	11.801244
761.374023	971.647400	3568.016602	1312.975464	13.146361
761.689819	976.198425	3524.781738	1338.006226	14.196428
762.005554	1037.637451	3558.914551	1347.108276	12.274368
762.321289	932.963501	3561.189941	1394.894287	17.575760
762.636902	967.096313	3549.812500	1342.557251	14.537444
762.952515	1021.708862	3634.006836	1367.588013	13.240417
763.268127	937.514587	3686.343750	1253.812012	11.506624
763.583618	983.024963	3761.435791	1365.312500	13.759215
763.899048	992.127075	4152.825684	1508.670288	16.342691
764.214478	1019.433350	4612.480469	1495.017212	13.236227
764.529785	919.310425	4778.593750	1531.425537	15.860849
764.845093	964.820801	5006.145996	1633.823975	16.554054
765.160400	978.473938	4874.165527	1586.037964	15.595794
765.475586	964.820801	4874.165527	1640.650513	17.287544
765.790771	980.749451	4612.480469	1531.425537	15.162910
766.105835	973.922913	4434.990234	1524.598877	15.910582
766.420837	951.167725	4116.416992	1524.598877	18.116461
766.735840	935.239075	4082.284424	1490.466064	17.642801
767.050842	969.371887	3822.875000	1481.364014	17.942581
767.365662	1023.984375	3852.456787	1474.537476	15.929203
767.680542	992.127075	3643.108887	1506.394775	19.399139
767.995300	926.136963	3483.822266	1488.190552	21.975088
768.309998	969.371887	3520.230713	1385.792114	16.324707
768.624817	987.576050	3467.893799	1426.751587	17.706421
768.939392	951.167725	3506.577637	1463.159912	20.035618
769.254028	996.678101	3272.198975	1338.006226	14.999999
769.568481	969.371887	3281.301025	1390.343262	18.208662
769.882935	921.585938	3360.944336	1422.200562	20.522388
770.197388	992.127075	3274.474365	1403.996338	18.045864
770.511841	871.524475	3183.453613	1356.210449	20.964569
770.826172	923.861450	3183.453613	1397.169800	20.946627
771.140442	980.749451	3188.004639	1363.036987	17.319590
771.454651	989.851563	3185.729004	1376.690063	17.616579
771.768860	937.514587	3035.544678	1392.618774	21.691977
772.082886	992.127075	3172.075928	1394.894287	18.475994
772.397034	994.402588	3046.922363	1363.036987	17.960091
772.711060	935.239075	2994.585449	1360.761475	20.662983
773.025024	996.678101	3028.718262	1488.190552	24.188128
773.338928	919.310425	3062.851074	1360.761475	20.594481
773.652771	973.922913	3081.055176	1372.139038	18.898487
773.966614	1001.229126	2942.248291	1394.894287	20.281364
774.280457	971.647400	2962.728027	1390.343262	21.028574
774.594116	976.198425	2914.942139	1403.996338	22.065729
774.907776	978.473938	2928.595215	1444.955688	23.920652
775.221375	889.728638	2917.217773	1399.445313	25.140291
775.534912	960.269775	2965.003662	1408.547363	22.360952
775.848450	939.790100	2962.728027	1365.312500	21.034872
776.161926	1023.984375	2889.911377	1319.802124	15.853662
776.475342	939.790100	2871.707275	1349.383789	21.201410
776.788696	998.953613	2896.738037	1454.057739	23.980812
777.101990	937.514587	2860.329590	1369.863525	22.485209
777.415283	989.851563	2798.890625	1351.659302	19.999996
777.728516	926.136963	2812.543701	1335.730713	21.712908
778.041626	951.167725	2883.084961	1360.761475	21.201412
778.354736	910.208313	2794.339600	1419.924927	27.053137
778.667725	914.759338	2807.992676	1460.884399	28.846155
778.980774	971.647400	2773.859863	1394.894287	23.484850
779.293640	994.402588	2767.033203	1392.618774	22.464703
779.606567	967.096313	2803.441650	1381.241089	22.552664
779.919434	935.239075	2771.584229	1429.027100	26.889717
780.232239	914.759338	2714.696289	1431.302612	28.697853
780.544983	923.861450	2835.298828	1353.934937	22.500004
780.857666	953.443237	2817.094727	1319.802124	19.658123
781.170227	932.963501	2653.257324	1333.455200	23.280424
781.482849	901.106262	2771.584229	1397.169800	26.520683
781.795410	964.820801	2807.992676	1367.588013	21.851852
782.107910	957.994263	2676.012451	1367.588013	23.841061
782.420288	914.759338	2628.226563	1333.455200	24.435591
782.732666	1005.780212	2694.216553	1310.699951	18.059298
783.044983	1026.259888	2612.297852	1372.139038	21.807747
783.357300	1017.157776	2605.471436	1299.322388	17.765043
783.669495	1083.147949	2678.288086	1353.934937	16.975750
783.981689	942.065613	2707.869873	1392.618774	25.515465
784.293762	1001.229126	2632.777588	1419.924927	25.662479
784.605835	1046.739624	2569.062988	1324.353149	18.236174
784.917908	1035.361938	2666.910400	1374.414551	20.781033
785.229858	978.473938	2532.654541	1399.445313	27.086386
785.541748	935.239075	2459.837891	1344.832764	26.865669
785.853577	942.065613	2582.716064	1344.832764	24.549236
786.165405	1030.810913	2523.552490	1328.904175	19.969515
786.477173	1021.708862	2537.205811	1290.220337	17.717718
786.788879	989.851563	2521.277100	1369.863525	24.814262
787.100525	971.647400	2530.379150	1369.863525	25.547445
787.412109	928.412476	2478.042236	1326.628662	25.697506
787.723694	898.830688	2450.735840	1299.322388	25.806454
788.035156	948.892151	2478.042236	1369.863525	27.529760
788.346558	951.167725	2612.297852	1328.904175	22.739727
788.658081	960.269775	2807.992676	1426.751587	25.246307
788.969360	944.341125	2685.114502	1394.894287	25.882355
789.280640	1014.882263	2707.869873	1442.680176	25.268816
789.591919	946.616638	2748.829102	1338.006226	21.717173
789.903076	953.443237	2814.819336	1426.751587	25.427874
790.214172	973.922913	2753.380127	1358.485962	21.611256
790.525269	964.820801	2662.359375	1360.761475	23.324400
790.836365	973.922913	2682.839111	1456.333252	28.229021
791.147339	948.892151	2557.685303	1447.231201	30.975954
791.458191	1014.882263	2537.205811	1349.383789	21.973091
791.769104	994.402588	2516.726074	1369.863525	24.663677
792.079895	1026.259888	2455.286865	1338.006226	21.815287
792.390686	1035.361938	2380.194824	1315.250977	20.812180
792.701416	1028.535400	2334.684326	1281.118164	19.337976
793.012085	939.790100	2402.949951	1308.424438	25.194399
793.322693	937.514587	2443.909424	1228.781250	19.335348
793.633240	967.096313	2453.011475	1278.842651	20.980089
793.943787	980.749451	2400.674561	1363.036987	26.923079
794.254272	953.443237	2357.439453	1353.934937	28.525127
794.564636	1012.606750	2375.643799	1340.281738	24.040064
794.875000	939.790100	2357.439453	1306.148926	25.842695
795.185303	1026.259888	2414.327637	1256.087524	16.557379
795.495544	1037.637451	2325.582275	1335.730713	23.144878
795.805786	985.300537	2466.664551	1274.291626	19.508446
796.115906	998.953613	2418.878662	1308.424438	21.794870
796.426025	928.412476	2327.857666	1335.730713	29.105694
796.736023	987.576050	2421.154053	1342.557251	24.761904
797.045959	935.239075	2434.807373	1399.445313	30.955990
797.355896	985.300537	2596.369141	1394.894287	25.423731
797.665833	944.341125	2437.082764	1381.241089	29.268290
797.975708	967.096313	2514.450439	1303.873413	21.764708
798.285461	1003.504700	2491.695313	1349.383789	23.241585
798.595154	921.585938	2503.072998	1301.597900	24.028774
798.904846	955.718750	2487.144287	1351.659302	25.854378
799.214478	1026.259888	2352.888428	1394.894287	27.787312
799.524109	953.443237	2471.215576	1372.139038	27.586206
799.833557	887.453125	2414.327637	1335.730713	29.359163
800.143005	998.953613	2396.123291	1301.597900	21.661242
800.452393	992.127075	2368.817139	1237.883301	17.851238
800.761780	976.198425	2359.715088	1338.006226	26.151316
801.071106	1023.984375	2366.541748	1265.189575	17.966101
801.380371	923.861450	2261.867676	1256.087524	24.829935
801.689575	957.994263	2230.010498	1269.740601	24.508047
801.998718	951.167725	2243.663574	1274.291626	24.999996
802.307800	946.616638	2323.306641	1326.628662	27.603312
802.616882	987.576050	2261.867676	1287.944824	23.571432
802.925903	1021.708862	2250.489990	1276.567139	20.740738
803.234863	932.963501	2141.265137	1287.944824	29.378536
803.543701	1023.984375	2268.694336	1322.077637	23.948812
803.852539	955.718750	2159.469238	1308.424438	29.300564
804.161316	967.096313	2141.265137	1246.985352	23.837206
804.470032	957.994263	2202.704102	1303.873413	27.787933
804.778809	1008.055725	2280.071777	1276.567139	21.109121
805.087341	923.861450	2175.397949	1297.046875	29.818182
805.395935	1012.606750	2195.877686	1312.975464	25.384609
805.704468	964.820801	2173.122314	1276.567139	25.800377
806.012939	964.820801	2293.724854	1381.241089	31.335617
806.321350	962.545288	2261.867676	1235.607788	21.015762
806.629761	964.820801	2273.245361	1317.526489	26.956516
806.938049	889.728638	2341.510986	1267.465088	26.018806
807.246277	1014.882263	2227.734863	1381.241089	30.206379
807.554504	992.127075	2204.979736	1290.220337	24.577862
807.862671	971.647400	2234.561523	1347.108276	29.729725
808.170715	894.279663	2314.204590	1281.118164	27.243587
808.478821	944.341125	2113.958740	1258.363037	26.848253
808.786804	1008.055725	2157.193604	1281.118164	23.762373
809.094727	989.851563	2184.500000	1310.699951	26.857140
809.402649	1003.504700	2259.592041	1297.046875	23.369566
809.710510	1037.637451	2095.754639	1240.158813	19.139786
810.018311	983.024963	2095.754639	1290.220337	27.607367
810.326050	1008.055725	2027.489014	1226.505737	21.428574
810.633667	1012.606750	2143.540527	1212.852539	17.706234
810.941345	1021.708862	2111.683350	1308.424438	26.304796
811.248901	960.269775	2029.764526	1208.301514	23.191486
811.556396	960.269775	2034.315552	1240.158813	26.059320
811.863892	935.239075	2054.795166	1256.087524	28.658541
812.171326	944.341125	2043.417725	1192.372925	22.567287
812.478699	967.096313	2036.591064	1231.056763	24.680855
812.786011	953.443237	2036.591064	1137.760376	17.016804
813.093262	921.585938	2027.489014	1267.465088	31.275721
813.400391	921.585938	2123.060791	1262.914063	28.409094
813.707642	939.790100	2018.386963	1244.709839	28.270037
814.014709	944.341125	2059.346436	1194.648438	22.448978
814.321716	1026.259888	2077.550537	1190.097412	15.584417
814.628723	955.718750	2154.918213	1308.424438	29.411762
814.935669	1037.637451	2011.560425	1199.199463	16.588787
815.242554	1010.331238	1970.601074	1221.954712	22.037918
815.549438	978.473938	2041.142212	1253.812012	25.910070
815.856201	948.892151	1991.080688	1265.189575	30.349350
816.162964	1012.606750	2022.937988	1192.372925	17.792795
816.469604	1001.229126	2084.376953	1176.444214	16.176470
816.776184	878.351013	2020.662476	1224.230225	30.278887
817.082825	964.820801	2127.612061	1208.301514	20.939331
817.389343	955.718750	2041.142212	1260.638550	28.092243
817.695801	866.973450	2059.346436	1278.842651	34.541977
818.002197	1037.637451	2075.274902	1217.403687	17.324572
818.308533	1033.086426	2070.723877	1294.771362	25.219303
818.614868	1023.984375	2166.295898	1290.220337	23.306774
818.921143	935.239075	2116.234375	1267.465088	28.131018
819.227356	960.269775	2061.621826	1276.567139	28.719006
819.533447	919.310425	2054.795166	1308.424438	34.268536
819.839539	948.892151	2152.642578	1301.597900	29.300570
820.145569	917.034912	2164.020264	1251.536499	26.824821
820.451538	969.371887	2318.755615	1244.709839	20.404718
820.757568	1026.259888	2496.246338	1344.832764	21.671824
821.063416	957.994263	2650.981689	1426.751587	27.688175
821.369263	969.371887	2721.522949	1369.863525	22.857140
821.675049	946.616638	2860.329590	1499.568237	28.894178
821.980713	946.616638	3001.411865	1465.435425	25.249172
822.286438	894.279663	3342.739990	1592.864502	28.531595
822.592102	951.167725	4150.549805	1824.967651	27.311522
822.897583	971.647400	6237.202637	2232.285889	23.941225
823.203125	976.198425	8794.887695	2751.104736	22.700815
823.508545	946.616638	10378.650391	3274.474365	24.680336
823.813965	894.279663	10824.652344	3313.158203	24.358385
824.119263	996.678101	9841.627930	3233.515137	25.289423
824.424622	976.198425	8301.099609	2885.360352	26.063993
824.729858	985.300537	6979.022461	2496.246338	25.208809
825.035095	989.851563	6162.110352	2336.959961	26.044876
825.340149	937.514587	5295.136719	2193.602051	28.825066
825.645264	994.402588	4894.645020	1888.682251	22.928822
825.950256	928.412476	4541.939453	1847.722900	25.440807
826.255310	980.749451	4271.152344	1772.630737	24.066393
826.560242	1055.841675	4016.294189	1729.395752	22.751726
826.865112	973.922913	3743.231689	1667.956787	25.061628
827.169922	1026.259888	3681.792725	1645.201538	23.307627
827.474670	960.269775	3734.129639	1642.926025	24.610336
827.779419	983.024963	4289.356934	1781.732788	24.156916
828.084045	987.576050	4744.460938	1970.601074	26.165962
828.388672	969.371887	5288.310547	2034.315552	24.657532
828.693176	955.718750	5019.798828	1991.080688	25.475924
828.997681	971.647400	4548.766113	1815.865601	23.600510
829.302124	1042.188477	4050.427002	1708.916138	22.163391
829.606567	973.922913	3538.434814	1683.885376	27.684116
829.910828	953.443237	3306.331787	1545.078613	25.145065
830.215149	1071.770264	3017.340576	1454.057739	19.649122
830.519348	983.024963	2883.084961	1479.088501	26.107782
830.823547	901.106262	2826.196777	1513.221313	31.796688
831.127686	957.994263	2573.614014	1419.924927	28.591545
831.431763	998.953613	2512.175049	1328.904175	21.804512
831.735779	1033.086426	2261.867676	1388.067749	28.888895
832.039734	1012.606750	2266.418701	1333.455200	25.589836
832.343628	1003.504700	2125.336426	1283.393677	24.949282
832.647461	1012.606750	2157.193604	1281.118164	23.459242
832.951233	1014.882263	2239.112549	1349.383789	27.323418
833.255127	1046.739624	2143.540527	1349.383789	27.593355
833.558777	973.922913	2239.112549	1299.322388	25.719421
833.862366	1019.433350	2437.082764	1349.383789	23.274473
834.165955	957.994263	2637.328613	1413.098389	27.100269
834.469482	998.953613	2946.799316	1447.231201	23.014019
834.773010	980.749451	3397.352539	1588.313477	25.141243
835.076416	948.892151	3606.700439	1674.783325	27.311646
835.379822	957.994263	3549.812500	1667.956787	27.392448
835.683105	939.790100	3297.229736	1574.660400	26.930500
835.986389	1042.188477	2992.309814	1524.598877	24.737455
836.289612	976.198425	2771.584229	1406.271851	23.954374
836.592773	987.576050	2621.399902	1326.628662	20.752090
836.895874	957.994263	2519.001465	1310.699951	22.594751
837.198914	1001.229126	2407.500977	1358.485962	25.404535
837.501892	996.678101	2350.613037	1258.363037	19.327734
837.804871	866.973450	2275.520752	1256.087524	27.625204
838.107666	962.545288	2148.091553	1142.311401	15.163146
838.410583	1042.188477	2018.386963	1217.403687	17.948729
838.713379	969.371887	1929.641602	1231.056763	27.251184
839.016052	969.371887	1920.539551	1196.923950	23.923445
839.318787	983.024963	1852.273926	1244.709839	30.104710
839.621338	998.953613	1784.008301	1133.209351	17.101450
839.923889	1014.882263	1815.865601	1140.035889	15.624997
840.226440	1080.872437	1784.008301	1226.505737	20.711971
840.528931	1005.780212	1947.845825	1158.240112	16.183575
840.831299	976.198425	1988.805176	1228.781250	24.943823
841.133606	942.065613	2134.438477	1285.669312	28.816801
841.435913	942.065613	2084.376953	1233.332275	25.498013
841.738220	1008.055725	1925.090576	1176.444214	18.362278
842.040405	983.024963	1950.121338	1256.087524	28.235300
842.342529	1001.229126	1849.998413	1112.729614	13.136725
842.644592	923.861450	1872.753662	1183.270874	27.338135
842.946594	983.024963	1772.630737	1199.199463	27.377523
843.248596	928.412476	1777.181763	1180.995239	29.758707
843.550598	960.269775	1733.946899	1080.872437	15.588242
843.852478	969.371887	1708.916138	1162.791138	26.153845
844.154236	1044.463989	1702.089600	1160.515625	17.647068
844.455994	978.473938	1649.752563	1087.698975	16.271193
844.757690	967.096313	1624.721802	1115.005249	22.491364
845.059326	1046.739624	1645.201538	1062.668213	2.661588
845.360962	953.443237	1588.313477	1058.117188	16.487455
845.662476	914.759338	1488.190552	1096.801025	31.746037
845.963989	957.994263	1504.119263	1130.933838	31.666666
846.265381	951.167725	1558.731689	1112.729614	26.591749
846.566772	935.239075	1515.496826	1130.933838	33.725491
846.868042	912.483826	1465.435425	1169.617676	46.502052
847.169373	973.922913	1529.150024	1117.280762	25.819677
847.470581	923.861450	1517.772339	1074.045776	25.287350
847.771729	1017.157776	1481.364014	1110.454102	20.098034
848.072815	976.198425	1513.221313	1112.729614	25.423719
848.373901	992.127075	1551.905151	1080.872437	15.853668
848.674866	926.136963	1435.853638	1126.382813	39.285717
848.975891	942.065613	1401.720825	1069.494751	27.722765
849.276794	964.820801	1510.945801	1085.423462	22.083344
849.577637	960.269775	1581.486938	1030.810913	11.355310
849.878357	1003.504700	1451.782227	1064.943726	13.705578
850.179077	955.718750	1463.159912	1055.841675	19.730942
850.479736	987.576050	1417.649414	1051.290649	14.814821
850.780396	992.127075	1415.373901	1008.055725	3.763442
851.080994	1017.157776	1499.568237	1094.525513	16.037741
851.381470	1023.984375	1440.404663	1037.637451	3.278677
851.681946	951.167725	1410.822876	1089.974487	30.198021
851.982361	1019.433350	1403.996338	1033.086426	3.550283
852.282715	955.718750	1454.057739	1076.321289	24.200903
852.583008	962.545288	1351.659302	1010.331238	12.280706
852.883240	983.024963	1403.996338	1092.250000	25.945953
853.183411	930.687988	1454.057739	1083.147949	29.130449
853.483521	1005.780212	1415.373901	1067.219238	14.999993
853.783630	951.167725	1422.200562	1087.698975	28.985506
854.083679	1069.494751	1399.445313	1094.525513	7.586216
854.383667	962.545288	1390.343262	1039.912964	18.085096
854.683533	898.830688	1442.680176	1051.290649	28.033484
854.983337	976.198425	1363.036987	1053.566162	20.000006
855.283203	969.371887	1431.302612	1055.841675	18.719212
855.582886	971.647400	1467.710938	1101.352051	26.146782
855.882629	960.269775	1413.098389	1121.831787	35.678402
856.182312	994.402588	1401.720825	1083.147949	21.787722
856.481873	1014.882263	1426.751587	1037.637451	5.524856
856.781372	1037.637451	1390.343262	1062.668213	7.096782
857.080872	987.576050	1338.006226	1087.698975	28.571434
857.380310	935.239075	1376.690063	1064.943726	29.381439
857.679688	964.820801	1335.730713	1171.893188	55.828217
857.979004	973.922913	1367.588013	1049.015137	19.075153
858.278259	935.239075	1360.761475	1053.566162	27.807487
858.577454	914.759338	1360.761475	1053.566162	31.122458
858.876648	953.443237	1365.312500	1021.708862	16.574587
859.175720	960.269775	1417.649414	1042.188477	17.910439
859.474792	973.922913	1335.730713	1044.463989	19.496838
859.773743	1017.157776	1358.485962	1053.566162	10.666680
860.072693	1014.882263	1415.373901	1058.117188	10.795463
860.371521	1012.606750	1433.578125	1039.912964	6.486477
860.670349	987.576050	1315.250977	1005.780212	5.555555
860.969116	967.096313	1481.364014	1012.606750	8.849562
861.267883	957.994263	1322.077637	1023.984375	18.125000
861.566589	946.616638	1285.669312	1076.321289	38.255016
861.865112	1014.882263	1422.200562	1001.229126	-3.351958
862.163635	994.402588	1365.312500	1042.188477	12.883422
862.462158	1010.331238	1369.863525	1062.668213	14.556961
862.760620	964.820801	1394.894287	1074.045776	25.396816
863.059021	967.096313	1408.547363	1080.872437	25.773214
863.357361	1010.331238	1390.343262	1083.147949	19.161686
863.655640	1053.566162	1335.730713	1103.627563	17.741917
863.953857	910.208313	1365.312500	1060.392700	33.000000
864.251953	973.922913	1435.853638	996.678101	4.926104
864.550110	980.749451	1344.832764	1023.984375	11.875009
864.848206	905.657288	1340.281738	996.678101	20.942406
865.146179	1012.606750	1347.108276	1021.708862	2.721097
865.444092	980.749451	1287.944824	1096.801025	37.777775
865.741943	985.300537	1422.200562	1051.290649	15.104168
866.039795	976.198425	1349.383789	1053.566162	20.731718
866.337646	989.851563	1351.659302	1012.606750	6.289304
866.635376	996.678101	1435.853638	1003.504700	1.554412
866.933044	969.371887	1435.853638	1010.331238	8.780483
867.230652	994.402588	1426.751587	1076.321289	18.947355
867.528198	937.514587	1333.455200	1042.188477	26.436766
867.825745	962.545288	1406.271851	1105.903076	32.307686
868.123230	983.024963	1333.455200	1083.147949	28.571445
868.420593	985.300537	1338.006226	1030.810913	12.903215
868.717896	926.136963	1449.506714	1103.627563	33.913040
869.015198	953.443237	1365.312500	996.678101	10.497230
869.312439	896.555176	1312.975464	1033.086426	32.786888
869.609619	889.728638	1374.414551	1055.841675	34.272305
869.906738	942.065613	1369.863525	1030.810913	20.744678
870.203796	946.616638	1415.373901	1128.658325	38.834957
870.500854	964.820801	1376.690063	1037.637451	17.679554
870.797791	892.004150	1324.353149	1067.219238	40.526310
871.094666	973.922913	1394.894287	1076.321289	24.324308
871.391602	1010.331238	1342.557251	1044.463989	10.273955
871.688293	992.127075	1328.904175	957.994263	-10.135135
871.985107	969.371887	1358.485962	1087.698975	30.409357
872.281738	994.402588	1358.485962	1023.984375	8.125004
872.578369	998.953613	1347.108276	1042.188477	12.418292
872.874939	907.932800	1381.241089	1074.045776	35.096149
873.171509	910.208313	1388.067749	1042.188477	27.619034
873.467957	957.994263	1317.526489	1062.668213	29.113928
873.764343	919.310425	1365.312500	1080.872437	36.224499
874.060669	937.514587	1326.628662	1051.290649	29.239771
874.356995	953.443237	1338.006226	1051.290649	25.443794
874.653198	1005.780212	1378.965576	1044.463989	10.365834
874.949463	907.932800	1338.006226	1078.596802	39.682526
875.245544	1017.157776	1358.485962	1067.219238	14.666665
875.541626	973.922913	1417.649414	1053.566162	17.948725
875.837646	985.300537	1317.526489	1033.086426	14.383551
876.133606	960.269775	1365.312500	1019.433350	14.606749
876.429565	971.647400	1353.934937	1030.810913	15.476182
876.725403	994.402588	1317.526489	1051.290649	17.605650
877.021179	994.402588	1403.996338	1049.015137	13.333345
877.316956	962.545288	1403.996338	998.953613	8.247420
877.612610	919.310425	1365.312500	976.198425	12.755097
877.908203	987.576050	1526.874512	1099.076538	20.675098
878.203857	951.167725	1397.169800	1055.841675	23.469387
878.499390	953.443237	1419.924927	1012.606750	12.682923
878.794800	989.851563	1381.241089	1092.250000	26.162794
879.090271	987.576050	1372.139038	1051.290649	16.568052
879.385559	921.585938	1435.853638	1069.494751	28.761055
879.680847	998.953613	1403.996338	1144.586914	35.955048
879.976196	1005.780212	1483.639526	1119.556274	23.809530
880.271301	957.994263	1515.496826	1119.556274	28.979599
880.566467	992.127075	1556.456177	1078.596802	15.322571
880.861572	994.402588	1624.721802	1137.760376	22.743681
881.156555	869.248962	1820.416626	1140.035889	28.468895
881.451477	973.922913	2004.733887	1290.220337	30.684326
881.746460	1019.433350	2703.318604	1397.169800	22.432434
882.041321	921.585938	3431.485352	1533.701050	24.388033
882.336121	905.657288	4384.928711	1718.018188	23.348593
882.630798	932.963501	4644.337891	1752.151001	22.072348
882.925537	914.759338	4803.624512	1733.946899	21.064951
883.220215	1017.157776	4485.051270	1793.110352	22.375328
883.514771	910.208313	4068.631104	1592.864502	21.613831
883.809326	907.932800	3690.894775	1592.864502	24.611609
884.103760	942.065613	3458.791504	1586.037964	25.587704
884.398132	917.034912	3217.586426	1458.608887	23.541050
884.692505	889.728638	3106.085938	1506.394775	27.823406
884.986816	946.616638	2899.013428	1426.751587	24.592079
885.281067	1001.229126	2714.696289	1378.965576	22.045153
885.575256	1012.606750	2514.450439	1278.842651	17.727270
885.869385	1014.882263	2371.092773	1294.771362	20.637587
886.163452	989.851563	2118.509766	1199.199463	18.548388
886.457458	1019.433350	2011.560425	1180.995239	16.284395
886.751465	1046.739624	1861.375977	1190.097412	17.597765
887.045410	962.545288	1665.681274	1185.546387	31.715216
887.339233	962.545288	1647.477051	1101.352051	20.265779
887.632996	971.647400	1613.344238	1035.361938	9.929071
887.926758	960.269775	1520.047852	1128.658325	30.081305
888.220398	1042.188477	1592.864502	1060.392700	3.305796
888.514099	1012.606750	1506.394775	1083.147949	14.285725
888.807678	1010.331238	1501.843750	1017.157776	1.388884
889.101196	932.963501	1510.945801	1089.974487	27.165363
889.394653	962.545288	1508.670288	1039.912964	14.166660
889.688049	978.473938	1538.252075	1085.423462	19.105700
889.981384	1010.331238	1460.884399	1055.841675	10.101014
890.274719	1017.157776	1413.098389	1110.454102	23.563211
890.567932	948.892151	1388.067749	994.402588	10.362697
>>>>>End Processed Spectral Data<<<<<
