Jaz Data File
++++++++++++++++++++++++++++++++++++
Date: Wed Feb 07 06:33:40 2024
User: jaz
Dark Spectrum Present: Yes
Reference Spectrum Present: Yes
Processed Spectrum Present: Yes
Spectrometers: JAZA3692
Integration Time (usec): 40000 (JAZA3692)
Spectra Averaged: 1 (JAZA3692)
Boxcar Smoothing: 0 (JAZA3692)
Correct for Electrical Dark: No (JAZA3692)
Strobe/Lamp Enabled: Yes (JAZA3692)
Correct for Detector Non-linearity: No (JAZA3692)
Correct for Stray Light: No (JAZA3692)
Number of Pixels in Processed Spectrum: 2048
>>>>>Begin Processed Spectral Data<<<<<
W	D	R	S	P
190.244385	0.000000	0.000000	0.000000	0.000000
190.627136	0.000000	0.000000	0.000000	0.000000
191.009842	1424.476074	1381.241089	1351.659302	168.420944
191.392532	1344.832764	1360.761475	1276.567139	-428.569672
191.775177	1369.863525	1378.965576	1340.281738	-325.001343
192.157791	1410.822876	1438.129150	1353.934937	-208.332855
192.540390	1367.588013	1419.924927	1253.812012	-217.391495
192.922943	1408.547363	1406.271851	1415.373901	-300.000000
193.305481	1335.730713	1406.271851	1388.067749	74.193634
193.687958	1381.241089	1431.302612	1406.271851	50.000000
194.070419	1347.108276	1358.485962	1403.996338	499.996796
194.452866	1447.231201	1442.680176	1353.934937	2050.005371
194.835251	1369.863525	1392.618774	1344.832764	-109.999947
195.217621	1367.588013	1344.832764	1353.934937	59.999680
195.599960	1438.129150	1388.067749	1338.006226	200.000244
195.982254	1456.333252	1442.680176	1315.250977	1033.336914
196.364517	1490.466064	1365.312500	1376.690063	90.909119
196.746750	1449.506714	1429.027100	1394.894287	266.667267
197.128952	1390.343262	1353.934937	1306.148926	231.250229
197.511139	1444.955688	1456.333252	1369.863525	-660.002136
197.893280	1374.414551	1372.139038	1406.271851	-1400.005371
198.275391	1399.445313	1340.281738	1333.455200	111.538414
198.657471	1410.822876	1392.618774	1340.281738	387.501343
199.039520	1394.894287	1431.302612	1372.139038	-62.500126
199.421539	1403.996338	1419.924927	1351.659302	-328.572968
199.803513	1435.853638	1440.404663	1306.148926	-2850.010742
200.185471	1406.271851	1381.241089	1347.108276	236.363464
200.567383	1385.792114	1429.027100	1331.179688	-126.315361
200.949265	1456.333252	1431.302612	1312.975464	572.729248
201.331131	1392.618774	1449.506714	1390.343262	-3.999991
201.712967	1378.965576	1401.720825	1456.333252	339.999237
202.094742	1442.680176	1435.853638	1287.944824	2266.673828
202.476517	1401.720825	1458.608887	1306.148926	-167.999924
202.858231	1408.547363	1378.965576	1281.118164	430.769104
203.239944	1415.373901	1392.618774	1344.832764	310.001068
203.621582	1376.690063	1472.261963	1344.832764	-33.333332
204.003235	1331.179688	1367.588013	1351.659302	56.249813
204.384827	1328.904175	1444.955688	1306.148926	-19.607887
204.766388	1369.863525	1438.129150	1403.996338	50.000000
205.147934	1351.659302	1447.231201	1374.414551	23.809561
205.529449	1392.618774	1433.578125	1397.169800	11.111078
205.910904	1444.955688	1460.884399	1447.231201	14.285604
206.292343	1360.761475	1476.812988	1351.659302	-7.843218
206.673767	1429.027100	1413.098389	1308.424438	757.140137
207.055115	1456.333252	1390.343262	1360.761475	144.827682
207.436462	1403.996338	1431.302612	1333.455200	-258.333069
207.817780	1431.302612	1390.343262	1351.659302	194.444763
208.199051	1358.485962	1463.159912	1415.373901	54.347752
208.580307	1424.476074	1422.200562	1351.659302	3200.016113
208.961517	1388.067749	1454.057739	1281.118164	-162.069412
209.342712	1440.404663	1431.302612	1408.547363	350.001343
209.723846	1390.343262	1463.159912	1356.210449	-46.875011
210.104965	1403.996338	1388.067749	1328.904175	471.430115
210.486069	1426.751587	1447.231201	1331.179688	-466.668457
210.867111	1383.516602	1456.333252	1360.761475	-31.249895
211.248123	1385.792114	1390.343262	1363.036987	-499.986603
211.629120	1385.792114	1424.476074	1397.169800	29.411894
212.010071	1456.333252	1474.537476	1363.036987	-512.497925
212.390991	1406.271851	1378.965576	1326.628662	291.666260
212.771881	1349.383789	1397.169800	1353.934937	9.524016
213.152756	1401.720825	1438.129150	1299.322388	-281.250061
213.533569	1392.618774	1417.649414	1285.669312	-427.274200
213.914368	1331.179688	1429.027100	1358.485962	27.906998
214.295135	1383.516602	1410.822876	1365.312500	-66.666367
214.675858	1433.578125	1458.608887	1312.975464	-481.817780
215.056549	1417.649414	1415.373901	1378.965576	1700.005371
215.437225	1365.312500	1431.302612	1278.842651	-131.034546
215.817841	1458.608887	1413.098389	1317.526489	309.999664
216.198441	1360.761475	1392.618774	1403.996338	135.714142
216.579025	1356.210449	1378.965576	1422.200562	290.001068
216.959549	1360.761475	1408.547363	1292.495850	-142.857285
217.340057	1413.098389	1442.680176	1360.761475	-176.922760
217.720535	1378.965576	1360.761475	1388.067749	-50.000671
218.100967	1419.924927	1415.373901	1331.179688	1950.005371
218.481369	1340.281738	1435.853638	1365.312500	26.190504
218.861740	1401.720825	1458.608887	1383.516602	-32.000076
219.242065	1424.476074	1367.588013	1326.628662	171.999908
219.622391	1338.006226	1510.945801	1367.588013	17.105274
220.002670	1358.485962	1447.231201	1326.628662	-35.897476
220.382919	1338.006226	1365.312500	1328.904175	-33.333183
220.763123	1381.241089	1479.088501	1372.139038	-9.302291
221.143295	1378.965576	1358.485962	1319.802124	288.889496
221.523453	1363.036987	1399.445313	1319.802124	-118.749939
221.903549	1406.271851	1485.915039	1372.139038	-42.857166
222.283630	1312.975464	1469.986450	1403.996338	57.971024
222.663696	1401.720825	1435.853638	1351.659302	-146.666855
223.043701	1376.690063	1385.792114	1394.894287	200.001343
223.423676	1353.934937	1488.190552	1303.873413	-37.288216
223.803635	1381.241089	1472.261963	1342.557251	-42.499962
224.183548	1394.894287	1442.680176	1272.016113	-257.143219
224.563431	1438.129150	1431.302612	1349.383789	1300.005371
224.943283	1419.924927	1451.782227	1360.761475	-185.713959
225.323105	1388.067749	1372.139038	1315.250977	457.141663
225.702881	1442.680176	1449.506714	1287.944824	-2266.673828
226.082642	1326.628662	1465.435425	1358.485962	22.950827
226.462357	1374.414551	1458.608887	1299.322388	-89.189095
226.842041	1303.873413	1451.782227	1331.179688	18.461559
227.221695	1326.628662	1467.710938	1385.792114	41.935425
227.601318	1388.067749	1417.649414	1326.628662	-207.693130
227.980911	1419.924927	1488.190552	1315.250977	-153.333328
228.360474	1397.169800	1510.945801	1328.904175	-60.000023
228.739990	1374.414551	1508.670288	1422.200562	35.593273
229.119476	1372.139038	1504.119263	1390.343262	13.793145
229.498932	1403.996338	1604.242188	1360.761475	-21.590891
229.878372	1460.884399	1599.691162	1369.863525	-65.573807
230.257736	1358.485962	1702.089600	1326.628662	-9.271525
230.637115	1465.435425	1679.334351	1376.690063	-41.489391
231.016449	1456.333252	1658.854614	1372.139038	-41.573006
231.395737	1363.036987	1599.691162	1347.108276	-6.730796
231.774994	1419.924927	1561.007324	1358.485962	-43.548286
232.154221	1449.506714	1608.793213	1376.690063	-45.714264
232.533417	1406.271851	1583.762451	1353.934937	-29.487146
232.912582	1401.720825	1567.833862	1340.281738	-36.986313
233.291702	1338.006226	1581.486938	1422.200562	34.579468
233.670792	1374.414551	1611.068726	1365.312500	-3.846140
234.049866	1419.924927	1615.619751	1319.802124	-51.162724
234.428894	1413.098389	1604.242188	1274.291626	-72.619026
234.807892	1351.659302	1495.017212	1347.108276	-3.174590
235.186874	1285.669312	1524.598877	1353.934937	28.571444
235.565781	1460.884399	1601.966675	1285.669312	-124.193550
235.944687	1383.516602	1601.966675	1392.618774	4.166706
236.323547	1397.169800	1622.446289	1331.179688	-29.292942
236.702377	1383.516602	1665.681274	1338.006226	-16.129013
237.081177	1381.241089	1581.486938	1356.210449	-12.499954
237.459946	1372.139038	1706.640625	1397.169800	7.483002
237.838669	1422.200562	1615.619751	1426.751587	2.352934
238.217361	1381.241089	1608.793213	1328.904175	-22.999968
238.596039	1363.036987	1670.232300	1422.200562	19.259270
238.974670	1385.792114	1622.446289	1322.077637	-26.923031
239.353271	1344.832764	1674.783325	1394.894287	15.172432
239.731842	1347.108276	1611.068726	1419.924927	27.586197
240.110367	1383.516602	1704.365112	1372.139038	-3.546086
240.488876	1356.210449	1722.569214	1324.353149	-8.695657
240.867340	1458.608887	1806.763550	1331.179688	-36.601318
241.245789	1401.720825	1818.141113	1374.414551	-6.557383
241.624176	1456.333252	1804.488037	1297.046875	-45.751598
242.002548	1394.894287	1904.610962	1410.822876	3.124989
242.380890	1415.373901	1902.335449	1408.547363	-1.401864
242.759186	1356.210449	1943.294800	1344.832764	-1.937998
243.137451	1356.210449	2029.764526	1367.588013	1.689183
243.515686	1331.179688	2123.060791	1472.261963	17.816093
243.893890	1310.699951	2204.979736	1385.792114	8.396943
244.272049	1495.017212	2209.530762	1376.690063	-16.560518
244.650192	1447.231201	2054.795166	1410.822876	-5.992509
245.028290	1426.751587	2029.764526	1365.312500	-10.188684
245.406357	1403.996338	1925.090576	1369.863525	-6.550219
245.784393	1394.894287	1904.610962	1356.210449	-7.589283
246.162384	1388.067749	1925.090576	1401.720825	2.542364
246.540359	1385.792114	2029.764526	1390.343262	0.706730
246.918289	1403.996338	2134.438477	1394.894287	-1.246101
247.296204	1378.965576	2218.632813	1403.996338	2.981034
247.674057	1394.894287	2473.491211	1385.792114	-0.843890
248.051895	1383.516602	2769.308838	1515.496826	9.523810
248.429703	1376.690063	2805.717041	1533.701050	10.987266
248.807465	1315.250977	2810.268311	1381.241089	4.414003
249.185196	1392.618774	2582.716064	1385.792114	-0.573622
249.562897	1340.281738	2416.603027	1458.608887	10.993664
249.940567	1367.588013	2341.510986	1406.271851	3.971961
250.318192	1419.924927	2214.081787	1431.302612	1.432675
250.695801	1399.445313	2157.193604	1472.261963	9.609610
251.073349	1449.506714	2066.172852	1433.578125	-2.583017
251.450882	1392.618774	1972.876587	1363.036987	-5.098042
251.828400	1406.271851	2020.662476	1367.588013	-6.296294
252.205872	1358.485962	2107.132324	1454.057739	12.765944
252.583313	1378.965576	2118.509766	1417.649414	5.230768
252.960693	1381.241089	2164.020264	1426.751587	5.813964
253.338074	1374.414551	2234.561523	1460.884399	10.052916
253.715408	1415.373901	2216.357178	1431.302612	1.988645
254.092682	1360.761475	2091.203613	1408.547363	6.542050
254.469955	1390.343262	2093.479248	1401.720825	1.618117
254.847198	1369.863525	2000.182739	1431.302612	9.747297
255.224365	1422.200562	1991.080688	1451.782227	5.199982
255.601563	1408.547363	1950.121338	1392.618774	-2.941166
255.978683	1413.098389	2047.968750	1399.445313	-2.150530
256.355743	1424.476074	1961.498901	1367.588013	-10.593229
256.732819	1390.343262	2043.417725	1403.996338	2.090585
257.109894	1349.383789	2043.417725	1392.618774	6.229520
257.486877	1415.373901	2004.733887	1451.782227	6.177604
257.863831	1426.751587	2009.284912	1408.547363	-3.125010
258.240753	1422.200562	2150.367188	1440.404663	2.499991
258.617645	1374.414551	2273.245361	1438.129150	7.088609
258.994507	1444.955688	2316.480225	1367.588013	-8.877280
259.371307	1349.383789	2423.429688	1481.364014	12.288136
259.748108	1372.139038	2491.695313	1460.884399	7.926834
260.124878	1394.894287	2764.757813	1533.701050	10.132890
260.501617	1347.108276	3053.749023	1570.109375	13.066669
260.878296	1390.343262	3258.545898	1547.354126	8.404381
261.254944	1394.894287	3358.668701	1501.843750	5.446117
261.631561	1415.373901	3358.668701	1540.527588	6.440283
262.008179	1372.139038	2833.023438	1506.394775	9.190032
262.384735	1388.067749	2760.206787	1444.955688	4.145931
262.761261	1422.200562	2512.175049	1410.822876	-1.043849
263.137695	1406.271851	2389.296875	1476.812988	7.175925
263.514191	1369.863525	2512.175049	1365.312500	-0.398405
263.890594	1390.343262	2446.184814	1419.924927	2.801714
264.267029	1397.169800	2352.888428	1413.098389	1.666661
264.643341	1306.148926	2468.940186	1485.915039	15.459878
265.019653	1331.179688	2371.092773	1476.812988	14.004373
265.395935	1397.169800	2255.041016	1388.067749	-1.061004
265.772217	1392.618774	2248.214600	1417.649414	2.925521
266.148407	1410.822876	2357.439453	1454.057739	4.567305
266.524597	1378.965576	2423.429688	1435.853638	5.446627
266.900726	1347.108276	2375.643799	1406.271851	5.752215
267.276855	1326.628662	2600.920166	1476.812988	11.785712
267.652924	1340.281738	2646.430664	1438.129150	7.491291
268.028992	1376.690063	2755.655762	1469.986450	6.765678
268.404999	1403.996338	2691.941162	1431.302612	2.120143
268.781006	1417.649414	2673.737061	1488.190552	5.615941
269.156921	1381.241089	2594.093750	1449.506714	5.628518
269.532837	1383.516602	2657.808350	1465.435425	6.428577
269.908661	1338.006226	2671.461426	1483.639526	10.921499
270.284546	1290.220337	2589.542725	1510.945801	16.987736
270.660339	1410.822876	2534.930176	1449.506714	3.441294
271.036133	1303.873413	2685.114502	1517.772339	15.485995
271.411835	1347.108276	2833.023438	1501.843750	10.413480
271.787537	1351.659302	2939.972900	1479.088501	8.022924
272.163239	1444.955688	3160.698486	1451.782227	0.397877
272.538849	1401.720825	3340.464600	1533.701050	6.807512
272.914459	1340.281738	3217.586426	1469.986450	6.909092
273.290070	1344.832764	3206.208740	1522.323364	9.535451
273.665588	1338.006226	3024.167236	1485.915039	8.771927
274.041046	1390.343262	3005.962891	1570.109375	11.126760
274.416565	1392.618774	3049.197754	1476.812988	5.082415
274.791962	1419.924927	3021.891602	1454.057739	2.130682
275.167389	1351.659302	2812.543701	1454.057739	7.009346
275.542755	1426.751587	2789.788574	1447.231201	1.502499
275.918060	1467.710938	2835.298828	1417.649414	-3.660571
276.293365	1472.261963	2862.605225	1485.915039	0.981993
276.668640	1419.924927	2899.013428	1456.333252	2.461538
277.043854	1326.628662	2978.656738	1479.088501	9.228647
277.419037	1365.312500	3010.513916	1447.231201	4.979250
277.794189	1306.148926	3030.993652	1447.231201	8.179419
278.169312	1417.649414	3012.789551	1520.047852	6.419401
278.544373	1408.547363	3040.095703	1456.333252	2.928868
278.919464	1353.934937	2967.279053	1463.159912	6.770098
279.294464	1344.832764	2942.248291	1520.047852	10.968660
279.669464	1360.761475	2951.350586	1476.812988	7.296134
280.044403	1340.281738	2942.248291	1538.252075	12.357957
280.419312	1312.975464	3003.687500	1492.741699	10.632576
280.794189	1435.853638	3099.259277	1469.986450	2.051984
281.169037	1344.832764	3028.718262	1433.578125	5.270273
281.543854	1438.129150	3203.933350	1472.261963	1.932990
281.918671	1413.098389	3176.626953	1538.252075	7.096777
282.293365	1417.649414	3338.188965	1551.905151	6.990522
282.668091	1376.690063	3511.128662	1501.843750	5.863542
283.042786	1399.445313	3572.567627	1586.037964	8.586385
283.417419	1301.597900	3508.853027	1506.394775	9.278351
283.792053	1381.241089	3545.261475	1542.803101	7.465827
284.166595	1394.894287	3297.229736	1449.506714	2.870810
284.541138	1360.761475	3399.628174	1535.976563	8.593749
284.915619	1431.302612	3244.892578	1549.629639	6.524464
285.290100	1335.730713	3456.516113	1458.608887	5.793994
285.664520	1431.302612	3490.648926	1595.140137	7.955803
286.038940	1408.547363	3540.710449	1524.598877	5.442901
286.413300	1356.210449	3765.986816	1545.078613	7.837581
286.787628	1394.894287	3884.313965	1581.486938	7.495428
287.161896	1333.455200	3868.385254	1647.477051	12.387791
287.536194	1344.832764	3836.528076	1706.640625	14.520550
287.910400	1308.424438	3754.609375	1690.711914	15.627905
288.284607	1372.139038	3606.700439	1690.711914	14.256617
288.658752	1385.792114	3497.475586	1597.415649	10.021555
289.032867	1378.965576	3376.872803	1677.058838	14.920276
289.406921	1342.557251	3486.097900	1649.752563	14.331211
289.781006	1415.373901	3481.546875	1736.222412	15.528639
290.154999	1454.057739	3549.812500	1745.324463	13.897939
290.529022	1422.200562	3620.353516	1688.436401	12.111798
290.902954	1438.129150	3756.884766	1722.569214	12.266927
291.276825	1317.526489	3884.313965	1818.141113	19.503548
291.650757	1363.036987	3973.059326	1720.293701	13.687879
292.024597	1403.996338	3913.895752	1838.620850	17.316412
292.398407	1397.169800	3831.977051	1804.488037	16.728973
292.772156	1399.445313	3802.395264	1661.130127	10.890148
293.145905	1388.067749	3561.189941	1647.477051	11.937171
293.519592	1349.383789	3577.118652	1795.385864	20.020430
293.893280	1406.271851	3611.251465	1704.365112	13.519094
294.266907	1397.169800	3763.711426	1806.763550	17.307693
294.640533	1410.822876	3759.160400	1840.896362	18.313957
295.014069	1344.832764	3957.130615	1774.906250	16.463417
295.387604	1454.057739	4148.274414	1847.722900	14.611488
295.761078	1392.618774	4173.305176	1831.794189	15.793777
296.134552	1467.710938	4098.212891	1904.610962	16.608997
296.507996	1333.455200	4123.243652	1975.152100	23.001633
296.881378	1408.547363	4114.141602	1870.478149	17.073174
297.254730	1403.996338	4398.581543	1938.743774	17.857145
297.628021	1403.996338	4603.378418	1941.019287	16.785208
298.001282	1367.588013	4808.175293	1972.876587	17.592594
298.374573	1390.343262	4683.021973	1945.570313	16.862473
298.747803	1458.608887	4566.970215	1988.805176	17.057100
299.121002	1383.516602	4371.275391	1950.121338	18.964207
299.494141	1376.690063	4202.886719	1881.855713	17.874397
299.867188	1385.792114	4150.549805	1797.661377	14.897120
300.240265	1417.649414	4014.018799	1809.039063	15.074498
300.613312	1331.179688	3847.905762	1863.651489	21.157320
300.986328	1322.077637	3847.905762	1890.957764	22.522520
301.359314	1372.139038	3841.079102	1829.518677	18.525345
301.732239	1422.200562	3804.670898	1854.549438	18.147085
302.105103	1378.965576	3895.691650	1888.682251	20.253164
302.477997	1365.312500	3879.762939	1920.539551	22.081448
302.850830	1438.129150	3998.090088	1854.549438	16.266666
303.223602	1422.200562	3809.221924	1802.212524	15.919922
303.596375	1319.802124	3804.670898	1831.794189	20.604391
303.969116	1438.129150	3643.108887	1827.243164	17.647057
304.341766	1417.649414	3606.700439	1784.008301	16.735968
304.714478	1383.516602	3722.751953	1772.630737	16.634245
305.087067	1378.965576	3645.384277	1845.447388	20.582331
305.459656	1383.516602	3752.333740	1838.620850	19.212299
305.832214	1347.108276	3581.669678	1811.314575	20.773932
306.204681	1335.730713	3604.425049	1754.426514	18.455364
306.577148	1358.485962	3663.588379	1845.447388	21.125370
306.949646	1335.730713	3711.374512	1836.345337	21.072798
307.322021	1419.924927	3709.098877	1770.355225	15.308156
307.694397	1424.476074	3597.598389	1790.834839	16.858635
308.066742	1365.312500	3750.058350	1770.355225	16.984734
308.439026	1356.210449	3775.089111	1765.804199	16.933208
308.811279	1374.414551	3841.079102	1849.998413	19.280443
309.183502	1356.210449	4041.324951	1868.202637	19.067797
309.555695	1460.884399	3975.334961	1831.794189	14.751126
309.927887	1335.730713	4014.018799	1870.478149	19.966017
310.299988	1381.241089	4125.519043	1943.294800	20.480934
310.672058	1440.404663	4164.203125	1868.202637	15.705935
311.044128	1308.424438	4136.896973	1859.100464	19.469025
311.416168	1399.445313	4161.927734	1856.824951	16.556835
311.788147	1392.618774	4209.713379	1900.059814	18.012920
312.160065	1410.822876	4166.478516	1979.703125	20.644096
312.531982	1312.975464	4093.661865	1911.437500	21.522097
312.903870	1338.006226	4011.743164	1806.763550	17.531918
313.275696	1431.302612	3825.150391	1786.283813	14.828897
313.647491	1438.129150	3875.211914	1884.131226	18.300653
314.019318	1419.924927	3984.437012	1877.304688	17.834961
314.391022	1388.067749	3850.181152	1822.692139	17.652494
314.762726	1342.557251	4050.427002	1774.906250	15.966389
315.134369	1347.108276	4061.804688	1845.447388	18.357084
315.505981	1308.424438	4105.039551	1847.722900	19.283970
315.877594	1415.373901	4148.274414	1852.273926	15.986679
316.249146	1351.659302	4136.896973	1865.927002	18.464050
316.620636	1435.853638	3959.406250	1840.896362	16.050495
316.992157	1340.281738	3886.589600	1752.151001	16.175156
317.363586	1292.495850	3756.884766	1829.518677	21.791319
317.735016	1399.445313	3786.466553	1752.151001	14.775976
318.106354	1378.965576	3704.547852	1781.732788	17.318983
318.477722	1415.373901	3695.445801	1770.355225	15.568866
318.849060	1381.241089	3877.487549	1824.967651	17.775751
319.220306	1417.649414	3866.109863	1831.794189	16.914497
319.591522	1358.485962	3929.824463	1754.426514	15.398229
319.962738	1492.741699	3909.344727	1811.314575	13.182673
320.333923	1372.139038	3941.202148	1802.212524	16.740480
320.705017	1390.343262	3902.518066	1747.599976	14.221013
321.076111	1369.863525	3904.793701	1756.702026	15.260322
321.447144	1369.863525	3734.129639	1743.048950	15.784409
321.818176	1331.179688	3674.966064	1786.283813	19.417475
322.189178	1376.690063	3661.312988	1733.946899	15.637452
322.560120	1344.832764	3645.384277	1765.804199	18.298717
322.931030	1265.189575	3857.007813	1777.181763	19.754169
323.301910	1310.699951	3913.895752	1736.222412	16.346157
323.672729	1401.720825	4177.855957	1813.590088	14.836066
324.043549	1358.485962	4207.437988	1845.447388	17.092649
324.414337	1376.690063	4516.908691	1856.824951	15.289855
324.785095	1342.557251	4671.644043	1895.508789	16.609705
325.155792	1353.934937	4437.265625	1920.539551	18.376383
325.526428	1403.996338	4557.868164	1881.855713	15.151515
325.897034	1394.894287	4353.071289	1943.294800	18.538462
326.267670	1381.241089	4480.500488	1893.233276	16.519825
326.638184	1385.792114	4430.438965	1818.141113	14.200300
327.008728	1353.934937	4421.336914	1861.375977	16.543024
327.379211	1403.996338	4564.694824	1904.610962	15.838734
327.749634	1356.210449	4384.928711	1872.753662	17.054846
328.120026	1424.476074	4307.561035	1859.100464	15.074977
328.490417	1338.006226	4189.233887	1886.406738	19.233839
328.860748	1410.822876	4159.651855	1847.722900	15.894041
329.231079	1417.649414	4084.559814	1688.436401	10.153584
329.601318	1335.730713	4020.845215	1786.283813	16.779661
329.971558	1381.241089	4200.611328	1740.773438	12.752222
330.341736	1385.792114	4105.039551	1884.131226	18.326361
330.711914	1363.036987	4282.530273	1863.651489	17.147308
331.082062	1429.027100	4296.183105	1868.202637	15.317462
331.452148	1385.792114	4243.846191	1806.763550	14.729302
331.822174	1381.241089	4150.549805	1890.957764	18.405918
332.192200	1385.792114	4357.622559	1831.794189	15.007655
332.562134	1397.169800	4419.061523	1888.682251	16.265059
332.932129	1410.822876	4346.244629	1902.335449	16.744188
333.302063	1347.108276	4500.979980	1929.641602	18.470421
333.671906	1401.720825	4635.235840	1936.468262	16.537651
334.041718	1358.485962	4626.133789	1943.294800	17.896935
334.411499	1390.343262	4708.052734	1972.876587	17.558298
334.781281	1390.343262	4662.541992	1954.672363	17.246174
335.151001	1360.761475	4719.430176	1861.375977	14.905147
335.520721	1360.761475	4662.541992	1950.121338	17.849758
335.890350	1381.241089	4537.388672	1870.478149	15.501083
336.259979	1322.077637	4642.062500	1941.019287	18.642906
336.629547	1324.353149	4617.031738	1881.855713	16.931581
336.999084	1349.383789	4553.316895	1872.753662	16.335232
337.368622	1367.588013	4562.419434	1906.886475	16.880341
337.738098	1392.618774	4712.603516	1884.131226	14.804660
338.107513	1415.373901	4607.929688	1861.375977	13.970064
338.476898	1424.476074	4664.817871	1847.722900	13.061796
338.846252	1447.231201	4607.929688	1877.304688	13.606913
339.215576	1397.169800	4710.328125	1868.202637	14.217034
339.584869	1376.690063	4671.644043	1868.202637	14.917130
339.954132	1444.955688	4701.226074	1952.396851	15.583508
340.323334	1474.537476	4612.480469	1838.620850	11.602613
340.692505	1403.996338	4455.469727	1918.264038	16.853094
341.061646	1385.792114	4464.571777	1831.794189	14.486326
341.430786	1358.485962	4537.388672	1845.447388	15.318538
341.799896	1369.863525	4548.766113	1870.478149	15.748033
342.168915	1344.832764	4623.858398	1852.273926	15.475365
342.537903	1431.302612	4796.797852	1900.059814	13.928329
342.906830	1374.414551	4958.359863	1952.396851	16.126984
343.275757	1401.720825	4910.573730	1936.468262	15.239949
343.644684	1372.139038	4826.379395	1961.498901	17.061924
344.013550	1365.312500	5001.594727	2027.489014	18.210262
344.382355	1367.588013	5238.249023	1947.845825	14.991181
344.751129	1385.792114	5276.932617	2057.070801	17.251463
345.119873	1426.751587	5486.280762	2034.315552	14.966365
345.488586	1392.618774	5670.597656	1988.805176	13.936170
345.857269	1360.761475	5854.915039	2002.458252	14.278480
346.225891	1403.996338	6025.579102	2063.897461	14.278682
346.594482	1392.618774	5959.588867	2161.744873	16.841059
346.963043	1419.924927	5879.945801	2120.785400	15.714287
347.331543	1426.751587	5604.607910	2088.927979	15.849669
347.700043	1397.169800	5415.739746	2113.958740	17.836916
348.068512	1378.965576	5217.769043	1972.876587	15.471253
348.436951	1419.924927	5190.462891	2034.315552	16.294508
348.805328	1406.271851	5115.370605	1979.703125	15.460125
349.173645	1358.485962	5129.023926	1981.978638	16.535908
349.541931	1454.057739	5106.268555	1968.325439	14.080997
349.910217	1374.414551	5283.759277	2032.040039	16.821886
350.278473	1381.241089	5361.126953	2000.182739	15.551744
350.646667	1392.618774	5497.658203	1968.325439	14.024387
351.014801	1413.098389	5424.841797	2066.172852	16.279068
351.382935	1392.618774	5422.565918	1997.907227	15.019761
351.751007	1312.975464	5563.648438	2129.887451	19.218416
352.119049	1365.312500	5436.219238	2068.448486	17.272221
352.487091	1324.353149	5465.800781	1968.325439	15.549449
352.855072	1369.863525	5618.260742	2045.693237	15.907874
353.222992	1381.241089	5552.270996	2059.346436	16.257504
353.590881	1326.628662	5707.006348	2152.642578	18.857138
353.958740	1422.200562	5779.822754	2061.621826	14.673628
354.326599	1340.281738	6116.600098	2120.785400	16.341114
354.694397	1408.547363	6084.742676	2166.295898	16.204382
355.062134	1397.169800	6282.712891	2145.816162	15.323709
355.429840	1378.965576	6284.988281	2157.193604	15.862708
355.797516	1358.485962	6335.049805	2148.091553	15.866481
356.165192	1319.802124	6635.418457	2245.938965	17.422945
356.532776	1385.792114	6794.705078	2273.245361	16.407238
356.900360	1472.261963	6924.409668	2239.112549	14.065111
357.267883	1388.067749	7033.634766	2364.266113	17.291414
357.635376	1449.506714	7393.166992	2284.622803	14.050535
358.002808	1322.077637	7848.271484	2359.715088	15.899581
358.370270	1440.404663	8116.782715	2405.225586	14.451262
358.737640	1328.904175	7977.976074	2364.266113	15.571526
359.105011	1356.210449	7968.874023	2359.715088	15.175498
359.472321	1290.220337	7520.596191	2380.194824	17.494522
359.839569	1374.414551	7290.768555	2346.062012	16.423079
360.206787	1367.588013	7361.309570	2291.449463	15.413819
360.574005	1392.618774	7616.167969	2375.643799	15.795248
360.941193	1353.934937	7943.843262	2432.531738	16.367403
361.308319	1408.547363	8519.549805	2530.379150	15.776001
361.675415	1374.414551	9079.328125	2534.930176	15.062020
362.042450	1449.506714	9639.106445	2664.634766	14.837454
362.409424	1353.934937	10053.250977	2753.380127	16.086842
362.776428	1433.578125	10248.945313	2798.890625	15.487868
363.143402	1360.761475	9905.341797	2666.910400	15.286285
363.510284	1433.578125	9184.001953	2566.787354	14.621255
363.877136	1322.077637	8508.171875	2562.236328	17.257757
364.243988	1385.792114	7818.689453	2387.021240	15.564201
364.610779	1390.343262	7638.923340	2380.194824	15.841224
364.977539	1440.404663	7454.605957	2284.622803	14.037079
365.344269	1438.129150	7217.952148	2250.489990	14.055116
365.710938	1381.241089	7327.176758	2296.000488	15.384617
366.077576	1287.944824	7054.114258	2239.112549	16.495661
366.444183	1358.485962	6903.930176	2327.857666	17.480505
366.810760	1374.414551	6851.593262	2252.765625	16.036560
367.177277	1460.884399	7072.318848	2230.010498	13.706408
367.543823	1424.476074	7026.808105	2286.898438	15.393989
367.910248	1265.189575	6990.399902	2175.397949	15.898252
368.276642	1310.699951	6851.593262	2239.112549	16.755648
368.643036	1294.771362	6844.766602	2209.530762	16.482166
369.009399	1397.169800	6535.295898	2166.295898	14.969001
369.375671	1351.659302	6521.642578	2141.265137	15.272889
369.741974	1394.894287	6482.958984	2164.020264	15.116279
370.108215	1399.445313	6505.713867	2239.112549	16.443851
370.474396	1383.516602	6467.030273	2230.010498	16.651749
370.840546	1328.904175	6646.796387	2230.010498	16.944803
371.206665	1333.455200	6787.878418	2195.877686	15.811433
371.572784	1385.792114	6835.664551	2152.642578	14.070980
371.938843	1442.680176	7013.155273	2170.846924	13.071897
372.304840	1392.618774	7040.461426	2159.469238	13.577759
372.670807	1347.108276	7097.349609	2289.173828	16.383062
373.036713	1306.148926	6990.399902	2232.285889	16.293034
373.402649	1394.894287	6819.735840	2309.653564	16.862413
373.768524	1424.476074	6958.542480	2207.255127	14.144735
374.134308	1447.231201	6822.011230	2170.846924	13.463168
374.500122	1360.761475	6999.501953	2175.397949	14.447136
374.865875	1349.383789	7145.135254	2223.183838	15.076562
375.231567	1417.649414	7010.879395	2346.062012	16.598864
375.597260	1415.373901	7256.635742	2268.694336	14.608495
375.962891	1383.516602	7211.125488	2214.081787	14.252247
376.328461	1394.894287	7511.494141	2282.347412	14.508929
376.694031	1401.720825	7714.015625	2318.755615	14.527756
377.059540	1413.098389	7946.118652	2346.062012	14.280739
377.425049	1435.853638	8241.936523	2453.011475	14.944835
377.790497	1429.027100	8437.630859	2414.327637	14.058443
378.155945	1403.996338	8769.857422	2482.593262	14.643188
378.521301	1290.220337	8772.132813	2489.419678	16.027979
378.886597	1326.628662	8592.366211	2425.705078	15.126840
379.251892	1369.863525	8096.303223	2398.398926	15.290934
379.617157	1374.414551	7873.301758	2339.235352	14.845939
379.982422	1358.485962	7650.300781	2307.378174	15.081375
380.347595	1301.597900	7465.983887	2268.694336	15.688448
380.712738	1363.036987	7336.279297	2357.439453	16.647617
381.077820	1406.271851	7568.382324	2327.857666	14.955685
381.442902	1385.792114	7347.656738	2257.316650	14.618321
381.807953	1388.067749	7575.208984	2257.316650	14.049282
382.172974	1449.506714	7611.617188	2307.378174	13.921716
382.537933	1356.210449	7618.443848	2245.938965	14.207847
382.902832	1342.557251	7440.953125	2268.694336	15.186568
383.267700	1347.108276	7745.873047	2305.102539	14.971550
383.632538	1392.618774	7800.485352	2284.622803	13.920452
383.997345	1349.383789	7971.149414	2286.898438	14.158076
384.362152	1317.526489	8132.711426	2377.919189	15.559265
384.726898	1413.098389	8194.150391	2396.123291	14.496644
385.091553	1422.200562	8403.498047	2423.429688	14.341591
385.456238	1374.414551	8237.385742	2416.603027	15.185675
385.820862	1378.965576	8055.343750	2330.133301	14.246763
386.185425	1347.108276	8360.263672	2409.776611	15.152500
386.549988	1360.761475	8328.406250	2361.990479	14.369691
386.914490	1388.067749	8373.916992	2430.256104	14.918564
387.278961	1308.424438	8385.293945	2393.847900	15.337622
387.643372	1422.200562	8483.141602	2466.664551	14.792136
388.007782	1365.312500	8580.989258	2398.398926	14.317249
388.372101	1324.353149	8551.407227	2434.807373	15.365240
388.736450	1390.343262	8460.386719	2402.949951	14.322496
389.100739	1417.649414	8464.937500	2350.613037	13.238619
389.464966	1378.965576	8398.947266	2464.388916	15.461912
389.829163	1344.832764	8328.406250	2314.204590	13.880743
390.193329	1472.261963	8537.753906	2389.296875	12.979066
390.557495	1413.098389	8408.049805	2418.878662	14.378660
390.921570	1397.169800	8676.560547	2432.531738	14.223195
391.285614	1408.547363	8626.499023	2446.184814	14.375789
391.649597	1440.404663	9407.002930	2400.674561	12.053700
392.013550	1376.690063	9814.321289	2453.011475	12.756204
392.377502	1374.414551	9825.699219	2532.654541	13.704898
392.741455	1342.557251	9689.167969	2455.286865	13.331515
393.105316	1378.965576	9873.484375	2503.072998	13.233327
393.469086	1424.476074	9550.360352	2380.194824	11.761413
393.832886	1358.485962	9347.839844	2366.541748	12.617488
394.196655	1338.006226	9370.594727	2512.175049	14.617565
394.560333	1401.720825	9486.646484	2514.450439	13.763016
394.924042	1326.628662	9777.913086	2521.277100	14.135703
395.287659	1403.996338	9752.881836	2478.042236	12.864542
395.651245	1403.996338	9707.372070	2432.531738	12.386954
396.014771	1435.853638	9545.809570	2375.643799	11.588104
396.378296	1413.098389	9224.960938	2412.052002	12.787650
396.741791	1381.241089	8965.551758	2459.837891	14.221422
397.105255	1374.414551	8788.061523	2359.715088	13.290362
397.468628	1363.036987	8683.387695	2264.143311	12.309607
397.832001	1381.241089	8644.703125	2311.929199	12.813286
398.195313	1338.006226	8685.663086	2277.796387	12.790339
398.558624	1381.241089	8849.500000	2209.530762	11.090800
398.921844	1385.792114	8756.204102	2314.204590	12.596479
399.285095	1363.036987	8726.622070	2173.122314	11.001236
399.648254	1324.353149	8774.408203	2234.561523	12.217471
400.011383	1415.373901	8765.305664	2321.031250	12.321983
400.374451	1399.445313	8521.825195	2189.051025	11.086263
400.737549	1383.516602	9147.593750	2168.571289	10.111372
401.100586	1367.588013	8781.234375	2259.592041	12.031920
401.463562	1326.628662	8599.193359	2200.428711	12.015019
401.826508	1388.067749	9013.337891	2232.285889	11.071321
402.189392	1360.761475	8831.295898	2286.898438	12.397199
402.552246	1353.934937	8753.928711	2225.459229	11.777366
402.915070	1376.690063	8835.847656	2248.214600	11.683953
403.277893	1442.680176	9147.593750	2216.357178	10.041346
403.640656	1440.404663	9234.063477	2293.724854	10.948904
404.003326	1431.302612	9491.197266	2330.133301	11.151892
404.366028	1388.067749	9682.340820	2375.643799	11.906722
404.728699	1397.169800	9980.434570	2352.888428	11.134675
405.091248	1349.383789	10308.109375	2309.653564	10.718822
405.453857	1374.414551	10178.404297	2339.235352	10.958903
405.816345	1390.343262	10185.231445	2380.194824	11.254850
406.178833	1394.894287	10114.690430	2284.622803	10.203547
406.541260	1367.588013	10269.425781	2418.878662	11.809815
406.903687	1328.904175	9695.994141	2289.173828	11.476746
407.266052	1310.699951	9755.157227	2257.316650	11.209918
407.628387	1408.547363	9823.422852	2170.846924	9.058953
407.990662	1408.547363	9579.942383	2179.948975	9.440269
408.352905	1347.108276	9618.625977	2211.806152	10.453920
408.715118	1413.098389	9668.687500	2241.387939	10.033076
409.077332	1413.098389	9645.932617	2248.214600	10.143727
409.439484	1363.036987	9725.576172	2111.683350	8.952381
409.801575	1435.853638	9693.718750	2175.397949	8.955635
410.163605	1374.414551	9941.750000	2152.642578	9.083664
410.525635	1308.424438	9991.811523	2214.081787	10.429771
410.887604	1406.271851	10139.720703	2202.704102	9.119332
411.249573	1349.383789	10276.251953	2134.438477	8.794291
411.611481	1442.680176	10162.475586	2177.673340	8.429019
411.973328	1413.098389	10255.772461	2182.224365	8.697889
412.335144	1408.547363	10010.015625	2132.163086	8.412700
412.696930	1401.720825	10126.067383	2100.305664	8.007302
413.058685	1367.588013	9595.871094	2148.091553	9.485619
413.420410	1422.200562	9959.954102	2109.407715	8.049039
413.782104	1381.241089	10073.730469	2027.489014	7.434556
414.143707	1353.934937	10071.455078	2082.101563	8.352910
414.505310	1344.832764	10023.668945	2125.336426	8.993184
414.866852	1378.965576	10160.200195	2093.479248	8.136825
415.228394	1390.343262	10496.977539	2020.662476	6.921538
415.589874	1358.485962	10522.007813	2054.795166	7.598708
415.951324	1451.782227	10435.538086	2061.621826	6.788248
416.312683	1378.965576	10888.367188	2054.795166	7.106963
416.674072	1390.343262	11245.624023	2091.203613	7.111521
417.035370	1413.098389	11379.879883	2107.132324	6.963471
417.396667	1367.588013	11250.174805	2198.153076	8.404328
417.757935	1408.547363	11618.809570	2157.193604	7.332293
418.119141	1394.894287	12242.301758	2177.673340	7.216278
418.480286	1369.863525	12376.557617	2123.060791	6.843083
418.841400	1360.761475	12979.570313	2182.224365	7.070113
419.202484	1413.098389	13311.796875	2259.592041	7.114170
419.563568	1435.853638	13828.339844	2198.153076	6.151303
419.924591	1415.373901	14529.200195	2275.520752	6.559084
420.285553	1331.179688	14586.087891	2270.969727	7.090128
420.646484	1390.343262	15689.715820	2327.857666	6.556332
421.007355	1392.618774	15871.757813	2377.919189	6.804965
421.368225	1342.557251	16888.916016	2443.909424	7.084310
421.729065	1401.720825	17325.814453	2325.582275	5.801658
422.089874	1365.312500	18090.390625	2412.052002	6.258503
422.450592	1322.077637	17860.562500	2441.633789	6.769400
422.811279	1383.516602	17555.642578	2493.970703	6.866469
423.171936	1344.832764	17357.671875	2409.776611	6.650562
423.532593	1378.965576	16775.138672	2371.092773	6.443986
423.893127	1356.210449	17450.968750	2462.113525	6.871201
424.253723	1381.241089	17780.919922	2430.256104	6.396558
424.614197	1433.578125	17901.521484	2455.286865	6.204228
424.974670	1381.241089	18420.341797	2528.103516	6.730768
425.335052	1322.077637	18811.730469	2653.257324	7.611241
425.695496	1381.241089	17758.164063	2512.175049	6.905656
426.055817	1392.618774	18076.736328	2398.398926	6.028369
426.416168	1401.720825	17633.009766	2468.940186	6.575075
426.776398	1381.241089	16750.109375	2393.847900	6.588688
427.136627	1426.751587	16153.921875	2405.225586	6.644006
427.496826	1399.445313	15619.174805	2539.481201	8.017282
427.856995	1356.210449	15232.335938	2343.786377	7.117087
428.217102	1408.547363	14661.180664	2380.194824	7.331731
428.577179	1356.210449	14779.507813	2384.745850	7.662316
428.937195	1365.312500	14622.497070	2336.959961	7.329214
429.297180	1342.557251	14165.117188	2305.102539	7.506655
429.657135	1319.802124	13691.808594	2284.622803	7.798417
430.017059	1403.996338	14149.188477	2239.112549	6.552402
430.376984	1392.618774	13823.789063	2284.622803	7.175544
430.736786	1410.822876	13778.278320	2252.765625	6.807728
431.096588	1322.077637	13562.103516	2245.938965	7.547871
431.456360	1424.476074	13500.665039	2209.530762	6.500848
431.816071	1381.241089	13307.246094	2195.877686	6.830759
432.175781	1394.894287	13448.328125	2152.642578	6.286576
432.535400	1301.597900	13559.828125	2168.571289	7.072582
432.895020	1324.353149	13163.887695	2211.806152	7.495675
433.254578	1401.720825	13457.429688	2309.653564	7.531144
433.614105	1435.853638	13787.380859	2241.387939	6.521739
433.973602	1458.608887	14001.279297	2234.561523	6.186503
434.333038	1363.036987	14014.932617	2227.734863	6.834532
434.692444	1344.832764	14322.127930	2170.846924	6.365072
435.051819	1374.414551	14492.791992	2318.755615	7.198612
435.411133	1424.476074	14574.710938	2296.000488	6.627444
435.770416	1492.741699	13634.920898	2166.295898	5.547226
436.129669	1363.036987	14347.158203	2223.183838	6.624606
436.488861	1342.557251	14087.749023	2216.357178	6.855918
436.848083	1317.526489	14083.198242	2200.428711	6.916222
437.207184	1356.210449	13830.615234	2264.143311	7.278367
437.566254	1324.353149	14285.719727	2218.632813	6.899579
437.925293	1454.057739	14222.004883	2179.948975	5.685262
438.284363	1324.353149	14338.056641	2123.060791	6.137435
438.643311	1351.659302	14706.691406	2134.438477	5.861305
439.002258	1419.924927	14718.068359	2184.500000	5.749487
439.361145	1388.067749	15075.325195	2154.918213	5.602660
439.719971	1388.067749	15564.562500	2227.734863	5.922953
440.078827	1417.649414	15676.062500	2270.969727	5.984679
440.437592	1342.557251	16137.993164	2177.673340	5.644417
440.796295	1347.108276	16015.115234	2127.612061	5.321130
441.155029	1338.006226	17460.070313	2270.969727	5.786874
441.513672	1381.241089	17972.062500	2245.938965	5.211905
441.872253	1385.792114	17667.142578	2223.183838	5.143257
442.230865	1399.445313	17405.458984	2236.836914	5.231731
442.589386	1394.894287	17155.150391	2145.816162	4.764656
442.947876	1403.996338	17248.447266	2118.509766	4.509550
443.306335	1376.690063	16893.466797	2164.020264	5.074058
443.664764	1301.597900	16046.972656	2159.469238	5.817901
444.023102	1360.761475	16556.689453	2150.367188	5.196167
444.381500	1365.312500	16490.699219	2207.255127	5.566421
444.739777	1358.485962	16131.166992	2068.448486	4.805915
445.098022	1408.547363	16297.280273	2159.469238	5.043558
445.456238	1356.210449	16322.310547	2184.500000	5.534438
445.814423	1403.996338	17268.927734	2236.836914	5.249569
446.172577	1351.659302	17896.970703	2280.071777	5.611333
446.530701	1438.129150	17655.765625	2239.112549	4.938965
446.888733	1413.098389	18465.851563	2257.316650	4.950627
447.246765	1417.649414	19273.662109	2305.102539	4.970052
447.604736	1458.608887	18754.841797	2350.613037	5.157217
447.962677	1394.894287	18914.128906	2293.724854	5.130536
448.320587	1424.476074	19369.232422	2368.817139	5.262490
448.678436	1403.996338	18973.292969	2350.613037	5.387903
449.036255	1369.863525	18795.802734	2257.316650	5.092713
449.394043	1358.485962	17865.113281	2332.408936	5.900194
449.751770	1349.383789	17630.734375	2243.663574	5.492663
450.109467	1372.139038	17623.908203	2273.245361	5.544666
450.467163	1342.557251	17350.845703	2309.653564	6.041223
450.824768	1349.383789	17241.621094	2348.337402	6.285796
451.182343	1331.179688	16959.457031	2387.021240	6.755969
451.539886	1363.036987	15960.502930	2343.786377	6.718628
451.897369	1435.853638	16338.239258	2375.643799	6.306307
452.254822	1426.751587	16158.473633	2364.266113	6.363917
452.612274	1272.016113	16925.324219	2389.296875	7.137665
452.969635	1363.036987	16583.996094	2432.531738	7.026461
453.326965	1378.965576	16467.943359	2500.797363	7.434777
453.684326	1403.996338	16185.779297	2550.858887	7.758621
454.041534	1394.894287	15980.982422	2600.920166	8.268330
454.398773	1390.343262	15503.123047	2421.154053	7.304095
454.755951	1433.578125	15129.937500	2487.144287	7.692308
455.113098	1408.547363	14636.149414	2557.685303	8.687425
455.470215	1408.547363	15032.090820	2598.644775	8.735594
455.827240	1374.414551	14959.273438	2644.155273	9.346734
456.184265	1492.741699	14759.028320	2739.727051	9.399656
456.541260	1347.108276	14781.783203	2807.992676	10.873984
456.898193	1385.792114	14381.291016	2817.094727	11.013833
457.255096	1374.414551	14727.170898	2919.493164	11.571234
457.611969	1360.761475	14611.119141	2958.177002	12.055641
457.968781	1374.414551	14888.732422	2987.758789	11.938036
458.325531	1376.690063	14991.130859	3153.871826	13.053653
458.682312	1401.720825	15830.797852	3185.729004	12.363979
459.039001	1360.761475	16304.106445	3338.188965	13.232831
459.395630	1429.027100	17216.589844	3570.292236	13.562987
459.752289	1385.792114	18661.546875	3806.946289	14.014753
460.108856	1376.690063	19712.835938	4077.733398	14.730704
460.465363	1422.200562	20363.634766	4173.305176	14.524267
460.821899	1385.792114	20441.003906	4334.867188	15.476477
461.178345	1458.608887	20004.103516	4277.979004	15.202454
461.534760	1372.139038	19492.111328	4325.765137	16.300388
461.891144	1342.557251	19321.447266	4323.489746	16.580181
462.247467	1351.659302	18092.666016	4145.999023	16.691589
462.603760	1438.129150	17890.144531	4175.580566	16.639004
462.960052	1317.526489	16822.925781	4225.642090	18.755503
463.316254	1347.108276	16392.851563	4191.509277	18.905022
463.672424	1433.578125	16263.147461	4177.855957	18.505445
464.028564	1363.036987	15503.123047	4050.427002	19.005472
464.384644	1340.281738	15450.786133	4180.131836	20.125788
464.740723	1335.730713	15575.939453	4298.458984	20.805370
465.096741	1383.516602	15377.969727	4309.836426	20.910570
465.452698	1390.343262	15266.468750	4432.714355	21.925220
465.808655	1451.782227	15694.266602	4366.724609	20.466530
466.164520	1344.832764	15352.938477	4432.714355	22.043535
466.520355	1381.241089	16413.332031	4537.388672	20.996065
466.876190	1381.241089	16240.391602	4712.603516	22.419601
467.231964	1433.578125	16210.810547	4739.909668	22.374498
467.587677	1392.618774	16948.078125	4917.400391	22.659452
467.943390	1397.169800	16993.589844	5097.166504	23.723372
468.299011	1415.373901	16274.524414	4906.022949	23.491579
468.654633	1429.027100	16406.505859	5053.931641	24.202368
469.010223	1442.680176	16317.759766	4960.635254	23.649990
469.365723	1381.241089	16035.594727	4919.675781	24.145962
469.721191	1388.067749	16003.738281	5006.145996	24.754786
470.076660	1360.761475	15425.755859	4992.492676	25.821064
470.432068	1394.894287	15521.327148	5051.656250	25.885954
470.787445	1340.281738	15530.429688	5156.330078	26.892237
471.142792	1338.006226	15398.449219	5042.554199	26.347305
471.498016	1322.077637	15960.502930	5069.860352	25.602362
471.853271	1383.516602	15516.776367	5049.380859	25.937855
472.208496	1388.067749	15737.501953	5197.289551	26.546144
472.563660	1403.996338	15773.910156	5404.361816	27.838478
472.918762	1399.445313	15971.880859	5445.321289	27.763897
473.273865	1442.680176	16761.486328	5663.771484	27.554962
473.628876	1365.312500	16970.833984	5679.699707	27.646544
473.983917	1358.485962	16861.609375	5716.108398	28.108030
474.338837	1369.863525	16786.517578	5779.822754	28.605162
474.693787	1397.169800	16718.251953	5745.689941	28.382591
475.048645	1378.965576	16882.087891	5793.476074	28.474979
475.403503	1406.271851	16866.160156	5973.242188	29.540770
475.758270	1433.578125	17202.937500	5982.344238	28.845598
476.113037	1410.822876	17107.365234	5850.363770	28.283562
476.467773	1458.608887	17257.548828	5980.068848	28.618755
476.822418	1419.924927	18399.861328	6321.396973	28.866259
477.177063	1369.863525	17712.654297	6444.274902	31.049845
477.531647	1399.445313	18363.453125	6416.968750	29.577465
477.886200	1422.200562	18802.628906	6514.815918	29.300863
478.240723	1281.118164	19405.640625	6837.939941	30.659134
478.595184	1265.189575	19564.927734	6878.899414	30.676449
478.949585	1399.445313	19812.958984	7029.083984	30.573408
479.303986	1390.343262	19956.318359	7013.155273	30.285574
479.658325	1374.414551	20327.226563	7076.869629	30.087646
480.012634	1401.720825	20017.755859	7377.238281	32.098766
480.366913	1344.832764	20780.056641	7445.503906	31.389763
480.721130	1306.148926	21312.527344	7670.780762	31.813013
481.075317	1419.924927	21685.712891	7823.240723	31.596680
481.429474	1394.894287	22743.830078	8116.782715	31.485826
481.783569	1319.802124	24054.531250	8576.437500	31.918724
482.137604	1417.649414	24598.378906	9086.154297	33.081379
482.491669	1394.894287	26844.318359	9780.188477	32.948856
482.845612	1383.516602	29565.841797	10462.844727	32.216393
483.199554	1376.690063	33013.253906	11634.738281	32.424660
483.553436	1413.098389	38042.156250	13762.349609	33.714355
483.907318	1358.485962	44593.382813	15955.952148	33.763157
484.261139	1392.618774	51827.261719	18575.076172	34.068760
484.614899	1365.312500	54972.031250	19922.185547	34.616692
484.968628	1406.271851	55147.246094	20101.951172	34.788502
485.322357	1312.975464	53194.851563	19355.580078	34.776318
485.675964	1376.690063	49699.648438	17705.828125	33.791676
486.029572	1388.067749	45867.671875	16376.922852	33.698265
486.383148	1365.312500	42611.402344	15391.623047	34.006401
486.736694	1347.108276	40135.636719	14690.762695	34.401035
487.090149	1390.343262	39992.277344	14661.180664	34.378689
487.443604	1426.751587	40686.312500	14979.753906	34.521530
487.796997	1417.649414	42342.890625	15500.847656	34.412010
488.150360	1390.343262	44051.808594	16131.166992	34.553020
488.503693	1376.690063	44802.730469	16720.527344	35.333263
488.856964	1363.036987	44299.839844	16260.872070	34.697121
489.210175	1358.485962	41992.460938	15560.011719	34.949879
489.563416	1495.017212	39990.003906	14840.946289	34.669262
489.916565	1408.547363	37557.472656	13933.013672	34.646858
490.269653	1479.088501	34886.007813	13093.346680	34.766026
490.622772	1392.618774	33912.085938	12870.345703	35.294941
490.975769	1390.343262	33445.605469	12827.110352	35.678284
491.328735	1353.934937	34876.906250	13152.509766	35.195492
491.681732	1401.720825	36742.835938	13764.625000	34.981647
492.034607	1390.343262	39123.027344	14558.782227	34.899292
492.387482	1353.934937	39880.777344	15191.376953	35.916367
492.740326	1463.159912	39093.449219	14854.599609	35.586864
493.093079	1390.343262	37502.859375	14356.260742	35.904224
493.445862	1431.302612	34394.496094	13266.286133	35.903629
493.798523	1447.231201	31925.556641	12235.475586	35.396446
494.151215	1385.792114	29688.720703	11532.339844	35.849815
494.503815	1390.343262	27695.363281	10578.896484	34.930798
494.856384	1308.424438	25934.111328	10210.261719	36.148582
495.208923	1353.934937	24691.675781	9800.667969	36.193451
495.561432	1419.924927	24020.398438	9404.727539	35.330246
495.913879	1394.894287	23467.445313	9311.430664	35.865978
496.266296	1331.179688	23574.394531	9334.186523	35.979542
496.618683	1372.139038	23531.160156	9461.615234	36.506470
496.970978	1378.965576	24354.898438	9598.146484	35.772999
497.323273	1403.996338	23949.855469	9693.718750	36.768272
497.675507	1410.822876	24571.074219	9746.055664	35.989388
498.027710	1456.333252	24434.542969	9773.362305	36.195290
498.379852	1449.506714	24052.253906	9768.810547	36.806602
498.731995	1417.649414	24100.041016	9568.565430	35.934994
499.084076	1356.210449	23795.121094	9582.217773	36.659569
499.436096	1356.210449	23783.744141	9302.329102	35.430195
499.788086	1444.955688	22536.757813	9143.042969	36.498005
500.140106	1419.924927	22493.523438	9127.114258	36.572727
500.491943	1349.383789	22240.939453	8885.909180	36.074509
500.843842	1447.231201	21731.224609	8895.010742	36.717518
501.195679	1388.067749	21125.935547	8571.886719	36.396126
501.547455	1356.210449	20841.494141	8674.285156	37.556934
501.899231	1358.485962	20814.189453	8405.773438	36.222221
502.250885	1356.210449	20511.544922	8319.303711	36.350674
502.602600	1442.680176	20466.033203	8353.436523	36.327751
502.954193	1435.853638	20406.871094	8305.651367	36.212067
503.305786	1429.027100	20199.798828	8549.131836	37.931870
503.657379	1388.067749	20648.076172	8351.161133	36.153118
504.008820	1335.730713	20495.615234	8542.304688	37.612827
504.360291	1351.659302	20843.771484	8533.203125	36.843334
504.711700	1363.036987	20805.085938	8646.979492	37.464890
505.063080	1401.720825	20839.218750	8360.263672	35.799583
505.414368	1401.720825	20855.148438	8517.274414	36.577377
505.765656	1410.822876	20666.279297	8360.263672	36.090759
506.116943	1333.455200	20677.658203	8501.345703	37.054462
506.468109	1349.383789	20495.615234	8528.652344	37.497032
506.819305	1342.557251	20388.666016	8578.713867	37.992836
507.170410	1415.373901	20689.035156	8471.763672	36.611568
507.521484	1358.485962	20436.453125	8551.407227	37.702766
507.872559	1390.343262	20356.808594	8464.937500	37.300541
508.223480	1367.588013	20550.228516	8430.804688	36.820877
508.574493	1401.720825	21098.628906	8676.560547	36.933918
508.925385	1438.129150	21073.597656	8710.693359	37.037895
509.276245	1385.792114	21444.507813	8801.714844	36.971077
509.627045	1426.751587	21874.582031	8788.061523	36.000446
509.977814	1403.996338	22272.796875	9061.124023	36.691750
510.328613	1410.822876	22391.125000	8869.980469	35.553146
510.679260	1374.414551	22090.755859	8995.133789	36.786026
511.029999	1397.169800	22409.328125	9052.021484	36.430584
511.380585	1299.322388	22341.062500	9106.633789	37.103924
511.731140	1469.986450	22828.025391	9124.838867	35.840614
512.081726	1392.618774	22909.943359	9334.186523	36.907787
512.432129	1403.996338	23399.179688	9315.982422	35.971451
512.782654	1319.802124	23417.384766	9472.993164	36.896305
513.133057	1415.373901	23483.375000	9666.412109	37.389149
513.483398	1378.965576	23355.945313	9441.135742	36.684612
513.833801	1353.934937	23622.181641	9436.584961	36.296753
514.183960	1408.547363	22989.585938	9368.319336	36.883175
514.534302	1419.924927	23037.373047	9336.461914	36.621056
514.884460	1367.588013	23014.617188	9395.625000	37.086090
515.234619	1403.996338	22814.371094	9227.237305	36.539486
515.584717	1378.965576	22684.666016	9188.552734	36.654915
515.934753	1326.628662	22691.494141	9286.400391	37.256363
516.284851	1392.618774	22946.351563	9174.899414	36.106419
516.634766	1399.445313	22853.054688	9375.145508	37.176495
516.984741	1458.608887	23208.037109	9475.268555	36.859177
517.334595	1365.312500	24020.398438	9843.903320	37.424667
517.684448	1372.139038	24773.595703	9969.056641	36.736679
518.034363	1422.200562	25417.566406	10173.853516	36.472267
518.384094	1378.965576	26621.318359	10558.416992	36.365276
518.733826	1385.792114	27590.689453	11043.102539	36.853077
519.083496	1326.628662	28701.144531	11382.155273	36.733166
519.433167	1363.036987	28894.562500	11473.175781	36.722042
519.782776	1328.904175	29163.074219	11536.890625	36.674297
520.132324	1294.771362	28425.806641	11106.817383	36.165394
520.481873	1351.659302	27827.343750	11370.777344	37.842716
520.831299	1342.557251	27263.015625	11120.469727	37.722759
521.180786	1312.975464	26751.023438	10622.130859	36.595398
521.530151	1426.751587	26327.775391	10440.089844	36.196655
521.879517	1403.996338	25483.556641	10251.221680	36.741642
522.228882	1356.210449	25761.171875	10399.129883	37.053612
522.578064	1397.169800	25155.882813	10098.761719	36.624844
522.927307	1372.139038	25399.363281	10201.160156	36.745907
523.276489	1319.802124	25228.699219	10173.853516	37.032455
523.625610	1317.526489	25836.263672	10244.394531	36.408352
523.974792	1376.690063	25927.283203	10262.598633	36.194271
524.323792	1331.179688	26603.113281	10608.477539	36.709885
524.672852	1399.445313	26967.197266	10788.244141	36.721252
525.021790	1358.485962	27599.791016	11047.653320	36.923344
525.370728	1392.618774	29126.666016	11459.522461	36.297997
525.719604	1360.761475	30755.939453	12026.126953	36.282703
526.068420	1363.036987	32626.417969	12708.783203	36.290848
526.417297	1367.588013	33233.980469	13059.213867	36.689518
526.765991	1431.302612	34374.015625	13518.869141	36.692684
527.114746	1392.618774	35379.796875	13948.942383	36.944294
527.463379	1410.822876	36647.261719	14208.351563	36.319019
527.812012	1417.649414	38394.863281	15100.356445	37.003075
528.160706	1476.812988	41778.562500	16092.483398	36.265594
528.509155	1444.955688	46067.917969	17842.359375	36.746563
528.857727	1401.720825	50678.125000	20177.042969	38.102055
529.206177	1440.404663	54742.203125	21756.253906	38.114754
529.554565	1415.373901	55365.695313	22238.664063	38.597160
529.902893	1353.934937	54284.824219	21508.222656	38.076607
530.251221	1360.761475	51758.996094	20381.839844	37.741558
530.599548	1363.036987	48297.929688	18488.607422	36.487926
530.947876	1347.108276	44943.812500	17487.376953	37.021763
531.296021	1449.506714	41007.160156	16486.148438	38.011967
531.644165	1406.271851	38410.792969	15152.693359	37.147953
531.992249	1438.129150	36474.324219	14274.341797	36.637005
532.340454	1324.353149	35443.511719	13760.074219	36.447910
532.688354	1419.924927	35152.246094	13766.900391	36.602806
533.036438	1365.312500	35969.156250	14149.188477	36.943516
533.384338	1360.761475	37821.429688	14761.303711	36.753418
533.732239	1392.618774	40349.535156	15660.133789	36.623829
534.080139	1388.067749	40649.902344	15457.613281	35.835171
534.427917	1388.067749	40731.824219	15610.072266	36.148060
534.775757	1388.067749	39243.632813	14947.896484	35.819908
535.123474	1381.241089	37316.265625	14513.271484	36.543819
535.471191	1372.139038	34797.265625	13712.288086	36.918781
535.818848	1335.730713	33953.046875	13311.796875	36.716896
536.166382	1399.445313	33120.207031	12802.080078	35.946915
536.513977	1463.159912	32471.681641	12613.211914	35.958023
536.861511	1365.312500	33193.023438	13081.968750	36.812752
537.208984	1399.445313	33161.164063	13029.631836	36.616993
537.556396	1358.485962	33147.511719	12811.181641	36.027199
537.903809	1403.996338	32387.488281	12843.039063	36.919800
538.251160	1435.853638	31188.289063	12353.802734	36.695984
538.598389	1397.169800	30419.162109	12044.332031	36.686531
538.945740	1363.036987	29188.105469	11775.820313	37.422310
539.292969	1401.720825	28601.021484	11345.747070	36.559860
539.640137	1417.649414	28682.939453	11436.767578	36.746788
539.987244	1363.036987	28553.234375	11252.450195	36.371243
540.334351	1419.924927	29197.207031	11707.554688	37.036129
540.681458	1415.373901	31151.878906	12376.557617	36.861034
541.028442	1344.832764	33218.050781	13434.674805	37.931034
541.375366	1401.720825	36224.015625	14561.057617	37.789978
541.722290	1403.996338	39728.316406	16133.442383	38.433678
542.069153	1376.690063	41507.773438	17004.966797	38.943073
542.416016	1367.588013	41865.031250	16979.935547	38.551441
542.762756	1406.271851	41346.214844	16408.781250	37.562672
543.109558	1360.761475	40128.808594	16210.810547	38.304867
543.456299	1381.241089	38199.167969	15539.531250	38.454884
543.802917	1397.169800	36845.234375	14749.925781	37.668503
544.149536	1438.129150	35211.410156	14549.679688	38.822258
544.496094	1367.588013	33224.878906	13523.419922	38.157143
544.842651	1410.822876	31661.595703	12667.824219	37.212276
545.189148	1358.485962	30020.945313	12255.955078	38.020008
545.535583	1383.516602	28767.134766	12062.536133	38.997841
545.882019	1413.098389	28218.734375	11994.270508	39.473682
546.228333	1413.098389	27772.730469	11844.085938	39.571823
546.574707	1297.046875	27501.945313	12051.158203	41.038555
546.920898	1349.383789	27267.566406	11757.616211	40.158031
547.267212	1317.526489	27472.363281	12192.240234	41.578217
547.613342	1369.863525	27547.455078	11730.309570	39.577538
547.959473	1419.924927	26930.789063	11343.471680	38.899300
548.305664	1369.863525	26616.767578	11277.481445	39.242905
548.651611	1438.129150	25319.720703	10490.151367	37.903767
548.997742	1417.649414	24341.246094	10349.068359	38.961681
549.343689	1344.832764	23535.710938	9789.290039	38.053730
549.689575	1388.067749	22391.125000	9311.430664	37.724808
550.035522	1422.200562	21988.357422	9286.400391	38.238548
550.381287	1408.547363	21244.261719	8831.295898	37.421131
550.727173	1388.067749	20868.800781	8439.906250	36.199039
551.072876	1424.476074	20518.371094	8301.099609	36.014778
551.418640	1317.526489	20122.429688	8098.578613	36.060024
551.764282	1419.924927	20252.134766	7998.455566	34.932339
552.109863	1378.965576	19963.144531	7959.771973	35.410801
552.455505	1424.476074	20204.349609	7802.760742	33.963406
552.801025	1372.139038	20190.695313	7911.985840	34.752117
553.146545	1351.659302	20693.585938	8139.538086	35.094120
553.491943	1378.965576	21098.628906	8098.578613	34.075699
553.837341	1424.476074	21094.078125	7946.118652	33.155945
554.182800	1385.792114	20372.738281	8041.690430	35.055130
554.528015	1353.934937	20359.083984	7984.802734	34.889851
554.873352	1310.699951	19949.490234	7643.474609	33.976315
555.218628	1397.169800	19751.521484	7852.822266	35.172325
555.563721	1426.751587	19423.845703	7675.331543	34.719940
555.908875	1324.353149	19203.119141	7425.024414	34.122440
556.254028	1449.506714	18677.474609	7158.788574	33.139610
556.599121	1397.169800	18693.404297	7472.810547	35.126957
556.944031	1433.578125	18352.076172	7174.717285	33.934093
557.289063	1385.792114	18336.146484	7149.686523	34.004570
557.633972	1449.506714	18131.349609	6926.685547	32.833172
557.978882	1397.169800	18329.320313	7076.869629	33.543877
558.323792	1415.373901	17858.287109	6983.573242	33.863823
558.668518	1490.466064	17623.908203	6869.797363	33.342735
559.013306	1363.036987	17883.318359	6876.624023	33.374657
559.358032	1401.720825	17680.796875	6933.511719	33.980988
559.702637	1485.915039	17633.009766	6744.643555	32.567646
560.047363	1394.894287	17760.439453	6733.266113	32.619579
560.391846	1401.720825	17514.683594	6844.766602	33.780540
560.736450	1390.343262	17398.632813	6769.674316	33.603409
561.080933	1374.414551	17992.542969	6826.562500	32.808434
561.425354	1333.455200	17648.939453	6876.624023	33.974895
561.769775	1378.965576	17856.011719	6719.612793	32.412651
562.114136	1385.792114	17812.777344	6796.980469	32.940849
562.458496	1340.281738	18099.492188	6730.990723	32.165649
562.802673	1356.210449	18101.767578	6862.970703	32.884903
563.146912	1390.343262	17835.531250	6717.337402	32.392418
563.491150	1353.934937	17721.755859	6665.000488	32.448212
563.835266	1365.312500	17692.173828	6539.846680	31.693380
564.179443	1413.098389	17612.531250	6730.990723	32.827648
564.523438	1399.445313	17514.683594	6735.541504	33.112114
564.867493	1376.690063	17607.980469	6639.969727	32.426750
565.211426	1472.261963	17837.806641	6753.745605	32.271969
565.555359	1381.241089	18085.839844	6801.531738	32.447891
565.899231	1401.720825	18331.595703	6767.398926	31.693548
566.243042	1397.169800	19016.527344	6956.267090	31.551077
566.586914	1376.690063	19526.244141	7192.921387	32.046139
566.930603	1342.557251	20008.654297	7359.034180	32.232109
567.274292	1381.241089	20095.125000	7299.870605	31.626942
567.617981	1388.067749	20017.755859	7277.115723	31.611094
567.961609	1360.761475	19528.519531	7199.748047	32.139278
568.305237	1365.312500	19164.435547	7111.002441	32.280746
568.648682	1447.231201	19052.935547	6831.113281	30.580324
568.992188	1376.690063	18811.730469	6919.858887	31.793266
569.335632	1367.588013	18493.158203	6913.032227	32.381077
569.679016	1451.782227	18613.759766	6742.368164	30.827370
570.022461	1465.435425	18388.484375	6799.256348	31.518084
570.365662	1363.036987	18556.873047	6828.837891	31.789305
570.708984	1438.129150	18586.453125	6749.194824	30.971338
571.052185	1440.404663	18377.105469	6667.275879	30.861212
571.395386	1399.445313	18670.648438	6774.225586	31.119894
571.738525	1381.241089	19196.292969	6824.287109	30.553072
572.081604	1372.139038	19469.355469	6913.032227	30.617376
572.424683	1390.343262	19683.255859	7188.370117	31.695482
572.767578	1333.455200	20095.125000	7136.033203	30.927834
573.110596	1338.006226	20035.960938	7120.104492	30.923693
573.453552	1342.557251	20047.337891	6990.399902	30.194647
573.796387	1312.975464	20020.031250	6981.297852	30.300449
574.139282	1399.445313	19558.101563	7040.461426	31.065163
574.481995	1435.853638	19471.630859	6828.837891	29.901590
574.824768	1390.343262	19371.507813	6687.755859	29.460899
575.167480	1392.618774	19469.355469	6849.317383	30.186304
575.510132	1388.067749	19037.007813	6601.285645	29.538420
575.852722	1417.649414	18982.394531	6555.775391	29.252493
576.195251	1369.863525	18968.742188	6753.745605	30.592186
576.537842	1424.476074	18736.638672	6683.204590	30.375919
576.880188	1349.383789	18836.761719	6464.754395	29.251785
577.222717	1433.578125	18185.962891	6467.030273	30.046183
577.565063	1397.169800	17851.460938	6321.396973	29.926704
577.907410	1351.659302	17760.439453	6137.079590	29.163780
578.249756	1413.098389	17052.751953	6114.324219	30.059654
578.591919	1312.975464	16661.363281	6221.273926	31.979244
578.934204	1426.751587	16231.290039	5925.456055	30.387335
579.276306	1378.965576	16128.891602	5791.200684	29.913610
579.618469	1376.690063	16092.483398	5704.730469	29.410854
579.960571	1374.414551	15594.144531	5590.954590	29.652742
580.302551	1312.975464	15366.591797	5527.240234	29.987047
580.644531	1408.547363	15209.581055	5511.311523	29.727949
580.986511	1310.699951	15079.875977	5431.667969	29.928936
581.328369	1388.067749	14790.884766	5554.546387	31.086588
581.670227	1392.618774	14699.864258	5342.922852	29.685364
582.012024	1347.108276	14581.537109	5299.687988	29.865887
582.353821	1331.179688	14774.957031	5190.462891	28.706837
582.695496	1383.516602	14754.476563	5354.300293	29.697073
583.037231	1394.894287	14472.312500	5324.718750	30.050461
583.378845	1406.271851	14779.507813	5192.738281	28.313763
583.720398	1390.343262	14613.394531	5226.871094	29.013939
584.062012	1376.690063	14561.057617	4967.461914	27.235073
584.403442	1431.302612	14545.128906	5156.330078	28.405344
584.744934	1385.792114	14499.618164	5058.482910	28.006250
585.086365	1381.241089	14429.077148	5040.278809	28.043253
585.427734	1338.006226	14308.474609	5035.727539	28.508770
585.768982	1376.690063	14024.035156	5006.145996	28.697376
586.110291	1356.210449	14363.086914	5008.421387	28.079077
586.451599	1435.853638	14035.412109	4972.013184	28.065742
586.792725	1335.730713	13921.636719	4890.094238	28.240824
587.133850	1381.241089	14174.218750	4985.666016	28.175026
587.474915	1479.088501	14137.810547	4965.186523	27.539101
587.815979	1376.690063	14090.024414	4965.186523	28.226244
588.157043	1417.649414	14105.953125	5024.350098	28.425396
588.497925	1440.404663	14046.790039	4960.635254	27.924185
588.838867	1401.720825	14456.383789	4978.839355	27.401079
589.179749	1417.649414	14379.015625	4894.645020	26.825842
589.520569	1431.302612	14404.046875	4992.492676	27.451323
589.861450	1408.547363	14827.293945	4812.726563	25.368832
590.202087	1424.476074	14916.039063	4928.777832	25.974024
590.542847	1415.373901	14733.997070	4937.880371	26.447977
590.883484	1431.302612	14806.813477	4912.849609	26.029263
591.224121	1388.067749	14479.138672	4924.227051	27.011992
591.564636	1374.414551	14690.762695	4801.349121	25.734793
591.905151	1419.924927	14510.996094	4887.818848	26.490528
592.245667	1394.894287	14422.250977	4687.572754	25.275108
592.585999	1413.098389	14399.496094	4721.705566	25.477482
592.926453	1417.649414	14385.842773	4712.603516	25.407965
593.266724	1385.792114	14199.250000	4630.685059	25.324100
593.607056	1351.659302	14324.403320	4680.746094	25.662165
593.947388	1322.077637	14192.422852	4687.572754	26.149221
594.287476	1388.067749	14328.954102	4639.787109	25.127483
594.627686	1369.863525	14319.852539	4676.195313	25.531540
594.967773	1403.996338	14649.802734	4639.787109	24.428793
595.307861	1460.884399	15075.325195	4603.378418	23.082066
595.647888	1349.383789	14840.946289	4721.705566	24.995783
595.987854	1376.690063	15088.978516	4776.318359	24.792568
596.327820	1442.680176	15084.427734	4853.686035	25.004169
596.667725	1344.832764	15441.684570	4921.951660	25.375303
597.007568	1408.547363	15953.676758	4951.533203	24.358574
597.347351	1360.761475	16636.332031	4999.319336	23.819456
597.687073	1488.190552	17148.324219	4999.319336	22.420811
598.026794	1360.761475	17066.406250	5076.687012	23.659809
598.366455	1394.894287	16588.546875	5078.962402	24.247416
598.706116	1310.699951	16342.790039	4815.001953	23.312141
599.045654	1385.792114	15985.533203	4805.899902	23.425812
599.385193	1456.333252	15227.785156	4648.889160	23.182421
599.724731	1388.067749	14843.222656	4405.408203	22.425161
600.064087	1394.894287	14536.027344	4446.367676	23.220779
600.403564	1376.690063	14090.024414	4355.346680	23.429392
600.742920	1372.139038	13928.462891	4234.744141	22.798113
601.082153	1392.618774	13819.238281	4223.366699	22.779713
601.421387	1392.618774	13466.532227	4130.070313	22.672447
601.760620	1442.680176	13389.164063	4100.488281	22.247618
602.099854	1401.720825	13744.145508	4150.549805	22.271387
602.438843	1372.139038	13687.257813	4259.774902	23.447891
602.778015	1312.975464	13755.523438	4205.162598	23.244331
603.117065	1388.067749	14119.606445	4241.570801	22.412867
603.456055	1338.006226	14490.516602	4332.591797	22.768166
603.794983	1326.628662	14881.906250	4339.417969	22.225950
604.133850	1315.250977	15257.367188	4489.602539	22.768076
604.472778	1410.822876	15678.337891	4471.398438	21.451359
604.811584	1403.996338	16065.176758	4673.919922	22.303276
605.150330	1394.894287	16615.853516	4630.685059	21.258783
605.489075	1358.485962	16909.394531	4637.511230	21.085749
605.827698	1369.863525	17100.539063	4710.328125	21.235353
606.166382	1335.730713	16659.087891	4667.093262	21.740421
606.504883	1394.894287	16481.597656	4469.123047	20.377075
606.843445	1297.046875	15851.278320	4489.602539	21.935583
607.181946	1367.588013	15277.846680	4471.398438	22.313105
607.520386	1385.792114	15120.835938	4262.050293	20.941019
607.858826	1383.516602	14372.189453	4196.060547	21.653820
608.197083	1319.802124	14322.127930	4196.060547	22.121105
608.535461	1419.924927	14035.412109	4098.212891	21.230160
608.873718	1385.792114	14124.157227	4011.743164	20.614508
609.211914	1429.027100	14301.648438	4054.978027	20.399504
609.550171	1372.139038	14652.078125	4141.447754	20.853323
609.888245	1363.036987	14759.028320	4246.121582	21.521994
610.226318	1381.241089	15209.581055	4371.275391	21.622511
610.564392	1385.792114	15184.550781	4307.561035	21.174145
610.902344	1372.139038	15289.224609	4225.642090	20.503595
611.240295	1401.720825	15232.335938	4289.356934	20.878582
611.578247	1472.261963	15027.539063	4216.540039	20.245090
611.916138	1410.822876	14695.313477	4232.468750	21.240152
612.253845	1353.934937	14278.892578	4100.488281	21.249998
612.591675	1383.516602	13819.238281	3922.997803	20.420858
612.929382	1333.455200	13566.655273	3825.150391	20.368303
613.267090	1319.802124	13127.479492	3847.905762	21.410675
613.604736	1333.455200	13097.897461	3770.538086	20.715670
613.942261	1372.139038	12940.886719	3709.098877	20.200630
614.279785	1399.445313	12754.293945	3768.262451	20.861723
614.617310	1360.761475	12620.038086	3588.496338	19.785772
614.954712	1376.690063	12610.936523	3643.108887	20.174196
615.292175	1419.924927	12469.853516	3552.087891	19.295717
615.629517	1326.628662	12005.647461	3652.210938	21.777117
615.966797	1303.873413	12503.986328	3572.567627	20.255995
616.304138	1365.312500	12187.689453	3520.230713	19.911690
616.641296	1381.241089	12219.546875	3672.690674	21.142139
616.978516	1369.863525	11971.514648	3504.302002	20.133076
617.315552	1372.139038	12117.148438	3545.261475	20.224482
617.652771	1417.649414	11880.494141	3504.302002	19.943453
617.989685	1474.537476	12283.261719	3454.240479	18.315786
618.326721	1447.231201	12292.363281	3465.618164	18.610994
618.663696	1390.343262	12076.188477	3520.230713	19.931856
619.000549	1413.098389	12051.158203	3549.812500	20.085562
619.337463	1378.965576	12203.618164	3442.863037	19.066639
619.674194	1376.690063	11837.258789	3411.005615	19.447466
620.010986	1374.414551	11960.137695	3618.078125	21.195187
620.347778	1429.027100	12001.096680	3445.138428	19.070168
620.684387	1367.588013	11969.239258	3461.067139	19.746725
621.020996	1342.557251	11830.432617	3306.331787	18.724237
621.357605	1426.751587	11846.361328	3351.842041	18.475649
621.694214	1397.169800	11834.983398	3463.342773	19.795074
622.030579	1449.506714	11680.248047	3461.067139	19.661922
622.367065	1385.792114	11725.758789	3385.974854	19.344189
622.703430	1454.057739	11568.748047	3313.158203	18.380201
623.039795	1431.302612	11716.656250	3383.699463	18.982302
623.376160	1474.537476	11457.247070	3388.250488	19.170275
623.712402	1374.414551	11400.359375	3276.750000	18.974125
624.048645	1451.782227	11461.797852	3424.658691	19.709024
624.384766	1408.547363	11461.797852	3292.678711	18.741514
624.720886	1390.343262	11525.512695	3356.393066	19.398291
625.057007	1394.894287	11486.829102	3222.137451	18.105974
625.392944	1397.169800	11580.125000	3242.617188	18.122906
625.729004	1388.067749	11680.248047	3322.260254	18.792835
626.064941	1451.782227	11800.850586	3456.516113	19.371153
626.400818	1356.210449	11757.616211	3549.812500	21.089476
626.736633	1372.139038	12203.618164	3615.802490	20.714285
627.072449	1401.720825	12497.160156	3420.107666	18.191139
627.408264	1353.934937	12481.231445	3506.577637	19.345602
627.743896	1426.751587	12670.099609	3474.720215	18.214937
628.079590	1388.067749	12617.762695	3561.189941	19.351568
628.415161	1363.036987	12574.528320	3549.812500	19.504768
628.750793	1401.720825	12242.301758	3490.648926	19.269522
629.086365	1401.720825	12328.771484	3408.730225	18.367348
629.421753	1349.383789	12087.566406	3417.832275	19.262556
629.757263	1406.271851	12060.259766	3467.893799	19.350708
630.092651	1438.129150	11489.104492	3276.750000	18.292959
630.427917	1358.485962	11618.809570	3360.944336	19.516523
630.763184	1438.129150	11318.440430	3260.821289	18.447720
631.098511	1392.618774	11268.378906	3401.903564	20.345623
631.433716	1344.832764	11111.368164	3165.249512	18.639330
631.768799	1394.894287	10990.765625	3274.474365	19.587383
632.103943	1378.965576	10808.723633	3219.861816	19.522202
632.438965	1433.578125	11074.959961	3210.759766	18.432852
632.773987	1376.690063	10824.652344	3160.698486	18.882469
633.109070	1324.353149	10569.793945	3065.126465	18.828451
633.443848	1406.271851	10606.202148	3137.943115	18.822655
633.778870	1417.649414	10551.589844	3183.453613	19.332338
634.113708	1460.884399	10626.682617	3233.515137	19.339622
634.448425	1401.720825	10776.866211	3147.045166	18.616505
634.783264	1392.618774	10617.580078	3115.187988	18.672916
635.117859	1365.312500	10551.589844	3178.902588	19.742384
635.452576	1374.414551	10836.030273	3292.678711	20.274172
635.787170	1388.067749	10424.161133	3110.636963	19.063206
636.121704	1394.894287	10674.467773	3108.361328	18.464933
636.456177	1419.924927	10374.099609	3165.249512	19.491741
636.790588	1424.476074	10173.853516	3142.494141	19.635891
637.125122	1472.261963	10196.608398	3026.442627	17.814293
637.459412	1408.547363	9937.199219	2983.207764	18.463181
637.793762	1392.618774	9698.269531	3106.085938	20.630138
638.128052	1358.485962	10005.464844	3078.779541	19.894737
638.462280	1315.250977	9853.004883	2999.136475	19.722816
638.796509	1369.863525	9623.177734	3017.340576	19.961399
639.130615	1454.057739	9598.146484	2930.870850	18.133558
639.464722	1356.210449	9566.289063	2967.279053	19.623060
639.798767	1358.485962	9582.217773	2937.697266	19.203098
640.132751	1369.863525	9313.707031	2871.707275	18.905756
640.466736	1367.588013	9420.656250	2892.187012	18.931902
640.800598	1381.241089	9170.348633	2830.747803	18.609407
641.134521	1381.241089	9172.624023	2846.676514	18.808413
641.468262	1394.894287	9261.370117	2919.493164	19.380964
641.802063	1365.312500	9036.092773	2869.431641	19.608425
642.135803	1324.353149	9111.185547	2782.961914	18.731733
642.469421	1422.200562	9111.185547	2828.472412	18.289434
642.803101	1335.730713	8992.858398	2782.961914	18.900444
643.136658	1365.312500	8881.357422	2719.247314	18.013927
643.470215	1319.802124	8915.490234	2819.370361	19.742363
643.803711	1331.179688	8785.786133	2810.268311	19.841270
644.137085	1351.659302	8922.317383	2858.054199	19.897806
644.470581	1374.414551	8785.786133	2748.829102	18.544672
644.803833	1397.169800	8744.826172	2819.370361	19.355839
645.137207	1369.863525	9031.541992	2846.676514	19.275318
645.470459	1310.699951	8701.591797	2748.829102	19.458128
645.803589	1467.710938	8653.805664	2821.645752	18.841038
646.136780	1301.597900	8678.835938	2730.625000	19.370760
646.469849	1410.822876	8785.786133	2748.829102	18.142548
646.802979	1431.302612	8703.867188	2828.472412	19.211515
647.135986	1417.649414	8742.550781	2716.971924	17.738430
647.468994	1394.894287	8840.398438	2719.247314	17.787285
647.801941	1406.271851	8976.929688	2792.063965	18.304779
648.134766	1376.690063	8669.734375	2810.268311	19.656788
648.467651	1397.169800	8951.898438	2864.880615	19.427711
648.800354	1422.200562	8826.745117	2855.778564	19.360786
649.133179	1351.659302	8744.826172	2726.073975	18.590338
649.465881	1363.036987	8813.091797	2691.941162	17.837509
649.798462	1440.404663	8826.745117	2771.584229	18.022181
650.131104	1415.373901	8772.132813	2780.686523	18.558617
650.463623	1369.863525	8867.704102	2830.747803	19.484066
650.796143	1460.884399	8792.612305	2807.992676	18.373680
651.128662	1397.169800	8826.745117	2839.849854	19.418070
651.461060	1454.057739	8751.653320	2721.522949	17.368258
651.793396	1381.241089	8885.909180	2810.268311	19.041845
652.125732	1390.343262	8749.377930	2753.380127	18.521952
652.458008	1338.006226	8674.285156	2826.196777	20.285360
652.790222	1403.996338	8765.305664	2776.135498	18.639879
653.122437	1415.373901	8751.653320	2751.104736	18.207197
653.454529	1474.537476	8888.184570	2557.685303	14.610188
653.786621	1397.169800	8885.909180	2782.961914	18.505013
654.118713	1394.894287	8783.510742	2762.482178	18.509392
654.450623	1365.312500	8710.693359	2650.981689	17.503098
654.782654	1385.792114	8537.753906	2764.757813	19.280943
655.114502	1394.894287	8453.559570	2748.829102	19.181173
655.446350	1408.547363	8439.906250	2691.941162	18.252430
655.778198	1454.057739	8562.785156	2730.625000	17.957747
656.109863	1403.996338	8417.151367	2682.839111	18.234913
656.441650	1388.067749	8328.406250	2807.992676	20.459015
656.773254	1388.067749	8521.825195	2662.359375	17.862839
657.104919	1353.934937	8273.793945	2691.941162	19.335745
657.436462	1390.343262	8162.292969	2691.941162	19.220430
657.767944	1374.414551	8301.099609	2653.257324	18.462551
658.099548	1390.343262	8544.581055	2755.655762	19.083969
658.430908	1376.690063	8749.377930	2719.247314	18.209875
658.762268	1367.588013	8640.152344	2851.227539	20.400499
659.093628	1328.904175	9172.624023	2846.676514	19.350161
659.424927	1344.832764	9177.175781	2896.738037	19.814062
659.756226	1333.455200	9468.442383	2958.177002	19.972027
660.087341	1378.965576	9575.391602	3008.238525	19.877846
660.418518	1335.730713	9739.229492	3062.851074	20.552395
660.749573	1413.098389	9773.362305	2996.860840	18.943930
661.080627	1383.516602	9761.984375	3046.922363	19.853340
661.411621	1401.720825	9479.819336	2949.074951	19.154930
661.742554	1383.516602	9315.982422	2844.401123	18.416525
662.073547	1374.414551	9054.296875	2910.391113	20.000002
662.404297	1426.751587	8986.031250	2899.013428	19.476219
662.735229	1454.057739	8722.071289	2873.982666	19.536631
663.065979	1399.445313	8672.009766	2771.584229	18.867332
663.396667	1360.761475	8608.294922	2730.625000	18.901100
663.727417	1397.169800	8307.926758	2728.349365	19.262428
664.057922	1353.934937	8094.027344	2735.176025	20.492910
664.388611	1381.241089	8123.609375	2757.931152	20.418495
664.719116	1360.761475	7939.291992	2619.124512	19.128330
665.049622	1312.975464	7925.639160	2682.839111	20.715761
665.380005	1344.832764	7891.506348	2559.960938	18.561001
665.710388	1338.006226	7955.220703	2687.390137	20.392023
666.040771	1381.241089	7641.198730	2607.746826	19.592876
666.371033	1438.129150	7764.077148	2630.501953	18.848919
666.701294	1394.894287	7757.250488	2594.093750	18.848354
667.031555	1415.373901	7750.423828	2612.297852	18.893679
667.361633	1369.863525	7775.454590	2678.288086	20.426291
667.691772	1372.139038	7786.832031	2532.654541	18.091520
668.021790	1374.414551	7798.209961	2639.604248	19.695360
668.351807	1324.353149	7743.597168	2637.328613	20.453739
668.681763	1410.822876	7707.188965	2723.798340	20.852909
669.011719	1435.853638	7725.393066	2578.165039	18.162083
669.341614	1285.669312	7618.443848	2669.185791	21.846926
669.671387	1378.965576	7839.168945	2694.216553	20.359282
670.001221	1406.271851	7714.015625	2564.511963	18.362194
670.330933	1365.312500	7839.168945	2621.399902	19.402460
670.660583	1390.343262	7780.005859	2680.563477	20.192307
670.990173	1331.179688	7627.545898	2537.205811	19.154320
671.319763	1374.414551	7836.893555	2539.481201	18.028170
671.649292	1403.996338	7493.290039	2598.644775	19.618834
671.978821	1292.495850	7545.626953	2705.594238	22.598253
672.308289	1372.139038	7527.422852	2598.644775	19.926064
672.637695	1363.036987	7393.166992	2641.879639	21.207548
672.966980	1328.904175	7409.095703	2603.195801	20.958084
673.296326	1419.924927	7363.585449	2598.644775	19.831547
673.625610	1385.792114	7397.718262	2639.604248	20.855413
673.954773	1403.996338	7293.043945	2523.552490	19.010818
674.283936	1376.690063	7331.728027	2623.675537	20.940008
674.613037	1424.476074	7543.351563	2598.644775	19.189289
674.942078	1353.934937	7349.932129	2607.746826	20.910816
675.271118	1324.353149	7176.992676	2641.879639	22.511663
675.600098	1433.578125	7265.737793	2587.267090	19.781506
675.928955	1410.822876	7254.360352	2591.818115	20.210279
676.257813	1488.190552	7038.186035	2532.654541	18.819185
676.586670	1394.894287	7227.054199	2559.960938	19.976589
676.915466	1463.159912	7122.379883	2559.960938	19.380781
677.244141	1433.578125	7140.584473	2491.695313	18.540670
677.572876	1403.996338	7045.012207	2512.175049	19.645021
677.901489	1388.067749	7222.502930	2653.257324	21.684868
678.230042	1319.802124	7017.706055	2605.471436	22.563900
678.558594	1315.250977	7131.482422	2514.450439	20.618153
678.887085	1403.996338	7133.757813	2537.205811	19.777601
679.215515	1403.996338	7395.442383	2664.634766	21.040636
679.543945	1419.924927	7211.125488	2655.532715	21.335953
679.872253	1433.578125	7436.401855	2728.349365	21.569370
680.200562	1417.649414	7347.656738	2616.848877	20.222563
680.528809	1408.547363	7620.719238	2587.267090	18.974358
680.856995	1351.659302	7748.148438	2762.482178	22.056206
681.185120	1417.649414	7739.046387	2742.002686	20.950327
681.513306	1278.842651	7766.352539	2701.043213	21.922134
681.841309	1324.353149	7723.117676	2796.614990	23.008532
682.169373	1413.098389	7793.658691	2657.808350	19.507847
682.497314	1449.506714	7918.812500	2721.522949	19.662331
682.825134	1374.414551	7707.188965	2764.757813	21.954725
683.153076	1374.414551	7673.056152	2771.584229	22.182079
683.480896	1399.445313	7399.993652	2726.073975	22.108458
683.808655	1385.792114	7527.422852	2735.176025	21.971102
684.136414	1394.894287	7227.054199	2710.145264	22.551695
684.464050	1413.098389	7297.595215	2569.062988	19.644238
684.791626	1335.730713	7122.379883	2575.889648	21.431381
685.119263	1381.241089	7097.349609	2625.950928	21.775476
685.446838	1378.965576	7031.359375	2594.093750	21.497585
685.774292	1385.792114	6910.756836	2635.052979	22.611200
686.101685	1356.210449	6844.766602	2582.716064	22.346600
686.429077	1388.067749	6872.072754	2598.644775	22.074690
686.756348	1406.271851	6874.348145	2521.277100	20.391180
687.083679	1399.445313	6799.256348	2621.399902	22.629581
687.410950	1426.751587	6728.714844	2532.654541	20.858366
687.738159	1331.179688	6653.623047	2557.685303	23.044033
688.065308	1444.955688	6778.776367	2637.328613	22.354950
688.392395	1435.853638	6928.960938	2612.297852	21.416735
688.719421	1440.404663	6712.786133	2653.257324	23.003887
689.046448	1376.690063	6833.389160	2669.185791	23.686401
689.373413	1383.516602	7017.706055	2676.012451	22.940228
689.700317	1356.210449	6617.214355	2564.511963	22.967129
690.027100	1383.516602	6651.347168	2550.858887	22.159830
690.353943	1342.557251	6553.500000	2455.286865	21.353710
690.680725	1426.751587	6678.653320	2559.960938	21.577124
691.007446	1358.485962	6421.519531	2528.103516	23.101122
691.334106	1344.832764	6412.417480	2500.797363	22.810957
691.660645	1419.924927	6498.887207	2482.593262	20.922941
691.987244	1401.720825	6112.048828	2407.500977	21.352655
692.313721	1429.027100	6164.385742	2405.225586	20.615091
692.640259	1394.894287	6259.957520	2459.837891	21.889614
692.966675	1360.761475	6121.150879	2457.562500	23.040152
693.293030	1372.139038	6112.048828	2455.286865	22.851656
693.619324	1426.751587	6027.854492	2437.082764	21.958456
693.945618	1399.445313	6014.201660	2473.491211	23.274162
694.271851	1410.822876	5961.864258	2434.807373	22.500004
694.598083	1449.506714	6046.058594	2396.123291	20.594059
694.924194	1390.343262	5930.007324	2439.358398	23.107771
695.250244	1424.476074	5845.812988	2402.949951	22.130724
695.576294	1408.547363	5945.936035	2439.358398	22.718157
695.902283	1408.547363	6002.823730	2368.817139	20.901438
696.228210	1408.547363	5995.997070	2332.408936	20.138893
696.554138	1363.036987	5777.547363	2352.888428	22.422678
696.879944	1378.965576	6068.813965	2471.215576	23.289663
697.205750	1367.588013	6077.916016	2355.164063	20.966185
697.531433	1326.628662	6162.110352	2480.317627	23.858824
697.857178	1413.098389	6046.058594	2498.521729	23.428291
698.182739	1381.241089	6187.141113	2571.338623	24.763262
698.508423	1378.965576	6496.611816	2578.165039	23.432636
698.833984	1399.445313	6760.572266	2685.114502	23.981323
699.159485	1442.680176	7004.053223	2610.022461	20.990181
699.484924	1338.006226	7138.308594	2669.185791	22.950176
699.810303	1442.680176	7420.473145	2726.073975	21.469358
700.135681	1451.782227	7470.534668	2707.869873	20.869568
700.460999	1331.179688	7493.290039	2773.859863	23.412111
700.786255	1399.445313	7222.502930	2723.798340	22.743258
701.111450	1399.445313	7126.931152	2730.625000	23.241955
701.436646	1397.169800	6892.552734	2489.419678	19.875774
701.761719	1349.383789	6592.183594	2528.103516	22.482639
702.086792	1388.067749	6514.815918	2509.899414	21.881935
702.411865	1294.771362	6287.264160	2519.001465	24.521420
702.736816	1367.588013	6059.711914	2475.766602	23.617846
703.061646	1356.210449	5838.986328	2377.919189	22.791876
703.386536	1406.271851	5804.853516	2432.531738	23.331610
703.711365	1317.526489	5604.607910	2405.225586	25.371552
704.036194	1351.659302	5545.444336	2377.919189	24.470970
704.360901	1385.792114	5604.607910	2357.439453	23.031281
704.685547	1392.618774	5509.035645	2302.827148	22.111666
705.010132	1422.200562	5365.678223	2341.510986	23.312176
705.334717	1374.414551	5443.045898	2350.613037	23.993290
705.659302	1390.343262	5358.851563	2268.694336	22.133028
705.983765	1401.720825	5094.891113	2243.663574	22.797289
706.308228	1344.832764	5377.055664	2316.480225	24.097067
706.632568	1397.169800	5226.871094	2232.285889	21.806299
706.956909	1372.139038	5217.769043	2223.183838	22.130180
707.281189	1424.476074	5365.678223	2216.357178	20.092375
707.605408	1406.271851	5097.166504	2280.071777	23.674475
707.929626	1331.179688	5201.840332	2321.031250	25.573195
708.253784	1372.139038	5290.585938	2236.836914	22.067364
708.577820	1444.955688	5122.197266	2302.827148	23.329210
708.901855	1360.761475	5165.432129	2346.062012	25.897131
709.225830	1413.098389	5240.524414	2323.306641	23.781210
709.549805	1381.241089	5301.963379	2264.143311	22.518867
709.873718	1406.271851	5315.616699	2214.081787	20.663563
710.197510	1392.618774	5315.616699	2334.684326	24.013918
710.521362	1392.618774	5461.250000	2261.867676	21.364651
710.845093	1431.302612	5431.667969	2282.347412	21.274178
711.168701	1429.027100	5299.687988	2282.347412	22.045856
711.492432	1401.720825	5374.780273	2330.133301	23.367697
711.816040	1435.853638	5515.862305	2300.551514	21.193529
712.139587	1363.036987	5524.964355	2282.347412	22.088575
712.463074	1394.894287	5631.914063	2323.306641	21.911921
712.786499	1481.364014	5700.179688	2298.276123	19.363543
713.109924	1397.169800	5584.127930	2359.715088	22.989132
713.433350	1390.343262	5529.515625	2341.510986	22.979660
713.756592	1413.098389	5515.862305	2296.000488	21.519691
714.079834	1435.853638	5397.535156	2309.653564	22.056288
714.403015	1367.588013	5372.504395	2209.530762	21.022730
714.726196	1406.271851	5347.474121	2207.255127	20.323324
715.049255	1290.220337	5324.718750	2277.796387	24.478285
715.372375	1410.822876	5233.697754	2166.295898	19.761908
715.695435	1419.924927	5213.218262	2375.643799	25.194963
716.018311	1369.863525	5299.687988	2189.051025	20.845396
716.341248	1381.241089	5238.249023	2182.224365	20.766960
716.664063	1392.618774	5251.901855	2250.489990	22.228771
716.987000	1333.455200	5324.718750	2239.112549	22.690992
717.309692	1363.036987	5099.441895	2200.428711	22.411697
717.632385	1433.578125	5169.983398	2270.969727	22.411692
717.955078	1328.904175	5281.483887	2250.489990	23.316059
718.277649	1353.934937	5060.758301	2116.234375	20.564764
718.600220	1388.067749	4912.849609	2159.469238	21.885086
718.922791	1319.802124	4985.666016	2111.683350	21.601490
719.245300	1394.894287	4826.379395	2193.602051	23.275864
719.567688	1413.098389	4944.706543	2152.642578	20.940720
719.890015	1408.547363	4617.031738	2116.234375	22.056738
720.212341	1417.649414	4737.634277	2059.346436	19.328312
720.534607	1406.271851	4653.439941	2111.683350	21.723900
720.856873	1410.822876	4535.112793	2077.550537	21.340134
721.179016	1385.792114	4403.132813	2086.652588	23.227753
721.501160	1383.516602	4382.652832	2052.519775	22.306528
721.823242	1365.312500	4705.776855	2077.550537	21.321527
722.145264	1342.557251	4432.714355	2068.448486	23.490431
722.467224	1429.027100	4475.949219	2020.662476	19.417477
722.789185	1312.975464	4403.132813	2086.652588	25.036821
723.111023	1365.312500	4271.152344	2011.560425	22.239626
723.432861	1353.934937	4303.009766	2018.386963	22.530865
723.754578	1374.414551	4357.622559	2068.448486	23.264685
724.076294	1338.006226	4339.417969	1975.152100	21.228207
724.397949	1367.588013	4359.897949	2091.203613	24.182507
724.719666	1399.445313	4277.979004	2086.652588	23.873518
725.041260	1388.067749	4207.437988	1986.529663	21.226795
725.362732	1367.588013	4366.724609	2041.142212	22.458269
725.684265	1392.618774	4246.121582	2036.591064	22.567781
726.005676	1444.955688	4328.040527	1961.498901	17.916336
726.327087	1403.996338	4262.050293	1991.080688	20.541403
726.648438	1394.894287	4328.040527	2041.142212	22.032585
726.969666	1465.435425	4380.377441	1945.570313	16.471508
727.290894	1415.373901	4316.663086	2016.111450	20.705885
727.612061	1408.547363	4305.285156	2054.795166	22.309504
727.933228	1349.383789	4471.398438	2072.999512	23.177845
728.254395	1378.965576	4544.214844	2020.662476	20.273188
728.575378	1451.782227	4626.133789	2022.937988	17.992832
728.896301	1306.148926	4466.847168	2098.030273	25.054001
729.217285	1340.281738	4592.000977	2077.550537	22.673201
729.538147	1365.312500	4687.572754	2173.122314	24.315067
729.858948	1351.659302	4564.694824	2025.213501	20.963173
730.179810	1301.597900	4630.685059	2032.040039	21.941214
730.500549	1385.792114	4621.582520	2075.274902	21.308016
730.821228	1360.761475	4453.194336	2036.591064	21.854301
731.141846	1360.761475	4598.827637	1975.152100	18.973999
731.462402	1372.139038	4526.010742	2027.489014	20.779222
731.782898	1410.822876	4610.205078	2116.234375	22.048365
732.103455	1431.302612	4537.388672	2095.754639	21.391939
732.423889	1449.506714	4778.593750	2045.693237	17.908409
732.744263	1376.690063	4617.031738	2075.274902	21.558987
733.064636	1410.822876	4612.480469	2082.101563	20.966597
733.384888	1344.832764	4541.939453	2100.305664	23.629894
733.705200	1499.568237	4623.858398	2111.683350	19.592134
734.025330	1340.281738	4774.042480	2068.448486	21.206100
734.345520	1367.588013	4664.817871	2109.407715	22.498270
734.665527	1369.863525	4596.552246	2052.519775	21.156557
734.985596	1456.333252	4541.939453	1997.907227	17.551622
735.305542	1356.210449	4412.234863	1979.703125	20.402084
735.625549	1403.996338	4503.255859	2072.999512	21.585903
735.945435	1447.231201	4227.917480	2018.386963	20.540100
736.265259	1356.210449	4371.275391	2063.897461	23.471701
736.585083	1344.832764	4139.172363	1931.917114	21.009771
736.904785	1413.098389	4150.549805	2009.284912	21.778891
737.224426	1367.588013	4230.193359	1952.396851	20.429251
737.544128	1342.557251	4118.692871	1959.223389	22.213112
737.863708	1406.271851	4152.825684	1959.223389	20.132559
738.183289	1369.863525	4141.447754	2072.999512	25.369461
738.502808	1383.516602	4157.376465	2032.040039	23.379820
738.822205	1388.067749	4248.397461	2029.764526	22.434364
739.141541	1388.067749	4239.295410	1890.957764	17.637667
739.460938	1388.067749	4218.815430	2004.733887	21.784569
739.780212	1383.516602	4293.907715	1997.907227	21.110243
740.099426	1369.863525	4469.123047	2093.479248	23.348021
740.418640	1365.312500	4246.121582	2057.070801	24.012640
740.737793	1442.680176	4289.356934	2018.386963	20.223820
741.056885	1401.720825	4227.917480	2013.835938	21.658617
741.375977	1294.771362	4196.060547	2009.284912	24.627451
741.694946	1326.628662	4177.855957	2104.856689	27.294493
742.013855	1374.414551	4111.866211	2025.213501	23.773897
742.332703	1383.516602	4125.519043	1927.366089	19.834026
742.651550	1415.373901	4034.498291	1995.631714	22.154648
742.970398	1378.965576	4054.978027	2050.244141	25.085032
743.289124	1385.792114	4136.896973	2011.560425	22.746071
743.607788	1460.884399	3943.477539	1984.254150	21.081575
743.926453	1392.618774	4004.916504	1995.631714	23.083622
744.245056	1399.445313	3959.406250	1936.468262	20.977779
744.563599	1447.231201	3829.701416	1909.161987	19.388733
744.882141	1367.588013	3913.895752	1900.059814	20.911528
745.200500	1403.996338	3845.630127	1936.468262	21.808018
745.518860	1419.924927	3941.202148	1947.845825	20.938629
745.837219	1394.894287	3843.354736	1975.152100	23.698885
746.155518	1363.036987	3750.058350	1961.498901	25.071493
746.473755	1458.608887	3786.466553	1918.264038	19.745844
746.791992	1358.485962	3863.834229	1956.947876	23.887375
747.110107	1399.445313	3820.599365	1963.774414	23.308270
747.428162	1363.036987	3770.538086	1920.539551	23.156898
747.746216	1328.904175	3763.711426	1915.988525	24.112150
748.064148	1317.526489	3718.200928	2002.458252	28.530807
748.382080	1406.271851	3822.875000	1890.957764	20.056498
748.700073	1440.404663	3825.150391	2027.489014	24.618322
749.017822	1358.485962	3761.435791	1922.815063	23.484848
749.335632	1403.996338	3761.435791	1975.152100	24.227802
749.653320	1349.383789	3872.936523	1915.988525	22.452662
749.971008	1376.690063	3909.344727	1941.019287	22.282122
750.288696	1510.945801	3847.905762	1915.988525	17.332035
750.606262	1422.200562	3845.630127	2020.662476	24.694834
750.923828	1363.036987	3697.721191	1938.743774	24.658873
751.241272	1388.067749	3850.181152	1900.059814	20.794821
751.558716	1469.986450	3786.466553	1879.580200	17.681730
751.876038	1460.884399	3775.089111	1886.406738	18.387413
752.193481	1399.445313	3756.884766	1931.917114	22.586870
752.510681	1363.036987	3731.854004	1956.947876	25.072046
752.827942	1351.659302	3725.027588	1888.682251	22.627039
753.145081	1388.067749	3779.640137	1870.478149	20.171267
753.462219	1388.067749	3702.272461	1902.335449	22.222223
753.779297	1338.006226	3802.395264	2009.284912	27.239151
754.096375	1392.618774	3759.160400	1829.518677	18.461536
754.413330	1392.618774	3634.006836	1977.427612	26.091368
754.730286	1353.934937	3706.823486	1902.335449	23.307543
755.047119	1372.139038	3636.282227	1945.570313	25.326635
755.363892	1367.588013	3759.160400	1865.927002	20.837296
755.680725	1406.271851	3636.282227	1824.967651	18.775511
755.997498	1363.036987	3661.312988	1827.243164	20.198017
756.314148	1363.036987	3734.129639	1829.518677	19.673700
756.630737	1419.924927	3599.874023	1900.059814	22.025049
756.947327	1376.690063	3588.496338	1893.233276	23.353910
757.263855	1365.312500	3740.956299	1911.437500	22.988504
757.580261	1356.210449	3568.016602	1972.876587	27.880659
757.896729	1401.720825	3672.690674	1872.753662	20.741484
758.213074	1367.588013	3608.976074	1909.161987	24.162436
758.529419	1338.006226	3597.598389	1875.029175	23.766365
758.845642	1415.373901	3704.547852	1863.651489	19.582506
759.161865	1335.730713	3690.894775	1900.059814	23.961349
759.478149	1356.210449	3720.476563	1893.233276	22.714146
759.794189	1440.404663	3845.630127	1959.223389	21.570480
760.110229	1353.934937	3740.956299	1865.927002	21.448994
760.426270	1431.302612	3756.884766	1886.406738	19.569471
760.742249	1447.231201	3822.875000	1920.539551	19.923372
761.058105	1394.894287	3765.986816	1863.651489	19.769670
761.374023	1410.822876	3743.231689	1854.549438	19.024391
761.689819	1488.190552	3759.160400	1947.845825	20.240484
762.005554	1408.547363	3786.466553	1968.325439	23.540668
762.321289	1456.333252	3877.487549	1929.641602	19.548872
762.636902	1433.578125	3888.864990	1938.743774	20.574608
762.952515	1397.169800	3763.711426	1961.498901	23.846153
763.268127	1360.761475	3886.589600	1984.254150	24.684683
763.583618	1388.067749	3929.824463	1938.743774	21.665173
763.899048	1401.720825	4186.958496	1952.396851	19.771238
764.214478	1481.364014	4505.531250	2120.785400	21.143719
764.529785	1413.098389	5042.554199	2207.255127	21.880877
764.845093	1369.863525	5192.738281	2275.520752	23.690475
765.160400	1326.628662	5144.952637	2248.214600	24.135876
765.475586	1376.690063	5049.380859	2214.081787	22.800495
765.790771	1381.241089	4910.573730	2239.112549	24.306904
766.105835	1394.894287	4799.073242	2186.775391	23.262030
766.420837	1319.802124	4539.664063	2057.070801	22.897526
766.735840	1392.618774	4380.377441	2061.621826	22.391468
767.050842	1381.241089	4339.417969	2107.132324	24.538467
767.365662	1440.404663	4064.080078	2070.723877	24.024284
767.680542	1331.179688	4141.447754	2004.733887	23.967613
767.995300	1399.445313	3811.497314	1915.988525	21.415094
768.309998	1417.649414	3834.252441	1875.029175	18.926558
768.624817	1431.302612	3836.528076	1897.784302	19.394508
768.939392	1358.485962	3743.231689	1936.468262	24.236645
769.254028	1360.761475	3709.098877	1956.947876	25.387596
769.568481	1406.271851	3722.751953	1884.131226	20.628685
769.882935	1347.108276	3636.282227	1913.713013	24.751495
770.197388	1408.547363	3659.037354	1865.927002	20.323559
770.511841	1381.241089	3542.985840	1815.865601	20.105267
770.826172	1344.832764	3602.149414	1859.100464	22.782257
771.140442	1369.863525	3572.567627	1881.855713	23.243803
771.454651	1349.383789	3476.995850	1813.590088	21.818184
771.768860	1372.139038	3451.965088	1838.620850	22.428885
772.082886	1394.894287	3388.250488	1834.069824	22.031965
772.397034	1374.414551	3388.250488	1824.967651	22.372881
772.711060	1347.108276	3454.240479	1806.763550	21.814257
773.025024	1426.751587	3304.056152	1875.029175	23.878788
773.338928	1433.578125	3267.647949	1845.447388	22.456575
773.652771	1390.343262	3329.086914	1831.794189	22.769949
773.966614	1378.965576	3319.984863	1788.559326	21.101994
774.280457	1326.628662	3374.597412	1872.753662	26.666666
774.594116	1388.067749	3376.872803	1843.171875	22.883295
774.907776	1440.404663	3315.433838	1811.314575	19.781553
775.221375	1406.271851	3288.127441	1856.824951	23.941959
775.534912	1399.445313	3181.177979	1772.630737	20.945086
775.848450	1410.822876	3379.148438	1847.722900	22.196533
776.161926	1356.210449	3279.025391	1877.304688	27.100592
776.475342	1353.934937	3190.280273	1859.100464	27.509289
776.788696	1353.934937	3201.657715	1765.804199	22.290642
777.101990	1376.690063	3137.943115	1802.212524	24.160212
777.415283	1390.343262	3181.177979	1784.008301	21.982210
777.728516	1431.302612	3222.137451	1777.181763	19.313850
778.041626	1374.414551	3242.617188	1777.181763	21.559074
778.354736	1335.730713	3133.392090	1777.181763	24.556963
778.667725	1344.832764	3144.769775	1763.528564	23.261692
778.980774	1353.934937	3190.280273	1811.314575	24.907061
779.293640	1460.884399	3144.769775	1879.580200	24.864864
779.606567	1433.578125	3124.290039	1765.804199	19.650070
779.919434	1347.108276	3137.943115	1740.773438	21.982214
780.232239	1449.506714	3065.126465	1738.497925	17.887329
780.544983	1335.730713	3099.259277	1715.742676	21.548388
780.857666	1429.027100	3147.045166	1788.559326	20.927151
781.170227	1367.588013	3092.432861	1811.314575	25.725594
781.482849	1438.129150	3081.055176	1749.875488	18.975069
781.795410	1419.924927	3160.698486	1733.946899	18.039221
782.107910	1333.455200	3015.064941	1690.711914	21.244925
782.420288	1294.771362	3099.259277	1738.497925	24.590166
782.732666	1376.690063	3201.657715	1733.946899	19.576063
783.044983	1469.986450	3056.024414	1738.497925	16.929701
783.357300	1367.588013	3024.167236	1715.742676	21.016481
783.669495	1408.547363	3003.687500	1806.763550	24.964338
783.981689	1394.894287	2974.105713	1711.191650	20.028816
784.293762	1358.485962	2958.177002	1697.538574	21.194881
784.605835	1358.485962	2894.462402	1765.804199	26.518520
784.917908	1351.659302	2969.554688	1692.987427	21.097046
785.229858	1394.894287	2844.401123	1711.191650	21.821033
785.541748	1458.608887	2930.870850	1758.977539	20.401848
785.853577	1376.690063	2826.196777	1738.497925	24.960758
786.165405	1485.915039	2878.533936	1658.854614	12.418299
786.477173	1385.792114	2917.217773	1763.528564	24.665674
786.788879	1408.547363	2835.298828	1679.334351	18.979269
787.100525	1438.129150	2842.125488	1677.058838	17.017828
787.412109	1378.965576	2798.890625	1738.497925	25.320517
787.723694	1369.863525	2846.676514	1731.671387	24.499233
788.035156	1451.782227	2883.084961	1665.681274	14.944361
788.346558	1451.782227	2903.564453	1702.089600	17.241386
788.658081	1383.516602	2844.401123	1652.028076	18.380062
788.969360	1408.547363	2971.830078	1756.702026	22.270742
789.280640	1392.618774	3001.411865	1702.089600	19.236210
789.591919	1424.476074	3185.729004	1761.253052	19.121443
789.903076	1413.098389	3026.442627	1774.906250	22.425955
790.214172	1353.934937	3137.943115	1738.497925	21.556122
790.525269	1363.036987	3056.024414	1690.711914	19.354836
790.836365	1292.495850	2983.207764	1697.538574	23.956934
791.147339	1410.822876	2942.248291	1715.742676	19.910849
791.458191	1392.618774	2949.074951	1654.303589	16.812860
791.769104	1415.373901	2962.728027	1686.160889	17.500002
792.079895	1426.751587	2864.880615	1702.089600	19.145571
792.390686	1392.618774	2846.676514	1683.885376	20.031296
792.701416	1365.312500	2782.961914	1658.854614	20.706255
793.012085	1424.476074	2728.349365	1722.569214	22.862125
793.322693	1408.547363	2742.002686	1640.650513	17.406143
793.633240	1383.516602	2701.043213	1617.895264	17.789293
793.943787	1390.343262	2669.185791	1702.089600	24.377226
794.254272	1415.373901	2653.257324	1640.650513	18.198532
794.564636	1451.782227	2712.420898	1613.344238	12.815886
794.875000	1440.404663	2753.380127	1688.436401	18.890814
795.185303	1392.618774	2694.216553	1629.272949	18.181820
795.495544	1358.485962	2723.798340	1731.671387	27.333336
795.805786	1444.955688	2703.318604	1702.089600	20.434002
796.115906	1353.934937	2735.176025	1667.956787	22.734760
796.426025	1374.414551	2653.257324	1715.742676	26.690390
796.736023	1363.036987	2762.482178	1681.609863	22.764227
797.045959	1394.894287	2828.472412	1702.089600	21.428572
797.355896	1390.343262	2896.738037	1674.783325	18.882174
797.665833	1401.720825	2835.298828	1715.742676	21.904762
797.975708	1417.649414	2901.289063	1697.538574	18.865036
798.285461	1463.159912	2807.992676	1670.232300	15.397631
798.595154	1406.271851	2762.482178	1715.742676	22.818792
798.904846	1378.965576	2778.410889	1620.170776	17.235771
799.214478	1508.670288	2739.727051	1656.579102	12.014784
799.524109	1331.179688	2755.655762	1640.650513	21.725239
799.833557	1413.098389	2812.543701	1770.355225	25.528460
800.143005	1374.414551	2807.992676	1604.242188	16.031748
800.452393	1399.445313	2632.777588	1702.089600	24.538748
800.761780	1349.383789	2610.022461	1658.854614	24.548733
801.071106	1385.792114	2782.961914	1677.058838	20.846909
801.380371	1322.077637	2653.257324	1686.160889	27.350422
801.689575	1383.516602	2628.226563	1665.681274	22.669109
801.998718	1451.782227	2612.297852	1652.028076	17.254904
802.307800	1406.271851	2635.052979	1699.814087	23.888895
802.616882	1381.241089	2655.532715	1626.997314	19.285713
802.925903	1349.383789	2632.777588	1631.548462	21.985823
803.234863	1422.200562	2632.777588	1613.344238	15.789469
803.543701	1401.720825	2434.807373	1677.058838	26.651979
803.852539	1383.516602	2655.532715	1642.926025	20.393564
804.161316	1417.649414	2685.114502	1674.783325	20.287258
804.470032	1374.414551	2594.093750	1565.558350	15.671645
804.778809	1403.996338	2632.777588	1576.935913	14.074074
805.087341	1308.424438	2594.093750	1615.619751	23.893805
805.395935	1367.588013	2523.552490	1601.966675	20.275595
805.704468	1392.618774	2503.072998	1640.650513	22.336061
806.012939	1426.751587	2589.542725	1599.691162	14.872798
806.321350	1417.649414	2603.195801	1738.497925	27.063345
806.629761	1399.445313	2539.481201	1652.028076	22.155685
806.938049	1303.873413	2639.604248	1601.966675	22.316866
807.246277	1442.680176	2696.492188	1661.130127	17.422863
807.554504	1342.557251	2669.185791	1683.885376	25.728991
807.862671	1401.720825	2698.767578	1661.130127	19.999996
808.170715	1360.761475	2605.471436	1658.854614	23.948803
808.478821	1406.271851	2625.950928	1595.140137	15.485081
808.786804	1397.169800	2539.481201	1645.201538	21.713146
809.094727	1392.618774	2564.511963	1697.538574	26.019419
809.402649	1369.863525	2514.450439	1640.650513	23.658054
809.710510	1429.027100	2530.379150	1681.609863	22.933880
810.018311	1333.455200	2464.388916	1665.681274	29.376265
810.326050	1442.680176	2550.858887	1601.966675	14.373719
810.633667	1390.343262	2584.991699	1695.262939	25.523800
810.941345	1388.067749	2516.726074	1715.742676	29.032251
811.248901	1374.414551	2373.368164	1654.303589	28.018221
811.556396	1476.812988	2407.500977	1663.405762	20.048908
811.863892	1385.792114	2396.123291	1629.272949	24.099112
812.171326	1378.965576	2466.664551	1667.956787	26.569044
812.478699	1383.516602	2291.449463	1688.436401	33.583958
812.786011	1385.792114	2380.194824	1574.660400	18.993139
813.093262	1397.169800	2475.766602	1670.232300	25.316458
813.400391	1312.975464	2400.674561	1590.588989	25.523008
813.707642	1324.353149	2382.470215	1549.629639	21.290318
814.014709	1349.383789	2393.847900	1579.211426	22.004360
814.321716	1422.200562	2448.460449	1576.935913	15.077600
814.628723	1406.271851	2361.990479	1608.793213	21.190479
814.935669	1310.699951	2375.643799	1599.691162	27.136755
815.242554	1442.680176	2434.807373	1563.282837	12.155968
815.549438	1392.618774	2396.123291	1633.823975	24.036285
815.856201	1413.098389	2357.439453	1638.375000	23.855429
816.162964	1433.578125	2373.368164	1617.895264	19.612587
816.469604	1415.373901	2407.500977	1674.783325	26.146793
816.776184	1385.792114	2427.980713	1599.691162	20.524025
817.082825	1369.863525	2425.705078	1581.486938	20.043104
817.389343	1397.169800	2416.603027	1549.629639	14.955353
817.695801	1383.516602	2384.745850	1636.099487	25.227278
818.002197	1376.690063	2364.266113	1638.375000	26.497700
818.308533	1374.414551	2368.817139	1617.895264	24.485125
818.614868	1351.659302	2380.194824	1601.966675	24.336288
818.921143	1392.618774	2450.735840	1647.477051	24.086020
819.227356	1358.485962	2364.266113	1631.548462	27.149323
819.533447	1369.863525	2425.705078	1647.477051	26.293104
819.839539	1394.894287	2443.909424	1704.365112	29.501083
820.145569	1340.281738	2564.511963	1597.415649	21.003721
820.451538	1422.200562	2580.440674	1631.548462	18.074656
820.757568	1394.894287	2742.002686	1702.089600	22.804052
821.063416	1467.710938	2817.094727	1736.222412	19.898821
821.369263	1406.271851	3019.616211	1774.906250	22.849083
821.675049	1426.751587	3069.677490	1736.222412	18.836567
821.980713	1347.108276	3128.841064	1736.222412	21.839085
822.286438	1383.516602	3285.852051	1795.385864	21.650717
822.592102	1340.281738	3816.048340	1929.641602	23.805147
822.897583	1367.588013	4931.053711	2286.898438	25.798210
823.203125	1415.373901	7145.135254	2782.961914	23.868151
823.508545	1474.537476	9388.798828	3517.955078	25.819435
823.813965	1367.588013	10603.926758	3577.118652	23.922150
824.119263	1454.057739	10378.650391	3602.149414	24.069353
824.424622	1488.190552	9006.511719	3294.954102	24.031475
824.729858	1383.516602	7552.453613	2962.728027	25.599409
825.035095	1344.832764	6589.908203	2771.584229	27.201735
825.340149	1374.414551	5939.109375	2482.593262	24.277170
825.645264	1369.863525	5311.065430	2380.194824	25.635107
825.950256	1394.894287	4956.084473	2257.316650	24.217251
826.255310	1347.108276	4553.316895	2168.571289	25.621010
826.560242	1347.108276	4321.213867	2093.479248	25.095646
826.865112	1340.281738	4091.386475	2098.030273	27.543427
827.169922	1415.373901	3884.313965	2098.030273	27.649776
827.474670	1374.414551	3841.079102	2025.213501	26.383764
827.779419	1419.924927	4191.509277	2057.070801	22.988506
828.084045	1358.485962	4776.318359	2168.571289	23.701727
828.388672	1406.271851	5267.830566	2330.133301	23.924574
828.693176	1447.231201	5438.494629	2384.745850	23.489170
828.997681	1360.761475	5129.023926	2375.643799	26.932369
829.302124	1319.802124	4573.796875	2243.663574	28.391609
829.606567	1403.996338	4111.866211	1959.223389	20.504200
829.910828	1401.720825	3706.823486	1988.805176	25.468904
830.215149	1369.863525	3513.404053	1881.855713	23.885351
830.519348	1385.792114	3260.821289	1834.069824	23.907772
830.823547	1353.934937	3099.259277	1822.692139	26.857885
831.127686	1372.139038	2926.319824	1733.946899	23.279652
831.431763	1394.894287	2885.360352	1768.079712	25.038170
831.735779	1365.312500	2726.073975	1640.650513	20.234114
832.039734	1358.485962	2641.879639	1597.415649	18.617022
832.343628	1378.965576	2525.828125	1629.272949	21.825403
832.647461	1278.842651	2562.236328	1613.344238	26.063833
832.951233	1374.414551	2507.624023	1567.833862	17.068275
833.255127	1383.516602	2484.868652	1622.446289	21.694216
833.558777	1415.373901	2482.593262	1672.507813	24.093821
833.862366	1406.271851	2516.726074	1654.303589	22.336061
834.165955	1342.557251	2732.900391	1686.160889	24.713585
834.469482	1365.312500	3160.698486	1779.457275	23.067173
834.773010	1369.863525	3417.832275	2029.764526	32.222221
835.076416	1403.996338	3768.262451	1952.396851	23.195379
835.379822	1399.445313	3879.762939	1972.876587	23.119268
835.683105	1376.690063	3804.670898	1950.121338	23.617619
835.986389	1388.067749	3442.863037	1881.855713	24.031004
836.289612	1374.414551	3192.555664	1804.488037	23.654572
836.592773	1394.894287	3005.962891	1724.844727	20.480223
836.895874	1363.036987	2908.115479	1727.120239	23.564062
837.198914	1390.343262	2853.503174	1697.538574	20.995335
837.501892	1338.006226	2703.318604	1715.742676	27.666668
837.804871	1442.680176	2562.236328	1608.793213	14.837401
838.107666	1353.934937	2528.103516	1588.313477	19.961235
838.410583	1363.036987	2468.940186	1613.344238	22.633739
838.713379	1347.108276	2382.470215	1626.997314	27.032967
839.016052	1397.169800	2259.592041	1611.068726	24.802111
839.318787	1378.965576	2234.561523	1547.354126	19.680849
839.621338	1381.241089	2230.010498	1590.588989	24.664873
839.923889	1419.924927	2316.480225	1497.292725	8.629451
840.226440	1385.792114	2191.326416	1592.864502	25.706217
840.528931	1369.863525	2245.938965	1595.140137	25.714294
840.831299	1356.210449	2352.888428	1563.282837	20.776258
841.133606	1369.863525	2336.959961	1677.058838	31.764704
841.435913	1413.098389	2407.500977	1604.242188	19.221973
841.738220	1376.690063	2409.776611	1633.823975	24.889872
842.040405	1333.455200	2323.306641	1631.548462	30.114950
842.342529	1422.200562	2255.041016	1626.997314	24.590155
842.644592	1369.863525	2284.622803	1540.527588	18.656719
842.946594	1397.169800	2209.530762	1570.109375	21.288513
843.248596	1406.271851	2084.376953	1526.874512	17.785246
843.550598	1374.414551	2118.509766	1469.986450	12.844042
843.852478	1392.618774	2020.662476	1508.670288	18.478254
844.154236	1408.547363	2057.070801	1513.221313	16.140350
844.455994	1324.353149	2027.489014	1576.935913	35.922325
844.757690	1378.965576	1959.223389	1554.180664	30.196075
845.059326	1383.516602	2045.693237	1504.119263	18.213064
845.360962	1356.210449	1952.396851	1515.496826	26.717546
845.662476	1367.588013	1881.855713	1510.945801	27.876102
845.963989	1465.435425	1950.121338	1458.608887	-1.408446
846.265381	1365.312500	1904.610962	1533.701050	31.223629
846.566772	1397.169800	2032.040039	1481.364014	13.261642
846.868042	1369.863525	1909.161987	1485.915039	21.518978
847.169373	1385.792114	1991.080688	1513.221313	21.052635
847.470581	1369.863525	1918.264038	1467.710938	17.842327
847.771729	1413.098389	1881.855713	1488.190552	16.019411
848.072815	1388.067749	1827.243164	1463.159912	17.098444
848.373901	1353.934937	1863.651489	1483.639526	25.446415
848.674866	1374.414551	1811.314575	1410.822876	8.333331
848.975891	1367.588013	1972.876587	1474.537476	17.669168
849.276794	1483.639526	1897.784302	1435.853638	-11.538450
849.577637	1376.690063	1906.886475	1440.404663	12.017169
849.878357	1367.588013	1870.478149	1408.547363	8.144791
850.179077	1351.659302	1802.212524	1422.200562	15.656588
850.479736	1381.241089	1884.131226	1483.639526	20.361990
850.780396	1397.169800	1820.416626	1456.333252	13.978475
851.080994	1369.863525	1897.784302	1406.271851	6.896551
851.381470	1390.343262	1856.824951	1499.568237	23.414633
851.681946	1356.210449	1886.406738	1454.057739	18.454918
851.982361	1312.975464	1802.212524	1463.159912	30.697683
852.282715	1394.894287	1824.967651	1488.190552	21.693104
852.583008	1381.241089	1845.447388	1524.598877	30.882345
852.883240	1374.414551	1872.753662	1469.986450	19.178085
853.183411	1390.343262	1758.977539	1508.670288	32.098759
853.483521	1335.730713	1797.661377	1495.017212	34.482773
853.783630	1351.659302	1847.722900	1533.701050	36.697258
854.083679	1383.516602	1738.497925	1440.404663	16.025650
854.383667	1401.720825	1811.314575	1479.088501	18.888882
854.683533	1442.680176	1843.171875	1456.333252	3.409078
854.983337	1422.200562	1793.110352	1419.924927	-0.613528
855.283203	1367.588013	1795.385864	1456.333252	20.744667
855.582886	1347.108276	1781.732788	1392.618774	10.471222
855.882629	1360.761475	1738.497925	1397.169800	9.638553
856.182312	1344.832764	1834.069824	1449.506714	21.395344
856.481873	1324.353149	1774.906250	1426.751587	22.727274
856.781372	1324.353149	1863.651489	1474.537476	27.848097
857.080872	1376.690063	1824.967651	1529.150024	34.010166
857.380310	1328.904175	1811.314575	1403.996338	15.566033
857.679688	1397.169800	1824.967651	1424.476074	6.382986
857.979004	1349.383789	1729.395752	1483.639526	35.329346
858.278259	1397.169800	1743.048950	1438.129150	11.842099
858.577454	1426.751587	1749.875488	1442.680176	4.929561
858.876648	1385.792114	1777.181763	1499.568237	29.069784
859.175720	1403.996338	1779.457275	1476.812988	19.393934
859.474792	1426.751587	1809.039063	1501.843750	19.642853
859.773743	1413.098389	1849.998413	1435.853638	5.208343
860.072693	1363.036987	1774.906250	1417.649414	13.259651
860.371521	1413.098389	1733.946899	1440.404663	8.510644
860.670349	1378.965576	1777.181763	1442.680176	16.000002
860.969116	1429.027100	1768.079712	1438.129150	2.684554
861.267883	1413.098389	1752.151001	1385.792114	-8.053699
861.566589	1403.996338	1875.029175	1435.853638	6.763287
861.865112	1390.343262	1761.253052	1383.516602	-1.840518
862.163635	1363.036987	1781.732788	1447.231201	20.108685
862.462158	1363.036987	1815.865601	1417.649414	12.060287
862.760620	1367.588013	1815.865601	1415.373901	10.659888
863.059021	1415.373901	1758.977539	1424.476074	2.649033
863.357361	1401.720825	1743.048950	1492.741699	26.666679
863.655640	1356.210449	1797.661377	1403.996338	10.824734
863.953857	1399.445313	1695.262939	1449.506714	16.923061
864.251953	1390.343262	1763.528564	1413.098389	6.097541
864.550110	1372.139038	1718.018188	1495.017212	35.526333
864.848206	1408.547363	1752.151001	1438.129150	8.609277
865.146179	1410.822876	1743.048950	1424.476074	4.109611
865.444092	1338.006226	1820.416626	1497.292725	33.018879
865.741943	1408.547363	1799.937012	1429.027100	5.232570
866.039795	1342.557251	1754.426514	1429.027100	20.994490
866.337646	1374.414551	1758.977539	1413.098389	10.059168
866.635376	1308.424438	1790.834839	1458.608887	31.132092
866.933044	1385.792114	1804.488037	1467.710938	19.565231
867.230652	1328.904175	1809.039063	1390.343262	12.796214
867.528198	1392.618774	1793.110352	1488.190552	23.863617
867.825745	1310.699951	1713.467163	1410.822876	24.858757
868.123230	1390.343262	1843.171875	1456.333252	14.572840
868.420593	1449.506714	1799.937012	1444.955688	-1.298696
868.717896	1399.445313	1768.079712	1399.445313	0.000000
869.015198	1381.241089	1724.844727	1413.098389	9.271525
869.312439	1469.986450	1765.804199	1476.812988	2.307684
869.609619	1392.618774	1729.395752	1444.955688	15.540526
869.906738	1408.547363	1790.834839	1490.466064	21.428560
870.203796	1367.588013	1754.426514	1449.506714	21.176460
870.500854	1403.996338	1815.865601	1515.496826	27.071815
870.797791	1356.210449	1699.814087	1417.649414	17.880766
871.094666	1385.792114	1695.262939	1474.537476	28.676487
871.391602	1431.302612	1797.661377	1433.578125	0.621116
871.688293	1435.853638	1642.926025	1440.404663	2.197794
871.985107	1340.281738	1784.008301	1447.231201	24.102560
872.281738	1287.944824	1765.804199	1476.812988	39.523796
872.578369	1381.241089	1772.630737	1444.955688	16.279072
872.874939	1392.618774	1790.834839	1383.516602	-2.285737
873.171509	1374.414551	1820.416626	1413.098389	8.673466
873.467957	1367.588013	1699.814087	1390.343262	6.849327
873.764343	1349.383789	1761.253052	1422.200562	17.679585
874.060669	1447.231201	1763.528564	1472.261963	7.913680
874.356995	1438.129150	1768.079712	1440.404663	0.689653
874.653198	1413.098389	1831.794189	1392.618774	-4.891287
874.949463	1363.036987	1818.141113	1474.537476	24.499994
875.245544	1385.792114	1754.426514	1438.129150	14.197545
875.541626	1388.067749	1736.222412	1433.578125	13.071885
875.837646	1331.179688	1799.937012	1422.200562	19.417482
876.133606	1401.720825	1774.906250	1460.884399	15.853667
876.429565	1399.445313	1731.671387	1381.241089	-5.479469
876.725403	1328.904175	1772.630737	1501.843750	38.974358
877.021179	1363.036987	1790.834839	1374.414551	2.659565
877.316956	1338.006226	1708.916138	1422.200562	22.699404
877.612610	1424.476074	1679.334351	1520.047852	37.499969
877.908203	1415.373901	1670.232300	1447.231201	12.500000
878.203857	1358.485962	1702.089600	1394.894287	10.596025
878.499390	1356.210449	1813.590088	1431.302612	16.417908
878.794800	1419.924927	1786.283813	1520.047852	27.329193
879.090271	1340.281738	1799.937012	1567.833862	49.504951
879.385559	1365.312500	1824.967651	1460.884399	20.792088
879.680847	1422.200562	1795.385864	1499.568237	20.731705
879.976196	1319.802124	1852.273926	1506.394775	35.042728
880.271301	1403.996338	1890.957764	1444.955688	8.411210
880.566467	1363.036987	1961.498901	1488.190552	20.912537
880.861572	1451.782227	1981.978638	1508.670288	10.729620
881.156555	1324.353149	2066.172852	1586.037964	35.276066
881.451477	1408.547363	2264.143311	1611.068726	23.670210
881.746460	1438.129150	2528.103516	1727.120239	26.513567
882.041321	1444.955688	3135.667725	1809.039063	21.534323
882.336121	1358.485962	4016.294189	2007.009399	24.400686
882.630798	1449.506714	4728.532227	2127.612061	20.680088
882.925537	1403.996338	5001.594727	2270.969727	24.098671
883.220215	1426.751587	4869.614746	2264.143311	24.322538
883.514771	1308.424438	4548.766113	2241.387939	28.792133
883.809326	1401.720825	4211.988770	1991.080688	20.971661
884.103760	1351.659302	3920.722412	1966.049927	23.914968
884.398132	1403.996338	3688.619141	1893.233276	21.414341
884.692505	1378.965576	3547.536865	1849.998413	21.720882
884.986816	1333.455200	3335.913574	1784.008301	22.499998
885.281067	1363.036987	3076.504150	1733.946899	21.646748
885.575256	1374.414551	2978.656738	1829.518677	28.368792
885.869385	1406.271851	2742.002686	1658.854614	18.909706
886.163452	1488.190552	2662.359375	1601.966675	9.689929
886.457458	1415.373901	2459.837891	1647.477051	22.222225
886.751465	1410.822876	2343.786377	1572.384888	17.317078
887.045410	1360.761475	2243.663574	1626.997314	30.154627
887.339233	1358.485962	2116.234375	1497.292725	18.318317
887.632996	1390.343262	2070.723877	1517.772339	18.729088
887.926758	1367.588013	1966.049927	1497.292725	21.673010
888.220398	1397.169800	1922.815063	1449.506714	9.956698
888.514099	1390.343262	1931.917114	1504.119263	21.008400
888.807678	1328.904175	1811.314575	1449.506714	24.999987
889.101196	1385.792114	1929.641602	1422.200562	6.694582
889.394653	1374.414551	1859.100464	1424.476074	10.328652
889.688049	1435.853638	1893.233276	1410.822876	-5.472644
889.981384	1338.006226	1822.692139	1456.333252	24.413136
890.274719	1385.792114	1733.946899	1392.618774	1.960812
890.567932	1378.965576	1843.171875	1422.200562	9.313744
>>>>>End Processed Spectral Data<<<<<
