Jaz Data File
++++++++++++++++++++++++++++++++++++
Date: Wed Feb 07 06:34:41 2024
User: jaz
Dark Spectrum Present: Yes
Reference Spectrum Present: Yes
Processed Spectrum Present: Yes
Spectrometers: JAZA3692
Integration Time (usec): 40000 (JAZA3692)
Spectra Averaged: 1 (JAZA3692)
Boxcar Smoothing: 0 (JAZA3692)
Correct for Electrical Dark: No (JAZA3692)
Strobe/Lamp Enabled: Yes (JAZA3692)
Correct for Detector Non-linearity: No (JAZA3692)
Correct for Stray Light: No (JAZA3692)
Number of Pixels in Processed Spectrum: 2048
>>>>>Begin Processed Spectral Data<<<<<
W	D	R	S	P
190.244385	0.000000	0.000000	0.000000	0.000000
190.627136	0.000000	0.000000	0.000000	0.000000
191.009842	1424.476074	1381.241089	1203.750488	510.525421
191.392532	1344.832764	1360.761475	1301.597900	-271.427246
191.775177	1369.863525	1378.965576	1331.179688	-425.001343
192.157791	1410.822876	1438.129150	1324.353149	-316.666138
192.540390	1367.588013	1419.924927	1374.414551	13.043447
192.922943	1408.547363	1406.271851	1269.740601	6100.021484
193.305481	1335.730713	1406.271851	1344.832764	12.903181
193.687958	1381.241089	1431.302612	1347.108276	-68.181732
194.070419	1347.108276	1358.485962	1385.792114	339.997437
194.452866	1447.231201	1442.680176	1303.873413	3150.010742
194.835251	1369.863525	1392.618774	1328.904175	-179.999573
195.217621	1367.588013	1344.832764	1358.485962	39.999786
195.599960	1438.129150	1388.067749	1360.761475	154.545563
195.982254	1456.333252	1442.680176	1335.730713	883.335999
196.364517	1490.466064	1365.312500	1349.383789	112.727333
196.746750	1449.506714	1429.027100	1365.312500	411.112305
197.128952	1390.343262	1353.934937	1360.761475	81.250061
197.511139	1444.955688	1456.333252	1392.618774	-460.001068
197.893280	1374.414551	1372.139038	1353.934937	900.000000
198.275391	1399.445313	1340.281738	1360.761475	65.384552
198.657471	1410.822876	1392.618774	1408.547363	12.500000
199.039520	1394.894287	1431.302612	1342.557251	-143.750183
199.421539	1403.996338	1419.924927	1322.077637	-514.287231
199.803513	1435.853638	1440.404663	1331.179688	-2300.008057
200.185471	1406.271851	1381.241089	1372.139038	136.363464
200.567383	1385.792114	1429.027100	1326.628662	-136.841614
200.949265	1456.333252	1431.302612	1369.863525	345.455536
201.331131	1392.618774	1449.506714	1324.353149	-120.000175
201.712967	1378.965576	1401.720825	1378.965576	0.000000
202.094742	1442.680176	1435.853638	1351.659302	1333.338745
202.476517	1401.720825	1458.608887	1283.393677	-207.999969
202.858231	1408.547363	1378.965576	1319.802124	299.999573
203.239944	1415.373901	1392.618774	1308.424438	470.001617
203.621582	1376.690063	1472.261963	1338.006226	-40.476162
204.003235	1331.179688	1367.588013	1394.894287	175.000076
204.384827	1328.904175	1444.955688	1344.832764	13.725447
204.766388	1369.863525	1438.129150	1322.077637	-69.999931
205.147934	1351.659302	1447.231201	1331.179688	-21.428490
205.529449	1392.618774	1433.578125	1363.036987	-72.222305
205.910904	1444.955688	1460.884399	1358.485962	-542.854492
206.292343	1360.761475	1476.812988	1363.036987	1.960778
206.673767	1429.027100	1413.098389	1274.291626	971.424988
207.055115	1456.333252	1390.343262	1319.802124	206.896729
207.436462	1403.996338	1431.302612	1342.557251	-224.999893
207.817780	1431.302612	1390.343262	1353.934937	188.888916
208.199051	1358.485962	1463.159912	1315.250977	-41.304436
208.580307	1424.476074	1422.200562	1299.322388	5500.021484
208.961517	1388.067749	1454.057739	1317.526489	-106.896912
209.342712	1440.404663	1431.302612	1351.659302	975.004028
209.723846	1390.343262	1463.159912	1317.526489	-100.000168
210.104965	1403.996338	1388.067749	1281.118164	771.431641
210.486069	1426.751587	1447.231201	1308.424438	-577.780151
210.867111	1383.516602	1456.333252	1374.414551	-12.499958
211.248123	1385.792114	1390.343262	1397.169800	249.995972
211.629120	1385.792114	1424.476074	1315.250977	-182.352417
212.010071	1456.333252	1474.537476	1310.699951	-799.997314
212.390991	1406.271851	1378.965576	1301.597900	383.332947
212.771881	1349.383789	1397.169800	1342.557251	-14.285642
213.152756	1401.720825	1438.129150	1301.597900	-275.000092
213.533569	1392.618774	1417.649414	1308.424438	-336.365112
213.914368	1331.179688	1429.027100	1306.148926	-25.581425
214.295135	1383.516602	1410.822876	1408.547363	91.666702
214.675858	1433.578125	1458.608887	1347.108276	-345.454315
215.056549	1417.649414	1415.373901	1267.465088	6600.021484
215.437225	1365.312500	1431.302612	1335.730713	-44.827606
215.817841	1458.608887	1413.098389	1326.628662	289.999512
216.198441	1360.761475	1392.618774	1285.669312	-235.714142
216.579025	1356.210449	1378.965576	1333.455200	-100.000534
216.959549	1360.761475	1408.547363	1312.975464	-100.000252
217.340057	1413.098389	1442.680176	1317.526489	-323.076813
217.720535	1378.965576	1360.761475	1344.832764	187.500671
218.100967	1419.924927	1415.373901	1283.393677	3000.010742
218.481369	1340.281738	1435.853638	1338.006226	-2.380943
218.861740	1401.720825	1458.608887	1322.077637	-139.999832
219.242065	1424.476074	1367.588013	1315.250977	192.000031
219.622391	1338.006226	1510.945801	1344.832764	3.947355
220.002670	1358.485962	1447.231201	1349.383789	-10.256519
220.382919	1338.006226	1365.312500	1319.802124	-66.666367
220.763123	1381.241089	1479.088501	1319.802124	-62.790588
221.143295	1378.965576	1358.485962	1317.526489	300.001190
221.523453	1363.036987	1399.445313	1324.353149	-106.249977
221.903549	1406.271851	1485.915039	1338.006226	-85.714333
222.283630	1312.975464	1469.986450	1294.771362	-11.594158
222.663696	1401.720825	1435.853638	1356.210449	-133.333221
223.043701	1376.690063	1385.792114	1328.904175	-525.001343
223.423676	1353.934937	1488.190552	1388.067749	25.423750
223.803635	1381.241089	1472.261963	1306.148926	-82.499939
224.183548	1394.894287	1442.680176	1383.516602	-23.809719
224.563431	1438.129150	1431.302612	1322.077637	1700.005371
224.943283	1419.924927	1451.782227	1322.077637	-307.142456
225.323105	1388.067749	1372.139038	1278.842651	685.712097
225.702881	1442.680176	1449.506714	1278.842651	-2400.009033
226.082642	1326.628662	1465.435425	1410.822876	60.655701
226.462357	1374.414551	1458.608887	1408.547363	40.540508
226.842041	1303.873413	1451.782227	1308.424438	3.076913
227.221695	1326.628662	1467.710938	1351.659302	17.741875
227.601318	1388.067749	1417.649414	1267.465088	-407.693970
227.980911	1419.924927	1488.190552	1299.322388	-176.666565
228.360474	1397.169800	1510.945801	1344.832764	-46.000065
228.739990	1374.414551	1508.670288	1342.557251	-23.728819
229.119476	1372.139038	1504.119263	1312.975464	-44.827606
229.498932	1403.996338	1604.242188	1306.148926	-48.863640
229.878372	1460.884399	1599.691162	1360.761475	-72.131157
230.257736	1358.485962	1702.089600	1306.148926	-15.231805
230.637115	1465.435425	1679.334351	1351.659302	-53.191536
231.016449	1456.333252	1658.854614	1319.802124	-67.415665
231.395737	1363.036987	1599.691162	1322.077637	-17.307682
231.774994	1419.924927	1561.007324	1388.067749	-22.580547
232.154221	1449.506714	1608.793213	1287.944824	-101.428490
232.533417	1406.271851	1583.762451	1372.139038	-19.230772
232.912582	1401.720825	1567.833862	1340.281738	-36.986313
233.291702	1338.006226	1581.486938	1338.006226	0.000000
233.670792	1374.414551	1611.068726	1317.526489	-24.038479
234.049866	1419.924927	1615.619751	1315.250977	-53.488358
234.428894	1413.098389	1604.242188	1331.179688	-42.857105
234.807892	1351.659302	1495.017212	1342.557251	-6.349179
235.186874	1285.669312	1524.598877	1319.802124	14.285722
235.565781	1460.884399	1601.966675	1322.077637	-98.387100
235.944687	1383.516602	1601.966675	1328.904175	-24.999958
236.323547	1397.169800	1622.446289	1424.476074	12.121227
236.702377	1383.516602	1665.681274	1365.312500	-6.451588
237.081177	1381.241089	1581.486938	1299.322388	-40.909061
237.459946	1372.139038	1706.640625	1283.393677	-26.530624
237.838669	1422.200562	1615.619751	1299.322388	-63.529465
238.217361	1381.241089	1608.793213	1333.455200	-20.999975
238.596039	1363.036987	1670.232300	1322.077637	-13.333325
238.974670	1385.792114	1622.446289	1301.597900	-35.576897
239.353271	1344.832764	1674.783325	1308.424438	-11.034479
239.731842	1347.108276	1611.068726	1308.424438	-14.655165
240.110367	1383.516602	1704.365112	1392.618774	2.836907
240.488876	1356.210449	1722.569214	1326.628662	-8.074540
240.867340	1458.608887	1806.763550	1406.271851	-15.032697
241.245789	1401.720825	1818.141113	1406.271851	1.092892
241.624176	1456.333252	1804.488037	1353.934937	-29.411722
242.002548	1394.894287	1904.610962	1347.108276	-9.375014
242.380890	1415.373901	1902.335449	1326.628662	-18.224281
242.759186	1356.210449	1943.294800	1406.271851	8.527122
243.137451	1356.210449	2029.764526	1410.822876	8.108098
243.515686	1331.179688	2123.060791	1429.027100	12.356326
243.893890	1310.699951	2204.979736	1308.424438	-0.254452
244.272049	1495.017212	2209.530762	1365.312500	-18.152870
244.650192	1447.231201	2054.795166	1390.343262	-9.363284
245.028290	1426.751587	2029.764526	1356.210449	-11.698113
245.406357	1403.996338	1925.090576	1365.312500	-7.423578
245.784393	1394.894287	1904.610962	1376.690063	-3.571440
246.162384	1388.067749	1925.090576	1378.965576	-1.694932
246.540359	1385.792114	2029.764526	1317.526489	-10.600706
246.918289	1403.996338	2134.438477	1365.312500	-5.295949
247.296204	1378.965576	2218.632813	1415.373901	4.336042
247.674057	1394.894287	2473.491211	1388.067749	-0.632909
248.051895	1383.516602	2769.308838	1440.404663	4.105093
248.429703	1376.690063	2805.717041	1469.986450	6.528665
248.807465	1315.250977	2810.268311	1449.506714	8.980213
249.185196	1392.618774	2582.716064	1367.588013	-2.103253
249.562897	1340.281738	2416.603027	1417.649414	7.188158
249.940567	1367.588013	2341.510986	1408.547363	4.205605
250.318192	1419.924927	2214.081787	1417.649414	-0.286532
250.695801	1399.445313	2157.193604	1397.169800	-0.300299
251.073349	1449.506714	2066.172852	1417.649414	-5.166053
251.450882	1392.618774	1972.876587	1365.312500	-4.705886
251.828400	1406.271851	2020.662476	1399.445313	-1.111107
252.205872	1358.485962	2107.132324	1353.934937	-0.607901
252.583313	1378.965576	2118.509766	1422.200562	5.846167
252.960693	1381.241089	2164.020264	1344.832764	-4.651162
253.338074	1374.414551	2234.561523	1376.690063	0.264549
253.715408	1415.373901	2216.357178	1349.383789	-8.238638
254.092682	1360.761475	2091.203613	1342.557251	-2.492220
254.469955	1390.343262	2093.479248	1426.751587	5.177992
254.847198	1369.863525	2000.182739	1374.414551	0.722019
255.224365	1422.200562	1991.080688	1351.659302	-12.400022
255.601563	1408.547363	1950.121338	1426.751587	3.361355
255.978683	1413.098389	2047.968750	1417.649414	0.716843
256.355743	1424.476074	1961.498901	1349.383789	-13.983071
256.732819	1390.343262	2043.417725	1342.557251	-7.317085
257.109894	1349.383789	2043.417725	1399.445313	7.213123
257.486877	1415.373901	2004.733887	1392.618774	-3.860990
257.863831	1426.751587	2009.284912	1417.649414	-1.562515
258.240753	1422.200562	2150.367188	1390.343262	-4.375001
258.617645	1374.414551	2273.245361	1378.965576	0.506327
258.994507	1444.955688	2316.480225	1347.108276	-11.227155
259.371307	1349.383789	2423.429688	1451.782227	9.533897
259.748108	1372.139038	2491.695313	1456.333252	7.520320
260.124878	1394.894287	2764.757813	1458.608887	4.651164
260.501617	1347.108276	3053.749023	1485.915039	8.133332
260.878296	1390.343262	3258.545898	1492.741699	5.481121
261.254944	1394.894287	3358.668701	1563.282837	8.574740
261.631561	1415.373901	3358.668701	1454.057739	1.990631
262.008179	1372.139038	2833.023438	1469.986450	6.697820
262.384735	1388.067749	2760.206787	1483.639526	6.965167
262.761261	1422.200562	2512.175049	1454.057739	2.922745
263.137695	1406.271851	2389.296875	1479.088501	7.407405
263.514191	1369.863525	2512.175049	1433.578125	5.577690
263.890594	1390.343262	2446.184814	1385.792114	-0.431045
264.267029	1397.169800	2352.888428	1388.067749	-0.952378
264.643341	1306.148926	2468.940186	1444.955688	11.937376
265.019653	1331.179688	2371.092773	1381.241089	4.813999
265.395935	1397.169800	2255.041016	1356.210449	-4.774534
265.772217	1392.618774	2248.214600	1401.720825	1.063826
266.148407	1410.822876	2357.439453	1415.373901	0.480768
266.524597	1378.965576	2423.429688	1388.067749	0.871468
266.900726	1347.108276	2375.643799	1381.241089	3.318584
267.276855	1326.628662	2600.920166	1360.761475	2.678572
267.652924	1340.281738	2646.430664	1351.659302	0.871077
268.028992	1376.690063	2755.655762	1401.720825	1.815184
268.404999	1403.996338	2691.941162	1401.720825	-0.176678
268.781006	1417.649414	2673.737061	1381.241089	-2.898550
269.156921	1381.241089	2594.093750	1506.394775	10.318953
269.532837	1383.516602	2657.808350	1424.476074	3.214293
269.908661	1338.006226	2671.461426	1433.578125	7.167237
270.284546	1290.220337	2589.542725	1474.537476	14.185636
270.660339	1410.822876	2534.930176	1510.945801	8.906883
271.036133	1303.873413	2685.114502	1506.394775	14.662274
271.411835	1347.108276	2833.023438	1435.853638	5.972438
271.787537	1351.659302	2939.972900	1499.568237	9.312325
272.163239	1444.955688	3160.698486	1490.466064	2.652517
272.538849	1401.720825	3340.464600	1492.741699	4.694838
272.914459	1340.281738	3217.586426	1476.812988	7.272727
273.290070	1344.832764	3206.208740	1460.884399	6.234723
273.665588	1338.006226	3024.167236	1465.435425	7.557356
274.041046	1390.343262	3005.962891	1467.710938	4.788731
274.416565	1392.618774	3049.197754	1454.057739	3.708786
274.791962	1419.924927	3021.891602	1488.190552	4.261364
275.167389	1351.659302	2812.543701	1388.067749	2.492220
275.542755	1426.751587	2789.788574	1435.853638	0.667777
275.918060	1467.710938	2835.298828	1406.271851	-4.492515
276.293365	1472.261963	2862.605225	1369.863525	-7.364975
276.668640	1419.924927	2899.013428	1469.986450	3.384620
277.043854	1326.628662	2978.656738	1469.986450	8.677685
277.419037	1365.312500	3010.513916	1497.292725	8.022132
277.794189	1306.148926	3030.993652	1485.915039	10.422162
278.169312	1417.649414	3012.789551	1465.435425	2.995725
278.544373	1408.547363	3040.095703	1449.506714	2.510459
278.919464	1353.934937	2967.279053	1499.568237	9.026797
279.294464	1344.832764	2942.248291	1415.373901	4.415954
279.669464	1360.761475	2951.350586	1469.986450	6.866951
280.044403	1340.281738	2942.248291	1488.190552	9.232953
280.419312	1312.975464	3003.687500	1488.190552	10.363390
280.794189	1435.853638	3099.259277	1424.476074	-0.683992
281.169037	1344.832764	3028.718262	1490.466064	8.648646
281.543854	1438.129150	3203.933350	1426.751587	-0.644328
281.918671	1413.098389	3176.626953	1474.537476	3.483872
282.293365	1417.649414	3338.188965	1410.822876	-0.355449
282.668091	1376.690063	3511.128662	1556.456177	8.422174
283.042786	1399.445313	3572.567627	1485.915039	3.979055
283.417419	1301.597900	3508.853027	1433.578125	5.979383
283.792053	1381.241089	3545.261475	1463.159912	3.785492
284.166595	1394.894287	3297.229736	1476.812988	4.306218
284.541138	1360.761475	3399.628174	1561.007324	9.821429
284.915619	1431.302612	3244.892578	1492.741699	3.387706
285.290100	1335.730713	3456.516113	1531.425537	9.227469
285.664520	1431.302612	3490.648926	1547.354126	5.635357
286.038940	1408.547363	3540.710449	1535.976563	5.976522
286.413300	1356.210449	3765.986816	1572.384888	8.970726
286.787628	1394.894287	3884.313965	1615.619751	8.866543
287.161896	1333.455200	3868.385254	1583.762451	9.874325
287.536194	1344.832764	3836.528076	1645.201538	12.054795
287.910400	1308.424438	3754.609375	1695.262939	15.813951
288.284607	1372.139038	3606.700439	1611.068726	10.692464
288.658752	1385.792114	3497.475586	1583.762451	9.375000
289.032867	1378.965576	3376.872803	1631.548462	12.642373
289.406921	1342.557251	3486.097900	1567.833862	10.509557
289.781006	1415.373901	3481.546875	1599.691162	8.920709
290.154999	1454.057739	3549.812500	1581.486938	6.080348
290.529022	1422.200562	3620.353516	1649.752563	10.351965
290.902954	1438.129150	3756.884766	1718.018188	12.070657
291.276825	1317.526489	3884.313965	1649.752563	12.943263
291.650757	1363.036987	3973.059326	1711.191650	13.339145
292.024597	1403.996338	3913.895752	1779.457275	14.959203
292.398407	1397.169800	3831.977051	1749.875488	14.485981
292.772156	1399.445313	3802.395264	1699.814087	12.500001
293.145905	1388.067749	3561.189941	1670.232300	12.984294
293.519592	1349.383789	3577.118652	1713.467163	16.343210
293.893280	1406.271851	3611.251465	1784.008301	17.131063
294.266907	1397.169800	3763.711426	1672.507813	11.634616
294.640533	1410.822876	3759.160400	1768.079712	15.213181
295.014069	1344.832764	3957.130615	1804.488037	17.595821
295.387604	1454.057739	4148.274414	1881.855713	15.878380
295.761078	1392.618774	4173.305176	1861.375977	16.857607
296.134552	1467.710938	4098.212891	1804.488037	12.802770
296.507996	1333.455200	4123.243652	1827.243164	17.699835
296.881378	1408.547363	4114.141602	1900.059814	18.166525
297.254730	1403.996338	4398.581543	1886.406738	16.109423
297.628021	1403.996338	4603.378418	1931.917114	16.500711
298.001282	1367.588013	4808.175293	1984.254150	17.923281
298.374573	1390.343262	4683.021973	2018.386963	19.073944
298.747803	1458.608887	4566.970215	1895.508789	14.055634
299.121002	1383.516602	4371.275391	1936.468262	18.507238
299.494141	1376.690063	4202.886719	1918.264038	19.162642
299.867188	1385.792114	4150.549805	1877.304688	17.777781
300.240265	1417.649414	4014.018799	1879.580200	17.791412
300.613312	1331.179688	3847.905762	1966.049927	25.226036
300.986328	1322.077637	3847.905762	1870.478149	21.711712
301.359314	1372.139038	3841.079102	1793.110352	17.050692
301.732239	1422.200562	3804.670898	1829.518677	17.096462
302.105103	1378.965576	3895.691650	1811.314575	17.179026
302.477997	1365.312500	3879.762939	1815.865601	17.918552
302.850830	1438.129150	3998.090088	1809.039063	14.488890
303.223602	1422.200562	3809.221924	1811.314575	16.301237
303.596375	1319.802124	3804.670898	1763.528564	17.857140
303.969116	1438.129150	3643.108887	1768.079712	14.963881
304.341766	1417.649414	3606.700439	1752.151001	15.280666
304.714478	1383.516602	3722.751953	1827.243164	18.968872
305.087067	1378.965576	3645.384277	1749.875488	16.365463
305.459656	1383.516602	3752.333740	1677.058838	12.391933
305.832214	1347.108276	3581.669678	1815.865601	20.977598
306.204681	1335.730713	3604.425049	1804.488037	20.661987
306.577148	1358.485962	3663.588379	1731.671387	16.189537
306.949646	1335.730713	3711.374512	1770.355225	18.295021
307.322021	1419.924927	3709.098877	1690.711914	11.829027
307.694397	1424.476074	3597.598389	1738.497925	14.450261
308.066742	1365.312500	3750.058350	1797.661377	18.129768
308.439026	1356.210449	3775.089111	1788.559326	17.873938
308.811279	1374.414551	3841.079102	1845.447388	19.095942
309.183502	1356.210449	4041.324951	1752.151001	14.745760
309.555695	1460.884399	3975.334961	1829.518677	14.660628
309.927887	1335.730713	4014.018799	1804.488037	17.502125
310.299988	1381.241089	4125.519043	1811.314575	15.671645
310.672058	1440.404663	4164.203125	1849.998413	15.037595
311.044128	1308.424438	4136.896973	1834.069824	18.584072
311.416168	1399.445313	4161.927734	1897.784302	18.039536
311.788147	1392.618774	4209.713379	1884.131226	17.447495
312.160065	1410.822876	4166.478516	1888.682251	17.341040
312.531982	1312.975464	4093.661865	1879.580200	20.376432
312.903870	1338.006226	4011.743164	1829.518677	18.382978
313.275696	1431.302612	3825.150391	1843.171875	17.205324
313.647491	1438.129150	3875.211914	1774.906250	13.818862
314.019318	1419.924927	3984.437012	1834.069824	16.149071
314.391022	1388.067749	3850.181152	1820.416626	17.560072
314.762726	1342.557251	4050.427002	1713.467163	13.697480
315.134369	1347.108276	4061.804688	1877.304688	19.530598
315.505981	1308.424438	4105.039551	1843.171875	19.121237
315.877594	1415.373901	4148.274414	1913.713013	18.234806
316.249146	1351.659302	4136.896973	1811.314575	16.503269
316.620636	1435.853638	3959.406250	1765.804199	13.074843
316.992157	1340.281738	3886.589600	1770.355225	16.890081
317.363586	1292.495850	3756.884766	1756.702026	18.836563
317.735016	1399.445313	3786.466553	1745.324463	14.489990
318.106354	1378.965576	3704.547852	1793.110352	17.808218
318.477722	1415.373901	3695.445801	1809.039063	17.265472
318.849060	1381.241089	3877.487549	1834.069824	18.140385
319.220306	1417.649414	3866.109863	1715.742676	12.174723
319.591522	1358.485962	3929.824463	1870.478149	19.911505
319.962738	1492.741699	3909.344727	1772.630737	11.581921
320.333923	1372.139038	3941.202148	1822.692139	17.537643
320.705017	1390.343262	3902.518066	1749.875488	14.311593
321.076111	1369.863525	3904.793701	1779.457275	16.157990
321.447144	1369.863525	3734.129639	1804.488037	18.383062
321.818176	1331.179688	3674.966064	1738.497925	17.378641
322.189178	1376.690063	3661.312988	1756.702026	16.633465
322.560120	1344.832764	3645.384277	1774.906250	18.694365
322.931030	1265.189575	3857.007813	1743.048950	18.437225
323.301910	1310.699951	3913.895752	1761.253052	17.307692
323.672729	1401.720825	4177.855957	1806.763550	14.590165
324.043549	1358.485962	4207.437988	1843.171875	17.012779
324.414337	1376.690063	4516.908691	1813.590088	13.913044
324.785095	1342.557251	4671.644043	1900.059814	16.746410
325.155792	1353.934937	4437.265625	1900.059814	17.712173
325.526428	1403.996338	4557.868164	1915.988525	16.233767
325.897034	1394.894287	4353.071289	1815.865601	14.230768
326.267670	1381.241089	4480.500488	1799.937012	13.509548
326.638184	1385.792114	4430.438965	1897.784302	16.816143
327.008728	1353.934937	4421.336914	1834.069824	15.652820
327.379211	1403.996338	4564.694824	1813.590088	12.958963
327.749634	1356.210449	4384.928711	1806.763550	14.876032
328.120026	1424.476074	4307.561035	1863.651489	15.232829
328.490417	1338.006226	4189.233887	1829.518677	17.238626
328.860748	1410.822876	4159.651855	1777.181763	13.327816
329.231079	1417.649414	4084.559814	1829.518677	15.443686
329.601318	1335.730713	4020.845215	1859.100464	19.491524
329.971558	1381.241089	4200.611328	1790.834839	14.527846
330.341736	1385.792114	4105.039551	1834.069824	16.485359
330.711914	1363.036987	4282.530273	1733.946899	12.704599
331.082062	1429.027100	4296.183105	1847.722900	14.603175
331.452148	1385.792114	4243.846191	1779.457275	13.773888
331.822174	1381.241089	4150.549805	1799.937012	15.119150
332.192200	1385.792114	4357.622559	1813.590088	14.395100
332.562134	1397.169800	4419.061523	1820.416626	14.006022
332.932129	1410.822876	4346.244629	1788.559326	12.868217
333.302063	1347.108276	4500.979980	1847.722900	15.873018
333.671906	1401.720825	4635.235840	1840.896362	13.581985
334.041718	1358.485962	4626.133789	1877.304688	15.877437
334.411499	1390.343262	4708.052734	1809.039063	12.620026
334.781281	1390.343262	4662.541992	1981.978638	18.080667
335.151001	1360.761475	4719.430176	1997.907227	18.970188
335.520721	1360.761475	4662.541992	1829.518677	14.197104
335.890350	1381.241089	4537.388672	1920.539551	17.087238
336.259979	1322.077637	4642.062500	1840.896362	15.627141
336.629547	1324.353149	4617.031738	1856.824951	16.171387
336.999084	1349.383789	4553.316895	1840.896362	15.340913
337.368622	1367.588013	4562.419434	1884.131226	16.168089
337.738098	1392.618774	4712.603516	1918.264038	15.832761
338.107513	1415.373901	4607.929688	1870.478149	14.255170
338.476898	1424.476074	4664.817871	1861.375977	13.483143
338.846252	1447.231201	4607.929688	1911.437500	14.686827
339.215576	1397.169800	4710.328125	1909.161987	15.453298
339.584869	1376.690063	4671.644043	1895.508789	15.745856
339.954132	1444.955688	4701.226074	1884.131226	13.487072
340.323334	1474.537476	4612.480469	1895.508789	13.415519
340.692505	1403.996338	4455.469727	1824.967651	13.795673
341.061646	1385.792114	4464.571777	1845.447388	14.929788
341.430786	1358.485962	4537.388672	1865.927002	15.962773
341.799896	1369.863525	4548.766113	1909.161987	16.964926
342.168915	1344.832764	4623.858398	1836.345337	14.989593
342.537903	1431.302612	4796.797852	1815.865601	11.426640
342.906830	1374.414551	4958.359863	1831.794189	12.761904
343.275757	1401.720825	4910.573730	1938.743774	15.304800
343.644684	1372.139038	4826.379395	1886.406738	14.888012
344.013550	1365.312500	5001.594727	1909.161987	14.956196
344.382355	1367.588013	5238.249023	1913.713013	14.109346
344.751129	1385.792114	5276.932617	1966.049927	14.912281
345.119873	1426.751587	5486.280762	2041.142212	15.134529
345.488586	1392.618774	5670.597656	2043.417725	15.212767
345.857269	1360.761475	5854.915039	2020.662476	14.683544
346.225891	1403.996338	6025.579102	2036.591064	13.687837
346.594482	1392.618774	5959.588867	2113.958740	15.794716
346.963043	1419.924927	5879.945801	1981.978638	12.602042
347.331543	1426.751587	5604.607910	1970.601074	13.017428
347.700043	1397.169800	5415.739746	2002.458252	15.062285
348.068512	1378.965576	5217.769043	2072.999512	18.079433
348.436951	1419.924927	5190.462891	2145.816162	19.251661
348.805328	1406.271851	5115.370605	1888.682251	13.006136
349.173645	1358.485962	5129.023926	1986.529663	16.656607
349.541931	1454.057739	5106.268555	1918.264038	12.710281
349.910217	1374.414551	5283.759277	1945.570313	14.610013
350.278473	1381.241089	5361.126953	1975.152100	14.922815
350.646667	1392.618774	5497.658203	2016.111450	15.188469
351.014801	1413.098389	5424.841797	2034.315552	15.484967
351.382935	1392.618774	5422.565918	1936.468262	13.495201
351.751007	1312.975464	5563.648438	2041.142212	17.130623
352.119049	1365.312500	5436.219238	2027.489014	16.266069
352.487091	1324.353149	5465.800781	2009.284912	16.538462
352.855072	1369.863525	5618.260742	2020.662476	15.318692
353.222992	1381.241089	5552.270996	2079.825928	16.748499
353.590881	1326.628662	5707.006348	1963.774414	14.545451
353.958740	1422.200562	5779.822754	2052.519775	14.464752
354.326599	1340.281738	6116.600098	2093.479248	15.769416
354.694397	1408.547363	6084.742676	2091.203613	14.598540
355.062134	1397.169800	6282.712891	2034.315552	13.041452
355.429840	1378.965576	6284.988281	2020.662476	13.079779
355.797516	1358.485962	6335.049805	2079.825928	14.494740
356.165192	1319.802124	6635.418457	2186.775391	16.309929
356.532776	1385.792114	6794.705078	2189.051025	14.850653
356.900360	1472.261963	6924.409668	2145.816162	12.353925
357.267883	1388.067749	7033.634766	2236.836914	15.034259
357.635376	1449.506714	7393.166992	2270.969727	13.820827
358.002808	1322.077637	7848.271484	2368.817139	16.039051
358.370270	1440.404663	8116.782715	2471.215576	15.439672
358.737640	1328.904175	7977.976074	2484.868652	17.385351
359.105011	1356.210449	7968.874023	2382.470215	15.519612
359.472321	1290.220337	7520.596191	2307.378174	16.325787
359.839569	1374.414551	7290.768555	2314.204590	15.884615
360.206787	1367.588013	7361.309570	2300.551514	15.565680
360.574005	1392.618774	7616.167969	2361.990479	15.575866
360.941193	1353.934937	7943.843262	2471.215576	16.954418
361.308319	1408.547363	8519.549805	2541.756836	15.936002
361.675415	1374.414551	9079.328125	2516.726074	14.825754
362.042450	1449.506714	9639.106445	2584.991699	13.864964
362.409424	1353.934937	10053.250977	2685.114502	15.302117
362.776428	1433.578125	10248.945313	2769.308838	15.152298
363.143402	1360.761475	9905.341797	2650.981689	15.099867
363.510284	1433.578125	9184.001953	2439.358398	12.977100
363.877136	1322.077637	8508.171875	2439.358398	15.547816
364.243988	1385.792114	7818.689453	2371.092773	15.316592
364.610779	1390.343262	7638.923340	2361.990479	15.549889
364.977539	1440.404663	7454.605957	2332.408936	14.831634
365.344269	1438.129150	7217.952148	2250.489990	14.055116
365.710938	1381.241089	7327.176758	2264.143311	14.848836
366.077576	1287.944824	7054.114258	2211.806152	16.022099
366.444183	1358.485962	6903.930176	2220.908203	15.551905
366.810760	1374.414551	6851.593262	2243.663574	15.870379
367.177277	1460.884399	7072.318848	2277.796387	14.557988
367.543823	1424.476074	7026.808105	2241.387939	14.581639
367.910248	1265.189575	6990.399902	2211.806152	16.534180
368.276642	1310.699951	6851.593262	2193.602051	15.934291
368.643036	1294.771362	6844.766602	2129.887451	15.047150
369.009399	1397.169800	6535.295898	2227.734863	16.164747
369.375671	1351.659302	6521.642578	2077.550537	14.040495
369.741974	1394.894287	6482.958984	2168.571289	15.205724
370.108215	1399.445313	6505.713867	2063.897461	13.012480
370.474396	1383.516602	6467.030273	2113.958740	14.368844
370.840546	1328.904175	6646.796387	2129.887451	15.062044
371.206665	1333.455200	6787.878418	2195.877686	15.811433
371.572784	1385.792114	6835.664551	2191.326416	14.780791
371.938843	1442.680176	7013.155273	2236.836914	14.256536
372.304840	1392.618774	7040.461426	2280.071777	15.713132
372.670807	1347.108276	7097.349609	2184.500000	14.562723
373.036713	1306.148926	6990.399902	2152.642578	14.891912
373.402649	1394.894287	6819.735840	2182.224365	14.513420
373.768524	1424.476074	6958.542480	2136.714111	12.870067
374.134308	1447.231201	6822.011230	2216.357178	14.309905
374.500122	1360.761475	6999.501953	2186.775391	14.648909
374.865875	1349.383789	7145.135254	2248.214600	15.508443
375.231567	1417.649414	7010.879395	2125.336426	12.652564
375.597260	1415.373901	7256.635742	2184.500000	13.167123
375.962891	1383.516602	7211.125488	2164.020264	13.393206
376.328461	1394.894287	7511.494141	2330.133301	15.290178
376.694031	1401.720825	7714.015625	2286.898438	14.023071
377.059540	1413.098389	7946.118652	2364.266113	14.559387
377.425049	1435.853638	8241.936523	2348.337402	13.406886
377.790497	1429.027100	8437.630859	2396.123291	13.798700
378.155945	1403.996338	8769.857422	2446.184814	14.148902
378.521301	1290.220337	8772.132813	2534.930176	16.636251
378.886597	1326.628662	8592.366211	2423.429688	15.095523
379.251892	1369.863525	8096.303223	2375.643799	14.952640
379.617157	1374.414551	7873.301758	2427.980713	16.211485
379.982422	1358.485962	7650.300781	2357.439453	15.877032
380.347595	1301.597900	7465.983887	2209.530762	14.728683
380.712738	1363.036987	7336.279297	2307.378174	15.809525
381.077820	1406.271851	7568.382324	2309.653564	14.660265
381.442902	1385.792114	7347.656738	2318.755615	15.648854
381.807953	1388.067749	7575.208984	2273.245361	14.306730
382.172974	1449.506714	7611.617188	2220.908203	12.518463
382.537933	1356.210449	7618.443848	2314.204590	15.297963
382.902832	1342.557251	7440.953125	2298.276123	15.671643
383.267700	1347.108276	7745.873047	2225.459229	13.726883
383.632538	1392.618774	7800.485352	2268.694336	13.671876
383.997345	1349.383789	7971.149414	2261.867676	13.780069
384.362152	1317.526489	8132.711426	2225.459229	13.322203
384.726898	1413.098389	8194.150391	2368.817139	14.093961
385.091553	1422.200562	8403.498047	2357.439453	13.396348
385.456238	1374.414551	8237.385742	2305.102539	13.561007
385.820862	1378.965576	8055.343750	2462.113525	16.223587
386.185425	1347.108276	8360.263672	2373.368164	14.633355
386.549988	1360.761475	8328.406250	2332.408936	13.945135
386.914490	1388.067749	8373.916992	2418.878662	14.755699
387.278961	1308.424438	8385.293945	2448.460449	16.109325
387.643372	1422.200562	8483.141602	2400.674561	13.857558
388.007782	1365.312500	8580.989258	2373.368164	13.970355
388.372101	1324.353149	8551.407227	2466.664551	15.806045
388.736450	1390.343262	8460.386719	2382.470215	14.032826
389.100739	1417.649414	8464.937500	2318.755615	12.786567
389.464966	1378.965576	8398.947266	2423.429688	14.878446
389.829163	1344.832764	8328.406250	2293.724854	13.587487
390.193329	1472.261963	8537.753906	2273.245361	11.336555
390.557495	1413.098389	8408.049805	2382.470215	13.858164
390.921570	1397.169800	8676.560547	2341.510986	12.972805
391.285614	1408.547363	8626.499023	2307.378174	12.452713
391.649597	1440.404663	9407.002930	2300.551514	10.796915
392.013550	1376.690063	9814.321289	2482.593262	13.106797
392.377502	1374.414551	9825.699219	2512.175049	13.462574
392.741455	1342.557251	9689.167969	2489.419678	13.740458
393.105316	1378.965576	9873.484375	2546.307861	13.742301
393.469086	1424.476074	9550.360352	2473.491211	12.909551
393.832886	1358.485962	9347.839844	2350.613037	12.418114
394.196655	1338.006226	9370.594727	2439.358398	13.711049
394.560333	1401.720825	9486.646484	2423.429688	12.637208
394.924042	1326.628662	9777.913086	2446.184814	13.247172
395.287659	1403.996338	9752.881836	2412.052002	12.074134
395.651245	1403.996338	9707.372070	2421.154053	12.249929
396.014771	1435.853638	9545.809570	2387.021240	11.728395
396.378296	1413.098389	9224.960938	2348.337402	11.972036
396.741791	1381.241089	8965.551758	2323.306641	12.421242
397.105255	1374.414551	8788.061523	2216.357178	11.356659
397.468628	1363.036987	8683.387695	2236.836914	11.936585
397.832001	1381.241089	8644.703125	2284.622803	12.437344
398.195313	1338.006226	8685.663086	2230.010498	12.139983
398.558624	1381.241089	8849.500000	2202.704102	10.999392
398.921844	1385.792114	8756.204102	2257.316650	11.824637
399.285095	1363.036987	8726.622070	2289.173828	12.577254
399.648254	1324.353149	8774.408203	2225.459229	12.095294
400.011383	1415.373901	8765.305664	2266.418701	11.578949
400.374451	1399.445313	8521.825195	2202.704102	11.277955
400.737549	1383.516602	9147.593750	2266.418701	11.371630
401.100586	1367.588013	8781.234375	2170.846924	10.834869
401.463562	1326.628662	8599.193359	2161.744873	11.483105
401.826508	1388.067749	9013.337891	2273.245361	11.608476
402.189392	1360.761475	8831.295898	2200.428711	11.239721
402.552246	1353.934937	8753.928711	2125.336426	10.424354
402.915070	1376.690063	8835.847656	2202.704102	11.073825
403.277893	1442.680176	9147.593750	2273.245361	10.779682
403.640656	1440.404663	9234.063477	2245.938965	10.335766
404.003326	1431.302612	9491.197266	2216.357178	9.740258
404.366028	1388.067749	9682.340820	2200.428711	9.794239
404.728699	1397.169800	9980.434570	2316.480225	10.710499
405.091248	1349.383789	10308.109375	2325.582275	10.896623
405.453857	1374.414551	10178.404297	2302.827148	10.545362
405.816345	1390.343262	10185.231445	2300.551514	10.349287
406.178833	1394.894287	10114.690430	2311.929199	10.516702
406.541260	1367.588013	10269.425781	2318.755615	10.685070
406.903687	1328.904175	9695.994141	2300.551514	11.612727
407.266052	1310.699951	9755.157227	2230.010498	10.886556
407.628387	1408.547363	9823.422852	2186.775391	9.248242
407.990662	1408.547363	9579.942383	2161.744873	9.217490
408.352905	1347.108276	9618.625977	2257.316650	11.004128
408.715118	1413.098389	9668.687500	2207.255127	9.619626
409.077332	1413.098389	9645.932617	2168.571289	9.176341
409.439484	1363.036987	9725.576172	2182.224365	9.795917
409.801575	1435.853638	9693.718750	2211.806152	9.396526
410.163605	1374.414551	9941.750000	2220.908203	9.880477
410.525635	1308.424438	9991.811523	2159.469238	9.800839
410.887604	1406.271851	10139.720703	2166.295898	8.702450
411.249573	1349.383789	10276.251953	2150.367188	8.972726
411.611481	1442.680176	10162.475586	2063.897461	7.124219
411.973328	1413.098389	10255.772461	2141.265137	8.234690
412.335144	1408.547363	10010.015625	2102.581299	8.068784
412.696930	1401.720825	10126.067383	2057.070801	7.511737
413.058685	1367.588013	9595.871094	2057.070801	8.379425
413.420410	1422.200562	9959.954102	2082.101563	7.729211
413.782104	1381.241089	10073.730469	2077.550537	8.010472
414.143707	1353.934937	10071.455078	2098.030273	8.535630
414.505310	1344.832764	10023.668945	2154.918213	9.334033
414.866852	1378.965576	10160.200195	2027.489014	7.385334
415.228394	1390.343262	10496.977539	2045.693237	7.196401
415.589874	1358.485962	10522.007813	2054.795166	7.598708
415.951324	1451.782227	10435.538086	2020.662476	6.332321
416.312683	1378.965576	10888.367188	2086.652588	7.441972
416.674072	1390.343262	11245.624023	2077.550537	6.972985
417.035370	1413.098389	11379.879883	2109.407715	6.986301
417.396667	1367.588013	11250.174805	2084.376953	7.253050
417.757935	1408.547363	11618.809570	2207.255127	7.822598
418.119141	1394.894287	12242.301758	2082.101563	6.335221
418.480286	1369.863525	12376.557617	2173.122314	7.297911
418.841400	1360.761475	12979.570313	2104.856689	6.404230
419.202484	1413.098389	13311.796875	2195.877686	6.578697
419.563568	1435.853638	13828.339844	2316.480225	7.106133
419.924591	1415.373901	14529.200195	2250.489990	6.368211
420.285553	1331.179688	14586.087891	2250.489990	6.935622
420.646484	1390.343262	15689.715820	2364.266113	6.810948
421.007355	1392.618774	15871.757813	2325.582275	6.443501
421.368225	1342.557251	16888.916016	2396.123291	6.776931
421.729065	1401.720825	17325.814453	2475.766602	6.744784
422.089874	1365.312500	18090.390625	2437.082764	6.408163
422.450592	1322.077637	17860.562500	2423.429688	6.659329
422.811279	1383.516602	17555.642578	2427.980713	6.458422
423.171936	1344.832764	17357.671875	2423.429688	6.735826
423.532593	1378.965576	16775.138672	2371.092773	6.443986
423.893127	1356.210449	17450.968750	2487.144287	7.026721
424.253723	1381.241089	17780.919922	2457.562500	6.563064
424.614197	1433.578125	17901.521484	2418.878662	5.983143
424.974670	1381.241089	18420.341797	2427.980713	6.143162
425.335052	1322.077637	18811.730469	2462.113525	6.518345
425.695496	1381.241089	17758.164063	2468.940186	6.641657
426.055817	1392.618774	18076.736328	2430.256104	6.219312
426.416168	1401.720825	17633.009766	2571.338623	7.205945
426.776398	1381.241089	16750.109375	2439.358398	6.884809
427.136627	1426.751587	16153.921875	2314.204590	6.025958
427.496826	1399.445313	15619.174805	2371.092773	6.833094
427.856995	1356.210449	15232.335938	2264.143311	6.543130
428.217102	1408.547363	14661.180664	2389.296875	7.400413
428.577179	1356.210449	14779.507813	2257.316650	6.713002
428.937195	1365.312500	14622.497070	2266.418701	6.797116
429.297180	1342.557251	14165.117188	2186.775391	6.583850
429.657135	1319.802124	13691.808594	2227.734863	7.338605
430.017059	1403.996338	14149.188477	2209.530762	6.320300
430.376984	1392.618774	13823.789063	2193.602051	6.443346
430.736786	1410.822876	13778.278320	2314.204590	7.304508
431.096588	1322.077637	13562.103516	2232.285889	7.436327
431.456360	1424.476074	13500.665039	2200.428711	6.425476
431.816071	1381.241089	13307.246094	2239.112549	7.193285
432.175781	1394.894287	13448.328125	2225.459229	6.890692
432.535400	1301.597900	13559.828125	2286.898438	8.037869
432.895020	1324.353149	13163.887695	2113.958740	6.669229
433.254578	1401.720825	13457.429688	2236.836914	6.927142
433.614105	1435.853638	13787.380859	2236.836914	6.484892
433.973602	1458.608887	14001.279297	2157.193604	5.569665
434.333038	1363.036987	14014.932617	2157.193604	6.276978
434.692444	1344.832764	14322.127930	2216.357178	6.715764
435.051819	1374.414551	14492.791992	2148.091553	5.897658
435.411133	1424.476074	14574.710938	2207.255127	5.952586
435.770416	1492.741699	13634.920898	2186.775391	5.715890
436.129669	1363.036987	14347.158203	2159.469238	6.133894
436.488861	1342.557251	14087.749023	2207.255127	6.784503
436.848083	1317.526489	14083.198242	2220.908203	7.076648
437.207184	1356.210449	13830.615234	2239.112549	7.077710
437.566254	1324.353149	14285.719727	2123.060791	6.162218
437.925293	1454.057739	14222.004883	2173.122314	5.631794
438.284363	1324.353149	14338.056641	2136.714111	6.242351
438.643311	1351.659302	14706.691406	2138.989502	5.895382
439.002258	1419.924927	14718.068359	2164.020264	5.595483
439.361145	1388.067749	15075.325195	2154.918213	5.602660
439.719971	1388.067749	15564.562500	2111.683350	5.104333
440.078827	1417.649414	15676.062500	2204.979736	5.521865
440.437592	1342.557251	16137.993164	2241.387939	6.075054
440.796295	1347.108276	16015.115234	2086.652588	5.041887
441.155029	1338.006226	17460.070313	2266.418701	5.758645
441.513672	1381.241089	17972.062500	2302.827148	5.554794
441.872253	1385.792114	17667.142578	2282.347412	5.506639
442.230865	1399.445313	17405.458984	2311.929199	5.700881
442.589386	1394.894287	17155.150391	2123.060791	4.620271
442.947876	1403.996338	17248.447266	2216.357178	5.127100
443.306335	1376.690063	16893.466797	2184.500000	5.206042
443.664764	1301.597900	16046.972656	2134.438477	5.648148
444.023102	1360.761475	16556.689453	2077.550537	4.716981
444.381500	1365.312500	16490.699219	2143.540527	5.145178
444.739777	1358.485962	16131.166992	2095.754639	4.990757
445.098022	1408.547363	16297.280273	2120.785400	4.783739
445.456238	1356.210449	16322.310547	2032.040039	4.515736
445.814423	1403.996338	17268.927734	2161.744873	4.776248
446.172577	1351.659302	17896.970703	2261.867676	5.501307
446.530701	1438.129150	17655.765625	2282.347412	5.205556
446.888733	1413.098389	18465.851563	2200.428711	4.617027
447.246765	1417.649414	19273.662109	2268.694336	4.766153
447.604736	1458.608887	18754.841797	2323.306641	4.999341
447.962677	1394.894287	18914.128906	2275.520752	5.026627
448.320587	1424.476074	19369.232422	2384.745850	5.351256
448.678436	1403.996338	18973.292969	2323.306641	5.232482
449.036255	1369.863525	18795.802734	2302.827148	5.353878
449.394043	1358.485962	17865.113281	2273.245361	5.541770
449.751770	1349.383789	17630.734375	2330.133301	6.023760
450.109467	1372.139038	17623.908203	2321.031250	5.838701
450.467163	1342.557251	17350.845703	2218.632813	5.472637
450.824768	1349.383789	17241.621094	2348.337402	6.285796
451.182343	1331.179688	16959.457031	2311.929199	6.275481
451.539886	1363.036987	15960.502930	2268.694336	6.204209
451.897369	1435.853638	16338.239258	2291.449463	5.741334
452.254822	1426.751587	16158.473633	2323.306641	6.085881
452.612274	1272.016113	16925.324219	2391.572266	7.152201
452.969635	1363.036987	16583.996094	2473.491211	7.295560
453.326965	1378.965576	16467.943359	2559.960938	7.826875
453.684326	1403.996338	16185.779297	2423.429688	6.896552
454.041534	1394.894287	15980.982422	2505.348389	7.613104
454.398773	1390.343262	15503.123047	2573.614014	8.384392
454.755951	1433.578125	15129.937500	2523.552490	7.958132
455.113098	1408.547363	14636.149414	2493.970703	8.205746
455.470215	1408.547363	15032.090820	2641.879639	9.052948
455.827240	1374.414551	14959.273438	2610.022461	9.095478
456.184265	1492.741699	14759.028320	2767.033203	9.605487
456.541260	1347.108276	14781.783203	2664.634766	9.806911
456.898193	1385.792114	14381.291016	2803.441650	10.908773
457.255096	1374.414551	14727.170898	2869.431641	11.196319
457.611969	1360.761475	14611.119141	2789.788574	10.784820
457.968781	1374.414551	14888.732422	2873.982666	11.096143
458.325531	1376.690063	14991.130859	3033.269287	12.167809
458.682312	1401.720825	15830.797852	3115.187988	11.875099
459.039001	1360.761475	16304.106445	3247.168213	12.623725
459.395630	1429.027100	17216.589844	3531.608398	13.317960
459.752289	1385.792114	18661.546875	3684.068115	13.303476
460.108856	1376.690063	19712.835938	3991.263428	14.259121
460.465363	1422.200562	20363.634766	4271.152344	15.040845
460.821899	1385.792114	20441.003906	4246.121582	15.010748
461.178345	1458.608887	20004.103516	4182.407227	14.687117
461.534760	1372.139038	19492.111328	4291.632324	16.112017
461.891144	1342.557251	19321.447266	4216.540039	15.985318
462.247467	1351.659302	18092.666016	4230.193359	17.194511
462.603760	1438.129150	17890.144531	4164.203125	16.569847
462.960052	1317.526489	16822.925781	4080.008789	17.816261
463.316254	1347.108276	16392.851563	4141.447754	18.572292
463.672424	1433.578125	16263.147461	4039.049316	17.569433
464.028564	1363.036987	15503.123047	4134.621094	19.600899
464.384644	1340.281738	15450.786133	4186.958496	20.174168
464.740723	1335.730713	15575.939453	4234.744141	20.357941
465.096741	1383.516602	15377.969727	4168.753906	19.902437
465.452698	1390.343262	15266.468750	4262.050293	20.695309
465.808655	1451.782227	15694.266602	4437.265625	20.961817
466.164520	1344.832764	15352.938477	4382.652832	21.686159
466.520355	1381.241089	16413.332031	4576.072266	21.253405
466.876190	1381.241089	16240.391602	4680.746094	22.205206
467.231964	1433.578125	16210.810547	4721.705566	22.251308
467.587677	1392.618774	16948.078125	4867.338867	22.337626
467.943390	1397.169800	16993.589844	5126.748535	23.913044
468.299011	1415.373901	16274.524414	4974.288574	23.950996
468.654633	1429.027100	16406.505859	4949.257813	23.503494
469.010223	1442.680176	16317.759766	4953.808594	23.604097
469.365723	1381.241089	16035.594727	5126.748535	25.559008
469.721191	1388.067749	16003.738281	4981.115234	24.583527
470.076660	1360.761475	15425.755859	4994.768066	25.837242
470.432068	1394.894287	15521.327148	4965.186523	25.273842
470.787445	1340.281738	15530.429688	5101.717773	26.507376
471.142792	1338.006226	15398.449219	5092.615723	26.703350
471.498016	1322.077637	15960.502930	5058.482910	25.524639
471.853271	1383.516602	15516.776367	5220.044922	27.145390
472.208496	1388.067749	15737.501953	5142.677246	26.165556
472.563660	1403.996338	15773.910156	5358.851563	27.521774
472.918762	1399.445313	15971.880859	5411.188477	27.529669
473.273865	1442.680176	16761.486328	5481.729492	26.366606
473.628876	1365.312500	16970.833984	5659.220215	27.515310
473.983917	1358.485962	16861.609375	5615.985352	27.462206
474.338837	1369.863525	16786.517578	5750.241211	28.413284
474.693787	1397.169800	16718.251953	5736.587891	28.323183
475.048645	1378.965576	16882.087891	5675.148926	27.711731
475.403503	1406.271851	16866.160156	5786.649414	28.333822
475.758270	1433.578125	17202.937500	5927.731445	28.499277
476.113037	1410.822876	17107.365234	5798.026855	27.950130
476.467773	1458.608887	17257.548828	6046.058594	29.036440
476.822418	1419.924927	18399.861328	6273.610840	28.584831
477.177063	1369.863525	17712.654297	6282.712891	30.061264
477.531647	1399.445313	18363.453125	6460.203613	29.832327
477.886200	1422.200562	18802.628906	6596.734863	29.772192
478.240723	1281.118164	19405.640625	6849.317383	30.721907
478.595184	1265.189575	19564.927734	6915.307617	30.875404
478.949585	1399.445313	19812.958984	7120.104492	31.067722
479.303986	1390.343262	19956.318359	7081.420898	30.653267
479.658325	1374.414551	20327.226563	7199.748047	30.735985
480.012634	1401.720825	20017.755859	7047.288086	30.326368
480.366913	1344.832764	20780.056641	7443.228516	31.378056
480.721130	1306.148926	21312.527344	7686.709473	31.892632
481.075317	1419.924927	21685.712891	7830.066895	31.630363
481.429474	1394.894287	22743.830078	8271.518555	32.210617
481.783569	1319.802124	24054.531250	8494.519531	31.558403
482.137604	1417.649414	24598.378906	8904.113281	32.296066
482.491669	1394.894287	26844.318359	9625.453125	32.340843
482.845612	1383.516602	29565.841797	10344.517578	31.796530
483.199554	1376.690063	33013.253906	11611.982422	32.352730
483.553436	1413.098389	38042.156250	13436.950195	32.825993
483.907318	1358.485962	44593.382813	15842.175781	33.499996
484.261139	1392.618774	51827.261719	18313.390625	33.549896
484.614899	1365.312500	54972.031250	20372.738281	35.457172
484.968628	1406.271851	55147.246094	19919.908203	34.449760
485.322357	1312.975464	53194.851563	19266.833984	34.605263
485.675964	1376.690063	49699.648438	17983.441406	34.366177
486.029572	1388.067749	45867.671875	16436.085938	33.831276
486.383148	1365.312500	42611.402344	15311.979492	33.813309
486.736694	1347.108276	40135.636719	14815.916016	34.723690
487.090149	1390.343262	39992.277344	14672.558594	34.408161
487.443604	1426.751587	40686.312500	14995.681641	34.562099
487.796997	1417.649414	42342.890625	15373.418945	34.100639
488.150360	1390.343262	44051.808594	16244.943359	34.819714
488.503693	1376.690063	44802.730469	16492.974609	34.809261
488.856964	1363.036987	44299.839844	16265.422852	34.707718
489.210175	1358.485962	41992.460938	15355.214844	34.445873
489.563416	1495.017212	39990.003906	14688.486328	34.273212
489.916565	1408.547363	37557.472656	13969.421875	34.747574
490.269653	1479.088501	34886.007813	13134.305664	34.888634
490.622772	1392.618774	33912.085938	12752.018555	34.931076
490.975769	1390.343262	33445.605469	12654.170898	35.138783
491.328735	1353.934937	34876.906250	13168.438477	35.243008
491.681732	1401.720825	36742.835938	13762.349609	34.975212
492.034607	1390.343262	39123.027344	14570.160156	34.929443
492.387482	1353.934937	39880.777344	15038.916992	35.520641
492.740326	1463.159912	39093.449219	14888.732422	35.677570
493.093079	1390.343262	37502.859375	14190.147461	35.444233
493.445862	1431.302612	34394.496094	12963.641602	34.985500
493.798523	1447.231201	31925.556641	12265.056641	35.493500
494.151215	1385.792114	29688.720703	11468.625000	35.624699
494.503815	1390.343262	27695.363281	10642.610352	35.173012
494.856384	1308.424438	25934.111328	10164.750977	35.963772
495.208923	1353.934937	24691.675781	9630.003906	35.462170
495.561432	1419.924927	24020.398438	9322.808594	34.967781
495.913879	1394.894287	23467.445313	9252.267578	35.597939
496.266296	1331.179688	23574.394531	9179.451172	35.283890
496.618683	1372.139038	23531.160156	9359.216797	36.044361
496.970978	1378.965576	24354.898438	9659.585938	36.040409
497.323273	1403.996338	23949.855469	9707.372070	36.828831
497.675507	1410.822876	24571.074219	9898.515625	36.647667
498.027710	1456.333252	24434.542969	9805.218750	36.333927
498.379852	1449.506714	24052.253906	9853.004883	37.179100
498.731995	1417.649414	24100.041016	9614.075195	36.135635
499.084076	1356.210449	23795.121094	9386.523438	35.787445
499.436096	1356.210449	23783.744141	9529.880859	36.444805
499.788086	1444.955688	22536.757813	9095.256836	36.271442
500.140106	1419.924927	22493.523438	9070.225586	36.302776
500.491943	1349.383789	22240.939453	9008.787109	36.662678
500.843842	1447.231201	21731.224609	8694.764648	35.730305
501.195679	1388.067749	21125.935547	8439.906250	35.727459
501.547455	1356.210449	20841.494141	8574.162109	37.043095
501.899231	1358.485962	20814.189453	8248.762695	35.415203
502.250885	1356.210449	20511.544922	8483.141602	37.205986
502.602600	1442.680176	20466.033203	8282.895508	35.956936
502.954193	1435.853638	20406.871094	8357.988281	36.487946
503.305786	1429.027100	20199.798828	8287.446289	36.537758
503.657379	1388.067749	20648.076172	8380.743164	36.306709
504.008820	1335.730713	20495.615234	8442.182617	37.090267
504.360291	1351.659302	20843.771484	8574.162109	37.053467
504.711700	1363.036987	20805.085938	8681.112305	37.640453
505.063080	1401.720825	20839.218750	8494.519531	36.490288
505.414368	1401.720825	20855.148438	8569.611328	36.846413
505.765656	1410.822876	20666.279297	8483.141602	36.728909
506.116943	1333.455200	20677.658203	8376.192383	36.407482
506.468109	1349.383789	20495.615234	8423.977539	36.950321
506.819305	1342.557251	20388.666016	8492.243164	37.538826
507.170410	1415.373901	20689.035156	8380.743164	36.139313
507.521484	1358.485962	20436.453125	8189.599121	35.806297
507.872559	1390.343262	20356.808594	8376.192383	36.832638
508.223480	1367.588013	20550.228516	8337.507813	36.334518
508.574493	1401.720825	21098.628906	8583.264648	36.460258
508.925385	1438.129150	21073.597656	8578.713867	36.365746
509.276245	1385.792114	21444.507813	8869.980469	37.311405
509.627045	1426.751587	21874.582031	8817.643555	36.145119
509.977814	1403.996338	22272.796875	8872.255859	35.786724
510.328613	1410.822876	22391.125000	9017.888672	36.258133
510.679260	1374.414551	22090.755859	9140.766602	37.489014
511.029999	1397.169800	22409.328125	9265.920898	37.448563
511.380585	1299.322388	22341.062500	9163.522461	37.374287
511.731140	1469.986450	22828.025391	9275.022461	36.543785
512.081726	1392.618774	22909.943359	9090.706055	35.776230
512.432129	1403.996338	23399.179688	9438.860352	36.530109
512.782654	1319.802124	23417.384766	9525.330078	37.133152
513.133057	1415.373901	23483.375000	9313.707031	35.790886
513.483398	1378.965576	23355.945313	9636.831055	37.575066
513.833801	1353.934937	23622.181641	9534.432617	36.736156
514.183960	1408.547363	22989.585938	9211.308594	36.155632
514.534302	1419.924927	23037.373047	9072.500977	35.399998
514.884460	1367.588013	23014.617188	9252.267578	36.423843
515.234619	1403.996338	22814.371094	9156.695313	36.210011
515.584717	1378.965576	22684.666016	9179.451172	36.612198
515.934753	1326.628662	22691.494141	9388.798828	37.735645
516.284851	1392.618774	22946.351563	9259.093750	36.497044
516.634766	1399.445313	22853.054688	9322.808594	36.932541
516.984741	1458.608887	23208.037109	9384.248047	36.440678
517.334595	1365.312500	24020.398438	9636.831055	36.510647
517.684448	1372.139038	24773.595703	10064.628906	37.145081
518.034363	1422.200562	25417.566406	10228.465820	36.699860
518.384094	1378.965576	26621.318359	10572.069336	36.419361
518.733826	1385.792114	27590.689453	11168.255859	37.330673
519.083496	1326.628662	28701.144531	11491.379883	37.132168
519.433167	1363.036987	28894.562500	11466.349609	36.697250
519.782776	1328.904175	29163.074219	11516.411133	36.600719
520.132324	1294.771362	28425.806641	11181.909180	36.442169
520.481873	1351.659302	27827.343750	11225.144531	37.292656
520.831299	1342.557251	27263.015625	11052.204102	37.459393
521.180786	1312.975464	26751.023438	10624.406250	36.604343
521.530151	1426.751587	26327.775391	10369.547852	35.913368
521.879517	1403.996338	25483.556641	10415.058594	37.422039
522.228882	1356.210449	25761.171875	10321.762695	36.736599
522.578064	1397.169800	25155.882813	10080.557617	36.548225
522.927307	1372.139038	25399.363281	10089.659180	36.281845
523.276489	1319.802124	25228.699219	10130.618164	36.851624
523.625610	1317.526489	25836.263672	10205.710938	36.250584
523.974792	1376.690063	25927.283203	10305.833984	36.370377
524.323792	1331.179688	26603.113281	10428.711914	35.998562
524.672852	1399.445313	26967.197266	10774.590820	36.667850
525.021790	1358.485962	27599.791016	11038.551758	36.888660
525.370728	1392.618774	29126.666016	11596.053711	36.790283
525.719604	1360.761475	30755.939453	11948.759766	36.019508
526.068420	1363.036987	32626.417969	12617.762695	35.999706
526.417297	1367.588013	33233.980469	13138.857422	36.939449
526.765991	1431.302612	34374.015625	13723.666016	37.314362
527.114746	1392.618774	35379.796875	13869.298828	36.709957
527.463379	1410.822876	36647.261719	14497.342773	37.139168
527.812012	1417.649414	38394.863281	14943.344727	36.578461
528.160706	1476.812988	41778.562500	16031.043945	36.113148
528.509155	1444.955688	46067.917969	18222.371094	37.598167
528.857727	1401.720825	50678.125000	20049.613281	37.843452
529.206177	1440.404663	54742.203125	21942.847656	38.464825
529.554565	1415.373901	55365.695313	22045.246094	38.238647
529.902893	1353.934937	54284.824219	21499.121094	38.059410
530.251221	1360.761475	51758.996094	20436.453125	37.849918
530.599548	1363.036987	48297.929688	18914.128906	37.394547
530.947876	1347.108276	44943.812500	17380.427734	36.776447
531.296021	1449.506714	41007.160156	15921.819336	36.585369
531.644165	1406.271851	38410.792969	14950.171875	36.600666
531.992249	1438.129150	36474.324219	14140.085938	36.253815
532.340454	1324.353149	35443.511719	13787.380859	36.527943
532.688354	1419.924927	35152.246094	13621.267578	36.171074
533.036438	1365.312500	35969.156250	13698.634766	35.641479
533.384338	1360.761475	37821.429688	14765.854492	36.765900
533.732239	1392.618774	40349.535156	15519.051758	36.261681
534.080139	1388.067749	40649.902344	15876.308594	36.901588
534.427917	1388.067749	40731.824219	15757.981445	36.523998
534.775757	1388.067749	39243.632813	15084.427734	36.180573
535.123474	1381.241089	37316.265625	14588.364258	36.752789
535.471191	1372.139038	34797.265625	13589.410156	36.551163
535.818848	1335.730713	33953.046875	13234.428711	36.479698
536.166382	1399.445313	33120.207031	12686.028320	35.581059
536.513977	1463.159912	32471.681641	12742.916016	36.376308
536.861511	1365.312500	33193.023438	12906.753906	36.262241
537.208984	1399.445313	33161.164063	13031.907227	36.624157
537.556396	1358.485962	33147.511719	12820.284180	36.055832
537.903809	1403.996338	32387.488281	12451.649414	35.656578
538.251160	1435.853638	31188.289063	12221.822266	36.252388
538.598389	1397.169800	30419.162109	11853.187500	36.027912
538.945740	1363.036987	29188.105469	11732.584961	37.266926
539.292969	1401.720825	28601.021484	11505.033203	37.145485
539.640137	1417.649414	28682.939453	11247.899414	36.054085
539.987244	1363.036987	28553.234375	11231.970703	36.295925
540.334351	1419.924927	29197.207031	11534.615234	36.413536
540.681458	1415.373901	31151.878906	12174.036133	36.179981
541.028442	1344.832764	33218.050781	13081.968750	36.824444
541.375366	1401.720825	36224.015625	14592.915039	37.881462
541.722290	1403.996338	39728.316406	15717.022461	37.347111
542.069153	1376.690063	41507.773438	16590.822266	37.911095
542.416016	1367.588013	41865.031250	16638.607422	37.708603
542.762756	1406.271851	41346.214844	16269.973633	37.215134
543.109558	1360.761475	40128.808594	15730.675781	37.066387
543.456299	1381.241089	38199.167969	15032.090820	37.076641
543.802917	1397.169800	36845.234375	14679.384766	37.469505
544.149536	1438.129150	35211.410156	14030.861328	37.286079
544.496094	1367.588013	33224.878906	13500.665039	38.085716
544.842651	1410.822876	31661.595703	12488.058594	36.618023
545.189148	1358.485962	30020.945313	12121.699219	37.551601
545.535583	1383.516602	28767.134766	11812.228516	38.083763
545.882019	1413.098389	28218.734375	11420.838867	37.334461
546.228333	1413.098389	27772.730469	11486.829102	38.216507
546.574707	1297.046875	27501.945313	11495.930664	38.919762
546.920898	1349.383789	27267.566406	11436.767578	38.920105
547.267212	1317.526489	27472.363281	11534.615234	39.063862
547.613342	1369.863525	27547.455078	11320.715820	38.012863
547.959473	1419.924927	26930.789063	11038.551758	37.704044
548.305664	1369.863525	26616.767578	10806.448242	37.377197
548.651611	1438.129150	25319.720703	10428.711914	37.646500
548.997742	1417.649414	24341.246094	10119.241211	37.959103
549.343689	1344.832764	23535.710938	9463.890625	36.587364
549.689575	1388.067749	22391.125000	9042.919922	36.446373
550.035522	1422.200562	21988.357422	8815.367188	35.948215
550.381287	1408.547363	21244.261719	8683.387695	36.675465
550.727173	1388.067749	20868.800781	8421.702148	36.105595
551.072876	1424.476074	20518.371094	8178.221680	35.371231
551.418640	1317.526489	20122.429688	7964.322754	35.346085
551.764282	1419.924927	20252.134766	7839.168945	34.086517
552.109863	1378.965576	19963.144531	8043.965820	35.863838
552.455505	1424.476074	20204.349609	7886.955078	34.411728
552.801025	1372.139038	20190.695313	7971.149414	35.066505
553.146545	1351.659302	20693.585938	8189.599121	35.352943
553.491943	1378.965576	21098.628906	8150.915527	34.341103
553.837341	1424.476074	21094.078125	8000.730957	33.433594
554.182800	1385.792114	20372.738281	7966.598145	34.659637
554.528015	1353.934937	20359.083984	7748.148438	33.644638
554.873352	1310.699951	19949.490234	7816.414063	34.904163
555.218628	1397.169800	19751.521484	7768.627930	34.713612
555.563721	1426.751587	19423.845703	7422.749023	33.316475
555.908875	1324.353149	19203.119141	7322.625977	33.549706
556.254028	1449.506714	18677.474609	7247.533691	33.654732
556.599121	1397.169800	18693.404297	7104.175781	32.995655
556.944031	1433.578125	18352.076172	7004.053223	32.925354
557.289063	1385.792114	18336.146484	7099.625000	33.709225
557.633972	1449.506714	18131.349609	6856.144043	32.410309
557.978882	1397.169800	18329.320313	6853.868652	32.226849
558.323792	1415.373901	17858.287109	6999.501953	33.960693
558.668518	1490.466064	17623.908203	6847.041992	33.201694
559.013306	1363.036987	17883.318359	6812.909180	32.988979
559.358032	1401.720825	17680.796875	6819.735840	33.282082
559.702637	1485.915039	17633.009766	6701.408691	32.299889
560.047363	1394.894287	17760.439453	6781.051758	32.911568
560.391846	1401.720825	17514.683594	6808.358398	33.554585
560.736450	1390.343262	17398.632813	6840.215332	34.044064
561.080933	1374.414551	17992.542969	6735.541504	32.260712
561.425354	1333.455200	17648.939453	6760.572266	33.263599
561.769775	1378.965576	17856.011719	6915.307617	33.600327
562.114136	1385.792114	17812.777344	6888.001465	33.494946
562.458496	1340.281738	18099.492188	6828.837891	32.749489
562.802673	1356.210449	18101.767578	6687.755859	31.838568
563.146912	1390.343262	17835.531250	6642.245117	31.935799
563.491150	1353.934937	17721.755859	6744.643555	32.934795
563.835266	1365.312500	17692.173828	6658.173828	32.418118
564.179443	1413.098389	17612.531250	6642.245117	32.279812
564.523438	1399.445313	17514.683594	6628.592285	32.448463
564.867493	1376.690063	17607.980469	6580.806152	32.062248
565.211426	1472.261963	17837.806641	6901.654785	33.175751
565.555359	1381.241089	18085.839844	6840.215332	32.679466
565.899231	1401.720825	18331.595703	6853.868652	32.204300
566.243042	1397.169800	19016.527344	6974.471191	31.654396
566.586914	1376.690063	19526.244141	7035.910156	31.181042
566.930603	1342.557251	20008.654297	7315.799316	32.000488
567.274292	1381.241089	20095.125000	7363.585449	31.967409
567.617981	1388.067749	20017.755859	7252.084961	31.476734
567.961609	1360.761475	19528.519531	7170.166016	31.976452
568.305237	1365.312500	19164.435547	7101.900391	32.229610
568.648682	1447.231201	19052.935547	7090.522949	32.053768
568.992188	1376.690063	18811.730469	6787.878418	31.036282
569.335632	1367.588013	18493.158203	6710.510742	31.198511
569.679016	1451.782227	18613.759766	6874.348145	31.596395
570.022461	1465.435425	18388.484375	6624.041016	30.482719
570.365662	1363.036987	18556.873047	6885.726074	32.120167
570.708984	1438.129150	18586.453125	6774.225586	31.117308
571.052185	1440.404663	18377.105469	6792.429688	31.600161
571.395386	1399.445313	18670.648438	6701.408691	30.698286
571.738525	1381.241089	19196.292969	6828.837891	30.578617
572.081604	1372.139038	19469.355469	7065.492188	31.459827
572.424683	1390.343262	19683.255859	7138.308594	31.421816
572.767578	1333.455200	20095.125000	7035.910156	30.394176
573.110596	1338.006226	20035.960938	7165.615234	31.167091
573.453552	1342.557251	20047.337891	7035.910156	30.437956
573.796387	1312.975464	20020.031250	6956.267090	30.166645
574.139282	1399.445313	19558.101563	6837.939941	29.949873
574.481995	1435.853638	19471.630859	6837.939941	29.952057
574.824768	1390.343262	19371.507813	6806.082520	30.118958
575.167480	1392.618774	19469.355469	6705.959961	29.393255
575.510132	1388.067749	19037.007813	6837.939941	30.879318
575.852722	1417.649414	18982.394531	6812.909180	30.716412
576.195251	1369.863525	18968.742188	6699.133301	30.281870
576.537842	1424.476074	18736.638672	6765.123535	30.849108
576.880188	1349.383789	18836.761719	6560.326660	29.798307
577.222717	1433.578125	18185.962891	6412.417480	29.720182
577.565063	1397.169800	17851.460938	6278.162109	29.663948
577.907410	1351.659302	17760.439453	6098.395508	28.928028
578.249756	1413.098389	17052.751953	6052.885254	29.666815
578.591919	1312.975464	16661.363281	6016.477051	30.644922
578.934204	1426.751587	16231.290039	5927.731445	30.402704
579.276306	1378.965576	16128.891602	5779.822754	29.836472
579.618469	1376.690063	16092.483398	5722.935059	29.534563
579.960571	1374.414551	15594.144531	5586.403809	29.620739
580.302551	1312.975464	15366.591797	5609.158691	30.569948
580.644531	1408.547363	15209.581055	5513.586914	29.744436
580.986511	1310.699951	15079.875977	5493.107422	30.375145
581.328369	1388.067749	14790.884766	5349.749512	29.558573
581.670227	1392.618774	14699.864258	5465.800781	30.608755
582.012024	1347.108276	14581.537109	5367.953613	30.381706
582.353821	1331.179688	14774.957031	5249.626465	29.146917
582.695496	1383.516602	14754.476563	5245.075684	28.880194
583.037231	1394.894287	14472.312500	5040.278809	27.875416
583.378845	1406.271851	14779.507813	5067.584961	27.377913
583.720398	1390.343262	14613.394531	5024.350098	27.482363
584.062012	1376.690063	14561.057617	5108.544434	28.305147
584.403442	1431.302612	14545.128906	5147.228027	28.335936
584.744934	1385.792114	14499.618164	5115.370605	28.440050
585.086365	1381.241089	14429.077148	4999.319336	27.729336
585.427734	1338.006226	14308.474609	5144.952637	29.350876
585.768982	1376.690063	14024.035156	4969.737305	28.409500
586.110291	1356.210449	14363.086914	4867.338867	26.994400
586.451599	1435.853638	14035.412109	4858.236816	27.162724
586.792725	1335.730713	13921.636719	4908.298340	28.385462
587.133850	1381.241089	14174.218750	4974.288574	28.086092
587.474915	1479.088501	14137.810547	4840.032715	26.550425
587.815979	1376.690063	14090.024414	4855.961426	27.367105
588.157043	1417.649414	14105.953125	4835.481934	26.936874
588.497925	1440.404663	14046.790039	4826.379395	26.859201
588.838867	1401.720825	14456.383789	4944.706543	27.139620
589.179749	1417.649414	14379.015625	4862.788086	26.580059
589.520569	1431.302612	14404.046875	4942.431152	27.065426
589.861450	1408.547363	14827.293945	4990.217285	26.691540
590.202087	1424.476074	14916.039063	4819.553223	25.164448
590.542847	1415.373901	14733.997070	4933.329102	26.413805
590.883484	1431.302612	14806.813477	4908.298340	25.995235
591.224121	1388.067749	14479.138672	4917.400391	26.959845
591.564636	1374.414551	14690.762695	4876.440918	26.298700
591.905151	1419.924927	14510.996094	4849.134766	26.195030
592.245667	1394.894287	14422.250977	4876.440918	26.724890
592.585999	1413.098389	14399.496094	4662.541992	25.021902
592.926453	1417.649414	14385.842773	4680.746094	25.162308
593.266724	1385.792114	14199.250000	4617.031738	25.217546
593.607056	1351.659302	14324.403320	4669.368652	25.574461
593.947388	1322.077637	14192.422852	4617.031738	25.601131
594.287476	1388.067749	14328.954102	4526.010742	24.248283
594.627686	1369.863525	14319.852539	4771.767090	26.269547
594.967773	1403.996338	14649.802734	4651.164551	24.514688
595.307861	1460.884399	15075.325195	4580.623535	22.914928
595.647888	1349.383789	14840.946289	4696.674805	24.810255
595.987854	1376.690063	15088.978516	4739.909668	24.527050
596.327820	1442.680176	15084.427734	4712.603516	23.969973
596.667725	1344.832764	15441.684570	4712.603516	23.890234
597.007568	1408.547363	15953.676758	4815.001953	23.419899
597.347351	1360.761475	16636.332031	5108.544434	24.534489
597.687073	1488.190552	17148.324219	5051.656250	22.755014
598.026794	1360.761475	17066.406250	5160.881348	24.195887
598.366455	1394.894287	16588.546875	5067.584961	24.172533
598.706116	1310.699951	16342.790039	4815.001953	23.312141
599.045654	1385.792114	15985.533203	4537.388672	21.586660
599.385193	1456.333252	15227.785156	4687.572754	23.463318
599.724731	1388.067749	14843.222656	4362.173340	22.103836
600.064087	1394.894287	14536.027344	4307.561035	22.164503
600.403564	1376.690063	14090.024414	4293.907715	22.946127
600.742920	1372.139038	13928.462891	4387.204102	24.012321
601.082153	1392.618774	13819.238281	4314.387207	23.512177
601.421387	1392.618774	13466.532227	4107.314941	22.483980
601.760620	1442.680176	13389.164063	4061.804688	21.923809
602.099854	1401.720825	13744.145508	4189.233887	22.584810
602.438843	1372.139038	13687.257813	4032.222900	21.600147
602.778015	1312.975464	13755.523438	4184.682617	23.079735
603.117065	1388.067749	14119.606445	4136.896973	21.590706
603.456055	1338.006226	14490.516602	4318.938477	22.664358
603.794983	1326.628662	14881.906250	4371.275391	22.460970
604.133850	1315.250977	15257.367188	4309.836426	21.478701
604.472778	1410.822876	15678.337891	4578.347656	22.200958
604.811584	1403.996338	16065.176758	4637.511230	22.054941
605.150330	1394.894287	16615.853516	4703.501465	21.737179
605.489075	1358.485962	16909.394531	4792.246582	22.080772
605.827698	1369.863525	17100.539063	4762.665039	21.568060
606.166382	1335.730713	16659.087891	4835.481934	22.839323
606.504883	1394.894287	16481.597656	4683.021973	21.794872
606.843445	1297.046875	15851.278320	4544.214844	22.310818
607.181946	1367.588013	15277.846680	4448.643066	22.149517
607.520386	1385.792114	15120.835938	4268.876953	20.990723
607.858826	1383.516602	14372.189453	4114.141602	21.023125
608.197083	1319.802124	14322.127930	4120.968262	21.543575
608.535461	1419.924927	14035.412109	3897.967041	19.642857
608.873718	1385.792114	14124.157227	4077.733398	21.132549
609.211914	1429.027100	14301.648438	4007.192139	20.028284
609.550171	1372.139038	14652.078125	4059.529053	20.236464
609.888245	1363.036987	14759.028320	4296.183105	21.895700
610.226318	1381.241089	15209.581055	4303.009766	21.128845
610.564392	1385.792114	15184.550781	4259.774902	20.827837
610.902344	1372.139038	15289.224609	4325.765137	21.223021
611.240295	1401.720825	15232.335938	4366.724609	21.437975
611.578247	1472.261963	15027.539063	4089.110840	19.305019
611.916138	1410.822876	14695.313477	4223.366699	21.171637
612.253845	1353.934937	14278.892578	4018.569824	20.616198
612.591675	1383.516602	13819.238281	3991.263428	20.969807
612.929382	1333.455200	13566.655273	3884.313965	20.851934
613.267090	1319.802124	13127.479492	3838.803711	21.333590
613.604736	1333.455200	13097.897461	3759.160400	20.618956
613.942261	1372.139038	12940.886719	3736.405273	20.436663
614.279785	1399.445313	12754.293945	3586.220703	19.258516
614.617310	1360.761475	12620.038086	3572.567627	19.644300
614.954712	1376.690063	12610.936523	3640.833252	20.153938
615.292175	1419.924927	12469.853516	3643.108887	20.119442
615.629517	1326.628662	12005.647461	3492.924316	20.285532
615.966797	1303.873413	12503.986328	3420.107666	18.894758
616.304138	1365.312500	12187.689453	3449.689453	19.259882
616.641296	1381.241089	12219.546875	3522.506104	19.756456
616.978516	1369.863525	11971.514648	3513.404053	20.218931
617.315552	1372.139038	12117.148438	3488.373291	19.695044
617.652771	1417.649414	11880.494141	3545.261475	20.334929
617.989685	1474.537476	12283.261719	3572.567627	19.410526
618.326721	1447.231201	12292.363281	3422.383301	18.212337
618.663696	1390.343262	12076.188477	3474.720215	19.505962
619.000549	1413.098389	12051.158203	3420.107666	18.866310
619.337463	1378.965576	12203.618164	3497.475586	19.571159
619.674194	1376.690063	11837.258789	3461.067139	19.926039
620.010986	1374.414551	11960.137695	3513.404053	20.206362
620.347778	1429.027100	12001.096680	3490.648926	19.500647
620.684387	1367.588013	11969.239258	3422.383301	19.381844
621.020996	1342.557251	11830.432617	3474.720215	20.329792
621.357605	1426.751587	11846.361328	3372.321777	18.672199
621.694214	1397.169800	11834.983398	3331.362549	18.530632
622.030579	1449.506714	11680.248047	3324.535889	18.327402
622.367065	1385.792114	11725.758789	3335.913574	18.860037
622.703430	1454.057739	11568.748047	3447.414063	19.707537
623.039795	1431.302612	11716.656250	3365.495361	18.805311
623.376160	1474.537476	11457.247070	3397.352539	19.261454
623.712402	1374.414551	11400.359375	3338.188965	19.586926
624.048645	1451.782227	11461.797852	3299.505127	18.458742
624.384766	1408.547363	11461.797852	3367.770752	19.488459
624.720886	1390.343262	11525.512695	3340.464600	19.241131
625.057007	1394.894287	11486.829102	3351.842041	19.391205
625.392944	1397.169800	11580.125000	3313.158203	18.815641
625.729004	1388.067749	11680.248047	3408.730225	19.632986
626.064941	1451.782227	11800.850586	3351.842041	18.359718
626.400818	1356.210449	11757.616211	3413.281250	19.776854
626.736633	1372.139038	12203.618164	3449.689453	19.180670
627.072449	1401.720825	12497.160156	3474.720215	18.683348
627.408264	1353.934937	12481.231445	3449.689453	18.834352
627.743896	1426.751587	12670.099609	3670.415039	19.955477
628.079590	1388.067749	12617.762695	3586.220703	19.574465
628.415161	1363.036987	12574.528320	3533.883789	19.362694
628.750793	1401.720825	12242.301758	3542.985840	19.752310
629.086365	1401.720825	12328.771484	3542.985840	19.596003
629.421753	1349.383789	12087.566406	3356.393066	18.690399
629.757263	1406.271851	12060.259766	3308.607178	17.855618
630.092651	1438.129150	11489.104492	3354.117676	19.062712
630.427917	1358.485962	11618.809570	3317.709229	19.095142
630.763184	1438.129150	11318.440430	3249.443604	18.332563
631.098511	1392.618774	11268.378906	3276.750000	19.078342
631.433716	1344.832764	11111.368164	3158.422852	18.569431
631.768799	1394.894287	10990.765625	3178.902588	18.591415
632.103943	1378.965576	10808.723633	3153.871826	18.822395
632.438965	1433.578125	11074.959961	3142.494141	17.724804
632.773987	1376.690063	10824.652344	3076.504150	17.991331
633.109070	1324.353149	10569.793945	3160.698486	19.862173
633.443848	1406.271851	10606.202148	3126.565674	18.698986
633.778870	1417.649414	10551.589844	3133.392090	18.784256
634.113708	1460.884399	10626.682617	3158.422852	18.520357
634.448425	1401.720825	10776.866211	3026.442627	17.330097
634.783264	1392.618774	10617.580078	3160.698486	19.166256
635.117859	1365.312500	10551.589844	3096.983887	18.850632
635.452576	1374.414551	10836.030273	3128.841064	18.542568
635.787170	1388.067749	10424.161133	3160.698486	19.617224
636.121704	1394.894287	10674.467773	3074.228516	18.097107
636.456177	1419.924927	10374.099609	3030.993652	17.992374
636.790588	1424.476074	10173.853516	2996.860840	17.971392
637.125122	1472.261963	10196.608398	2944.523926	16.875326
637.459412	1408.547363	9937.199219	3046.922363	19.210245
637.793762	1392.618774	9698.269531	2992.309814	19.260275
638.128052	1358.485962	10005.464844	3049.197754	19.552631
638.462280	1315.250977	9853.004883	2944.523926	19.083157
638.796509	1369.863525	9623.177734	2919.493164	18.775846
639.130615	1454.057739	9598.146484	2885.360352	17.574741
639.464722	1356.210449	9566.289063	2942.248291	19.318182
639.798767	1358.485962	9582.217773	2869.431641	18.372993
640.132751	1369.863525	9313.707031	2826.196777	18.332853
640.466736	1367.588013	9420.656250	2928.595215	19.384005
640.800598	1381.241089	9170.348633	2876.258301	19.193691
641.134521	1381.241089	9172.624023	2851.227539	18.866823
641.468262	1394.894287	9261.370117	2833.023438	18.281746
641.802063	1365.312500	9036.092773	2839.849854	19.222782
642.135803	1324.353149	9111.185547	2778.410889	18.673288
642.469421	1422.200562	9111.185547	2776.135498	17.608761
642.803101	1335.730713	8992.858398	2819.370361	19.375929
643.136658	1365.312500	8881.357422	2951.350586	21.102030
643.470215	1319.802124	8915.490234	2689.665527	18.034750
643.803711	1331.179688	8785.786133	2794.339600	19.627594
644.137085	1351.659302	8922.317383	2782.961914	18.905920
644.470581	1374.414551	8785.786133	2742.002686	18.452564
644.803833	1397.169800	8744.826172	2632.777588	16.816353
645.137207	1369.863525	9031.541992	2796.614990	18.621918
645.470459	1310.699951	8701.591797	2694.216553	18.719212
645.803589	1467.710938	8653.805664	2662.359375	16.624447
646.136780	1301.597900	8678.835938	2735.176025	19.432449
646.469849	1410.822876	8785.786133	2760.206787	18.296822
646.802979	1431.302612	8703.867188	2789.788574	18.679600
647.135986	1417.649414	8742.550781	2794.339600	18.794659
647.468994	1394.894287	8840.398438	2641.879639	16.748165
647.801941	1406.271851	8976.929688	2730.625000	17.493238
648.134766	1376.690063	8669.734375	2662.359375	17.628706
648.467651	1397.169800	8951.898438	2803.441650	18.614460
648.800354	1422.200562	8826.745117	2773.859863	18.254456
649.133179	1351.659302	8744.826172	2751.104736	18.928904
649.465881	1363.036987	8813.091797	2769.308838	18.875994
649.798462	1440.404663	8826.745117	2714.696289	17.252003
650.131104	1415.373901	8772.132813	2726.073975	17.816271
650.463623	1369.863525	8867.704102	2746.553711	18.361155
650.796143	1460.884399	8792.612305	2823.921387	18.590939
651.128662	1397.169800	8826.745117	2771.584229	18.499233
651.461060	1454.057739	8751.653320	2753.380127	17.804800
651.793396	1381.241089	8885.909180	2650.981689	16.919344
652.125732	1390.343262	8749.377930	2735.176025	18.274582
652.458008	1338.006226	8674.285156	2728.349365	18.951612
652.790222	1403.996338	8765.305664	2846.676514	19.598146
653.122437	1415.373901	8751.653320	2646.430664	16.780397
653.454529	1474.537476	8888.184570	2755.655762	17.280540
653.786621	1397.169800	8885.909180	2828.472412	19.112732
654.118713	1394.894287	8783.510742	2764.757813	18.540190
654.450623	1365.312500	8710.693359	2851.227539	20.229244
654.782654	1385.792114	8537.753906	2787.512939	19.599110
655.114502	1394.894287	8453.559570	2712.420898	18.665379
655.446350	1408.547363	8439.906250	2782.961914	19.546926
655.778198	1454.057739	8562.785156	2723.798340	17.861713
656.109863	1403.996338	8417.151367	2721.522949	18.786503
656.441650	1388.067749	8328.406250	2591.818115	17.344261
656.773254	1388.067749	8521.825195	2753.380127	19.138756
657.104919	1353.934937	8273.793945	2705.594238	19.533047
657.436462	1390.343262	8162.292969	2637.328613	18.413979
657.767944	1374.414551	8301.099609	2726.073975	19.513800
658.099548	1390.343262	8544.581055	2746.553711	18.956743
658.430908	1376.690063	8749.377930	2767.033203	18.858023
658.762268	1367.588013	8640.152344	2737.451416	18.836044
659.093628	1328.904175	9172.624023	2899.013428	20.017406
659.424927	1344.832764	9177.175781	2924.044189	20.162695
659.756226	1333.455200	9468.442383	2976.381104	20.195801
660.087341	1378.965576	9575.391602	2996.860840	19.739035
660.418518	1335.730713	9739.229492	3019.616211	20.037909
660.749573	1413.098389	9773.362305	2965.003662	18.562874
661.080627	1383.516602	9761.984375	2971.830078	18.957088
661.411621	1401.720825	9479.819336	2992.309814	19.690142
661.742554	1383.516602	9315.982422	2939.972900	19.621342
662.073547	1374.414551	9054.296875	2860.329590	19.348148
662.404297	1426.751587	8986.031250	2892.187012	19.385914
662.735229	1454.057739	8722.071289	2721.522949	17.438950
663.065979	1399.445313	8672.009766	2778.410889	18.961201
663.396667	1360.761475	8608.294922	2851.227539	20.565149
663.727417	1397.169800	8307.926758	2680.563477	18.570957
664.057922	1353.934937	8094.027344	2666.910400	19.480082
664.388611	1381.241089	8123.609375	2641.879639	18.697268
664.719116	1360.761475	7939.291992	2600.920166	18.851606
665.049622	1312.975464	7925.639160	2573.614014	19.064005
665.380005	1344.832764	7891.506348	2625.950928	19.568993
665.710388	1338.006226	7955.220703	2605.471436	19.154060
666.040771	1381.241089	7641.198730	2641.879639	20.138132
666.371033	1438.129150	7764.077148	2694.216553	19.856113
666.701294	1394.894287	7757.250488	2664.634766	19.957079
667.031555	1415.373901	7750.423828	2544.032227	17.816092
667.361633	1369.863525	7775.454590	2569.062988	18.721138
667.691772	1372.139038	7786.832031	2635.052979	19.687832
668.021790	1374.414551	7798.209961	2566.787354	18.561811
668.351807	1324.353149	7743.597168	2691.941162	21.304502
668.681763	1410.822876	7707.188965	2603.195801	18.937477
669.011719	1435.853638	7725.393066	2607.746826	18.632416
669.341614	1285.669312	7618.443848	2562.236328	20.158100
669.671387	1378.965576	7839.168945	2648.706299	19.654812
670.001221	1406.271851	7714.015625	2598.644775	18.903318
670.330933	1365.312500	7839.168945	2625.950928	19.472759
670.660583	1390.343262	7780.005859	2594.093750	18.839031
670.990173	1331.179688	7627.545898	2644.155273	20.852911
671.319763	1374.414551	7836.893555	2742.002686	21.161974
671.649292	1403.996338	7493.290039	2707.869873	21.412558
671.978821	1292.495850	7545.626953	2598.644775	20.887918
672.308289	1372.139038	7527.422852	2584.991699	19.704252
672.637695	1363.036987	7393.166992	2619.124512	20.830191
672.966980	1328.904175	7409.095703	2562.236328	20.284430
673.296326	1419.924927	7363.585449	2666.910400	20.980091
673.625610	1385.792114	7397.718262	2553.134277	19.417107
673.954773	1403.996338	7293.043945	2719.247314	22.333847
674.283936	1376.690063	7331.728027	2584.991699	20.290409
674.613037	1424.476074	7543.351563	2491.695313	17.441427
674.942078	1353.934937	7349.932129	2591.818115	20.645161
675.271118	1324.353149	7176.992676	2473.491211	19.634525
675.600098	1433.578125	7265.737793	2516.726074	18.571987
675.928955	1410.822876	7254.360352	2559.960938	19.665110
676.257813	1488.190552	7038.186035	2578.165039	19.639196
676.586670	1394.894287	7227.054199	2619.124512	20.991026
676.915466	1463.159912	7122.379883	2578.165039	19.702454
677.244141	1433.578125	7140.584473	2621.399902	20.813395
677.572876	1403.996338	7045.012207	2548.583252	20.290440
677.901489	1388.067749	7222.502930	2516.726074	19.344774
678.230042	1319.802124	7017.706055	2575.889648	22.044731
678.558594	1315.250977	7131.482422	2575.889648	21.674494
678.887085	1403.996338	7133.757813	2571.338623	20.373312
679.215515	1403.996338	7395.442383	2600.920166	19.977211
679.543945	1419.924927	7211.125488	2714.696289	22.357563
679.872253	1433.578125	7436.401855	2646.430664	20.204700
680.200562	1417.649414	7347.656738	2732.900391	22.179585
680.528809	1408.547363	7620.719238	2764.757813	21.831503
680.856995	1351.659302	7748.148438	2773.859863	22.234081
681.185120	1417.649414	7739.046387	2801.166016	21.886248
681.513306	1278.842651	7766.352539	2801.166016	23.465450
681.841309	1324.353149	7723.117676	2748.829102	22.261734
682.169373	1413.098389	7793.658691	2637.328613	19.186876
682.497314	1449.506714	7918.812500	2753.380127	20.154766
682.825134	1374.414551	7707.188965	2757.931152	21.846928
683.153076	1374.414551	7673.056152	2712.420898	21.242777
683.480896	1399.445313	7399.993652	2812.543701	23.549488
683.808655	1385.792114	7527.422852	2737.451416	22.008150
684.136414	1394.894287	7227.054199	2630.501953	21.186106
684.464050	1413.098389	7297.595215	2657.808350	21.152359
684.791626	1335.730713	7122.379883	2569.062988	21.313410
685.119263	1381.241089	7097.349609	2619.124512	21.656052
685.446838	1378.965576	7031.359375	2632.777588	22.181967
685.774292	1385.792114	6910.756836	2578.165039	21.581547
686.101685	1356.210449	6844.766602	2553.134277	21.807627
686.429077	1388.067749	6872.072754	2455.286865	19.460579
686.756348	1406.271851	6874.348145	2505.348389	20.099876
687.083679	1399.445313	6799.256348	2525.828125	20.859671
687.410950	1426.751587	6728.714844	2598.644775	22.103004
687.738159	1331.179688	6653.623047	2648.706299	24.754169
688.065308	1444.955688	6778.776367	2525.828125	20.264505
688.392395	1435.853638	6928.960938	2605.471436	21.292461
688.719421	1440.404663	6712.786133	2587.267090	21.752266
689.046448	1376.690063	6833.389160	2612.297852	22.643867
689.373413	1383.516602	7017.706055	2612.297852	21.809370
689.700317	1356.210449	6617.214355	2630.501953	24.221451
690.027100	1383.516602	6651.347168	2503.072998	21.252703
690.353943	1342.557251	6553.500000	2544.032227	23.056767
690.680725	1426.751587	6678.653320	2480.317627	20.060658
691.007446	1358.485962	6421.519531	2503.072998	22.606743
691.334106	1344.832764	6412.417480	2423.429688	21.284239
691.660645	1419.924927	6498.887207	2475.766602	20.788530
691.987244	1401.720825	6112.048828	2512.175049	23.574881
692.313721	1429.027100	6164.385742	2473.491211	22.056707
692.640259	1394.894287	6259.957520	2443.909424	21.562208
692.966675	1360.761475	6121.150879	2418.878662	22.227533
693.293030	1372.139038	6112.048828	2443.909424	22.611620
693.619324	1426.751587	6027.854492	2425.705078	21.711174
693.945618	1399.445313	6014.201660	2380.194824	21.252466
694.271851	1410.822876	5961.864258	2439.358398	22.600002
694.598083	1449.506714	6046.058594	2382.470215	20.297029
694.924194	1390.343262	5930.007324	2336.959961	20.852131
695.250244	1424.476074	5845.812988	2291.449463	19.608852
695.576294	1408.547363	5945.936035	2359.715088	20.962889
695.902283	1408.547363	6002.823730	2446.184814	22.585438
696.228210	1408.547363	5995.997070	2400.674561	21.626987
696.554138	1363.036987	5777.547363	2348.337402	22.319586
696.879944	1378.965576	6068.813965	2396.123291	21.688498
697.205750	1367.588013	6077.916016	2382.470215	21.545893
697.531433	1326.628662	6162.110352	2427.980713	22.776472
697.857178	1413.098389	6046.058594	2398.398926	21.267193
698.182739	1381.241089	6187.141113	2530.379150	23.910986
698.508423	1378.965576	6496.611816	2641.879639	24.677633
698.833984	1399.445313	6760.572266	2628.226563	22.920204
699.159485	1442.680176	7004.053223	2635.052979	21.440260
699.484924	1338.006226	7138.308594	2721.522949	23.852493
699.810303	1442.680176	7420.473145	2726.073975	21.469358
700.135681	1451.782227	7470.534668	2742.002686	21.436676
700.460999	1331.179688	7493.290039	2728.349365	22.673557
700.786255	1399.445313	7222.502930	2726.073975	22.782337
701.111450	1399.445313	7126.931152	2701.043213	22.725468
701.436646	1397.169800	6892.552734	2516.726074	20.372671
701.761719	1349.383789	6592.183594	2464.388916	21.267361
702.086792	1388.067749	6514.815918	2446.184814	20.639147
702.411865	1294.771362	6287.264160	2402.949951	22.196899
702.736816	1367.588013	6059.711914	2355.164063	21.047527
703.061646	1356.210449	5838.986328	2407.500977	23.451775
703.386536	1406.271851	5804.853516	2236.836914	18.882566
703.711365	1317.526489	5604.607910	2355.164063	24.203821
704.036194	1351.659302	5545.444336	2300.551514	22.626152
704.360901	1385.792114	5604.607910	2275.520752	21.089535
704.685547	1392.618774	5509.035645	2375.643799	23.880598
705.010132	1422.200562	5365.678223	2305.102539	22.388918
705.334717	1374.414551	5443.045898	2266.418701	21.923937
705.659302	1390.343262	5358.851563	2268.694336	22.133028
705.983765	1401.720825	5094.891113	2252.765625	23.043745
706.308228	1344.832764	5377.055664	2259.592041	22.686228
706.632568	1397.169800	5226.871094	2230.010498	21.746885
706.956909	1372.139038	5217.769043	2218.632813	22.011837
707.281189	1424.476074	5365.678223	2182.224365	19.226324
707.605408	1406.271851	5097.166504	2259.592041	23.119604
707.929626	1331.179688	5201.840332	2211.806152	22.751322
708.253784	1372.139038	5290.585938	2211.806152	21.428570
708.577820	1444.955688	5122.197266	2273.245361	22.524755
708.901855	1360.761475	5165.432129	2257.316650	23.564594
709.225830	1413.098389	5240.524414	2261.867676	22.175982
709.549805	1381.241089	5301.963379	2275.520752	22.809055
709.873718	1406.271851	5315.616699	2309.653564	23.108265
710.197510	1392.618774	5315.616699	2259.592041	22.099762
710.521362	1392.618774	5461.250000	2255.041016	21.196863
710.845093	1431.302612	5431.667969	2198.153076	19.169512
711.168701	1429.027100	5299.687988	2346.062012	23.691946
711.492432	1401.720825	5374.780273	2346.062012	23.768614
711.816040	1435.853638	5515.862305	2259.592041	20.189623
712.139587	1363.036987	5524.964355	2343.786377	23.564789
712.463074	1394.894287	5631.914063	2318.755615	21.804510
712.786499	1481.364014	5700.179688	2332.408936	20.172604
713.109924	1397.169800	5584.127930	2384.745850	23.586958
713.433350	1390.343262	5529.515625	2302.827148	22.045080
713.756592	1413.098389	5515.862305	2273.245361	20.965063
714.079834	1435.853638	5397.535156	2261.867676	20.850086
714.403015	1367.588013	5372.504395	2248.214600	21.988638
714.726196	1406.271851	5347.474121	2189.051025	19.861431
715.049255	1290.220337	5324.718750	2239.112549	23.519459
715.372375	1410.822876	5233.697754	2239.112549	21.666670
715.695435	1419.924927	5213.218262	2261.867676	22.195560
716.018311	1369.863525	5299.687988	2191.326416	20.903297
716.341248	1381.241089	5238.249023	2261.867676	22.831860
716.664063	1392.618774	5251.901855	2152.642578	19.693394
716.987000	1333.455200	5324.718750	2241.387939	22.748001
717.309692	1363.036987	5099.441895	2193.602051	22.228991
717.632385	1433.578125	5169.983398	2243.663574	21.680878
717.955078	1328.904175	5281.483887	2189.051025	21.761658
718.277649	1353.934937	5060.758301	2204.979736	22.958872
718.600220	1388.067749	4912.849609	2111.683350	20.529373
718.922791	1319.802124	4985.666016	2082.101563	20.794538
719.245300	1394.894287	4826.379395	2088.927979	20.225462
719.567688	1413.098389	4944.706543	2134.438477	20.425259
719.890015	1408.547363	4617.031738	2134.438477	22.624113
720.212341	1417.649414	4737.634277	2091.203613	20.287870
720.534607	1406.271851	4653.439941	2079.825928	20.742817
720.856873	1410.822876	4535.112793	2113.958740	22.505461
721.179016	1385.792114	4403.132813	2043.417725	21.794874
721.501160	1383.516602	4382.652832	2007.009399	20.789080
721.823242	1365.312500	4705.776855	2070.723877	21.117165
722.145264	1342.557251	4432.714355	2111.683350	24.889545
722.467224	1429.027100	4475.949219	2016.111450	19.268112
722.789185	1312.975464	4403.132813	1938.743774	20.250372
723.111023	1365.312500	4271.152344	2018.386963	22.474550
723.432861	1353.934937	4303.009766	2036.591064	23.148146
723.754578	1374.414551	4357.622559	1952.396851	19.374523
724.076294	1338.006226	4339.417969	1954.672363	20.545870
724.397949	1367.588013	4359.897949	2018.386963	21.749048
724.719666	1399.445313	4277.979004	1952.396851	19.209486
725.041260	1388.067749	4207.437988	2018.386963	22.356739
725.362732	1367.588013	4366.724609	1981.978638	20.485582
725.684265	1392.618774	4246.121582	1988.805176	20.893141
726.005676	1444.955688	4328.040527	1997.907227	19.179163
726.327087	1403.996338	4262.050293	1934.192627	18.550955
726.648438	1394.894287	4328.040527	1977.427612	19.860357
726.969666	1465.435425	4380.377441	1918.264038	15.534739
727.290894	1415.373901	4316.663086	2059.346436	22.196083
727.612061	1408.547363	4305.285156	2145.816162	25.451693
727.933228	1349.383789	4471.398438	2070.723877	23.104956
728.254395	1378.965576	4544.214844	2025.213501	20.416967
728.575378	1451.782227	4626.133789	2066.172852	19.354839
728.896301	1306.148926	4466.847168	2093.479248	24.910013
729.217285	1340.281738	4592.000977	2066.172852	22.323301
729.538147	1365.312500	4687.572754	2052.519775	20.684933
729.858948	1351.659302	4564.694824	2072.999512	22.450426
730.179810	1301.597900	4630.685059	2043.417725	22.282980
730.500549	1385.792114	4621.582520	2063.897461	20.956404
730.821228	1360.761475	4453.194336	2032.040039	21.707134
731.141846	1360.761475	4598.827637	2159.469238	24.666197
731.462402	1372.139038	4526.010742	2018.386963	20.490623
731.782898	1410.822876	4610.205078	2077.550537	20.839262
732.103455	1431.302612	4537.388672	2118.509766	22.124538
732.423889	1449.506714	4778.593750	2095.754639	19.412167
732.744263	1376.690063	4617.031738	2061.621826	21.137640
733.064636	1410.822876	4612.480469	2107.132324	21.748404
733.384888	1344.832764	4541.939453	2102.581299	23.701071
733.705200	1499.568237	4623.858398	2041.142212	17.334305
734.025330	1340.281738	4774.042480	2107.132324	22.332674
734.345520	1367.588013	4664.817871	2091.203613	21.946167
734.665527	1369.863525	4596.552246	2061.621826	21.438644
734.985596	1456.333252	4541.939453	2045.693237	19.100298
735.305542	1356.210449	4412.234863	2047.968750	22.635889
735.625549	1403.996338	4503.255859	2036.591064	20.411158
735.945435	1447.231201	4227.917480	2007.009399	20.130938
736.265259	1356.210449	4371.275391	2016.111450	21.886793
736.585083	1344.832764	4139.172363	1981.978638	22.801304
736.904785	1413.098389	4150.549805	2018.386963	22.111391
737.224426	1367.588013	4230.193359	2041.142212	23.529411
737.544128	1342.557251	4118.692871	1963.774414	22.377047
737.863708	1406.271851	4152.825684	1936.468262	19.304062
738.183289	1369.863525	4141.447754	1877.304688	18.308704
738.502808	1383.516602	4157.376465	2045.693237	23.872028
738.822205	1388.067749	4248.397461	1975.152100	20.525059
739.141541	1388.067749	4239.295410	2020.662476	22.186750
739.460938	1388.067749	4218.815430	2002.458252	21.704178
739.780212	1383.516602	4293.907715	2045.693237	22.752153
740.099426	1369.863525	4469.123047	2025.213501	21.145372
740.418640	1365.312500	4246.121582	2038.866699	23.380730
740.737793	1442.680176	4289.356934	2041.142212	21.023182
741.056885	1401.720825	4227.917480	2061.621826	23.349436
741.375977	1294.771362	4196.060547	2000.182739	24.313723
741.694946	1326.628662	4177.855957	2077.550537	26.336794
742.013855	1374.414551	4111.866211	1918.264038	19.866999
742.332703	1383.516602	4125.519043	1915.988525	19.419090
742.651550	1415.373901	4034.498291	2002.458252	22.415289
742.970398	1378.965576	4054.978027	1936.468262	20.833336
743.289124	1385.792114	4136.896973	1843.171875	16.625311
743.607788	1460.884399	3943.477539	1927.366089	18.790098
743.926453	1392.618774	4004.916504	1881.855713	18.728222
744.245056	1399.445313	3959.406250	1929.641602	20.711109
744.563599	1447.231201	3829.701416	1943.294800	20.821398
744.882141	1367.588013	3913.895752	1913.713013	21.447723
745.200500	1403.996338	3845.630127	1829.518677	17.427771
745.518860	1419.924927	3941.202148	1865.927002	17.689529
745.837219	1394.894287	3843.354736	1870.478149	19.423792
746.155518	1363.036987	3750.058350	1870.478149	21.258341
746.473755	1458.608887	3786.466553	1929.641602	20.234602
746.791992	1358.485962	3863.834229	1929.641602	22.797457
747.110107	1399.445313	3820.599365	1877.304688	19.736843
747.428162	1363.036987	3770.538086	1909.161987	22.684311
747.746216	1328.904175	3763.711426	1925.090576	24.485981
748.064148	1317.526489	3718.200928	1977.427612	27.488157
748.382080	1406.271851	3822.875000	1834.069824	17.702452
748.700073	1440.404663	3825.150391	1918.264038	20.038170
749.017822	1358.485962	3761.435791	1838.620850	19.981062
749.335632	1403.996338	3761.435791	1934.192627	22.490347
749.653320	1349.383789	3872.936523	1861.375977	20.288548
749.971008	1376.690063	3909.344727	1868.202637	19.407011
750.288696	1510.945801	3847.905762	1941.019287	18.403118
750.606262	1422.200562	3845.630127	1875.029175	18.685444
750.923828	1363.036987	3697.721191	1868.202637	21.637430
751.241272	1388.067749	3850.181152	1834.069824	18.114605
751.558716	1469.986450	3786.466553	1902.335449	18.664051
751.876038	1460.884399	3775.089111	1847.722900	16.715830
752.193481	1399.445313	3756.884766	1838.620850	18.629345
752.510681	1363.036987	3731.854004	1913.713013	23.246880
752.827942	1351.659302	3725.027588	1956.947876	25.503357
753.145081	1388.067749	3779.640137	1902.335449	21.503330
753.462219	1388.067749	3702.272461	1925.090576	23.205503
753.779297	1338.006226	3802.395264	1906.886475	23.084026
754.096375	1392.618774	3759.160400	1900.059814	21.442305
754.413330	1392.618774	3634.006836	1852.273926	20.507610
754.730286	1353.934937	3706.823486	1868.202637	21.856865
755.047119	1372.139038	3636.282227	1906.886475	23.618093
755.363892	1367.588013	3759.160400	1854.549438	20.361561
755.680725	1406.271851	3636.282227	1865.927002	20.612244
755.997498	1363.036987	3661.312988	1890.957764	22.970297
756.314148	1363.036987	3734.129639	1865.927002	21.209209
756.630737	1419.924927	3599.874023	1900.059814	22.025049
756.947327	1376.690063	3588.496338	1915.988525	24.382719
757.263855	1365.312500	3740.956299	1877.304688	21.551723
757.580261	1356.210449	3568.016602	1847.722900	22.222221
757.896729	1401.720825	3672.690674	1834.069824	19.038078
758.213074	1367.588013	3608.976074	1868.202637	22.335026
758.529419	1338.006226	3597.598389	1897.784302	24.773411
758.845642	1415.373901	3704.547852	1929.641602	22.465210
759.161865	1335.730713	3690.894775	1963.774414	26.666664
759.478149	1356.210449	3720.476563	1849.998413	20.885466
759.794189	1440.404663	3845.630127	1809.039063	15.326396
760.110229	1353.934937	3740.956299	1977.427612	26.120111
760.426270	1431.302612	3756.884766	1934.192627	21.624264
760.742249	1447.231201	3822.875000	1997.907227	23.180075
761.058105	1394.894287	3765.986816	1922.815063	22.264875
761.374023	1410.822876	3743.231689	1947.845825	23.024393
761.689819	1488.190552	3759.160400	1931.917114	19.539080
762.005554	1408.547363	3786.466553	1984.254150	24.210527
762.321289	1456.333252	3877.487549	1911.437500	18.796995
762.636902	1433.578125	3888.864990	1943.294800	20.759964
762.952515	1397.169800	3763.711426	1868.202637	19.903849
763.268127	1360.761475	3886.589600	1920.539551	22.162161
763.583618	1388.067749	3929.824463	1929.641602	21.307068
763.899048	1401.720825	4186.958496	1875.029175	16.993464
764.214478	1481.364014	4505.531250	2072.999512	19.563583
764.529785	1413.098389	5042.554199	2143.540527	20.125391
764.845093	1369.863525	5192.738281	2321.031250	24.880955
765.160400	1326.628662	5144.952637	2307.378174	25.685341
765.475586	1376.690063	5049.380859	2227.734863	23.172241
765.790771	1381.241089	4910.573730	2132.163086	21.276602
766.105835	1394.894287	4799.073242	2168.571289	22.727272
766.420837	1319.802124	4539.664063	2098.030273	24.169613
766.735840	1392.618774	4380.377441	2109.407715	23.990856
767.050842	1381.241089	4339.417969	2045.693237	22.461544
767.365662	1440.404663	4064.080078	1977.427612	20.468346
767.680542	1331.179688	4141.447754	1966.049927	22.591091
767.995300	1399.445313	3811.497314	2009.284912	25.283020
768.309998	1417.649414	3834.252441	1865.927002	18.549906
768.624817	1431.302612	3836.528076	1929.641602	20.719013
768.939392	1358.485962	3743.231689	1943.294800	24.522902
769.254028	1360.761475	3709.098877	1956.947876	25.387596
769.568481	1406.271851	3722.751953	1840.896362	18.762281
769.882935	1347.108276	3636.282227	1829.518677	21.073559
770.197388	1408.547363	3659.037354	1915.988525	22.548031
770.511841	1381.241089	3542.985840	1859.100464	22.105265
770.826172	1344.832764	3602.149414	1838.620850	21.875004
771.140442	1369.863525	3572.567627	1843.171875	21.487604
771.454651	1349.383789	3476.995850	1881.855713	25.026739
771.768860	1372.139038	3451.965088	1829.518677	21.991243
772.082886	1394.894287	3388.250488	1845.447388	22.602739
772.397034	1374.414551	3388.250488	1806.763550	21.468929
772.711060	1347.108276	3454.240479	1836.345337	23.218145
773.025024	1426.751587	3304.056152	1802.212524	20.000002
773.338928	1433.578125	3267.647949	1754.426514	17.493793
773.652771	1390.343262	3329.086914	1804.488037	21.361502
773.966614	1378.965576	3319.984863	1849.998413	24.267292
774.280457	1326.628662	3374.597412	1754.426514	20.888885
774.594116	1388.067749	3376.872803	1708.916138	16.132723
774.907776	1440.404663	3315.433838	1768.079712	17.475731
775.221375	1406.271851	3288.127441	1724.844727	16.928658
775.534912	1399.445313	3181.177979	1813.590088	23.243935
775.848450	1410.822876	3379.148438	1811.314575	20.346823
776.161926	1356.210449	3279.025391	1761.253052	21.065084
776.475342	1353.934937	3190.280273	1813.590088	25.030975
776.788696	1353.934937	3201.657715	1727.120239	20.197041
777.101990	1376.690063	3137.943115	1809.039063	24.547808
777.415283	1390.343262	3181.177979	1804.488037	23.125795
777.728516	1431.302612	3222.137451	1731.671387	16.772556
778.041626	1374.414551	3242.617188	1822.692139	23.995127
778.354736	1335.730713	3133.392090	1665.681274	18.354433
778.667725	1344.832764	3144.769775	1799.937012	25.284454
778.980774	1353.934937	3190.280273	1711.191650	19.454767
779.293640	1460.884399	3144.769775	1770.355225	18.378378
779.606567	1433.578125	3124.290039	1797.661377	21.534317
779.919434	1347.108276	3137.943115	1733.946899	21.601021
780.232239	1449.506714	3065.126465	1768.079712	19.718315
780.544983	1335.730713	3099.259277	1756.702026	23.870966
780.857666	1429.027100	3147.045166	1738.497925	18.013247
781.170227	1367.588013	3092.432861	1733.946899	21.240107
781.482849	1438.129150	3081.055176	1697.538574	15.789476
781.795410	1419.924927	3160.698486	1736.222412	18.169939
782.107910	1333.455200	3015.064941	1777.181763	26.387012
782.420288	1294.771362	3099.259277	1708.916138	22.950821
782.732666	1376.690063	3201.657715	1740.773438	19.950127
783.044983	1469.986450	3056.024414	1715.742676	15.494978
783.357300	1367.588013	3024.167236	1661.130127	17.719774
783.669495	1408.547363	3003.687500	1620.170776	13.266760
783.981689	1394.894287	2974.105713	1711.191650	20.028816
784.293762	1358.485962	2958.177002	1652.028076	18.349926
784.605835	1358.485962	2894.462402	1686.160889	21.333330
784.917908	1351.659302	2969.554688	1692.987427	21.097046
785.229858	1394.894287	2844.401123	1711.191650	21.821033
785.541748	1458.608887	2930.870850	1702.089600	16.537867
785.853577	1376.690063	2826.196777	1718.018188	23.547882
786.165405	1485.915039	2878.533936	1654.303589	12.091502
786.477173	1385.792114	2917.217773	1720.293701	21.842495
786.788879	1408.547363	2835.298828	1688.436401	19.617224
787.100525	1438.129150	2842.125488	1677.058838	17.017828
787.412109	1378.965576	2798.890625	1674.783325	20.833336
787.723694	1369.863525	2846.676514	1679.334351	20.955317
788.035156	1451.782227	2883.084961	1622.446289	11.923687
788.346558	1451.782227	2903.564453	1679.334351	15.673985
788.658081	1383.516602	2844.401123	1718.018188	22.897196
788.969360	1408.547363	2971.830078	1736.222412	20.960703
789.280640	1392.618774	3001.411865	1688.436401	18.387550
789.591919	1424.476074	3185.729004	1677.058838	14.341084
789.903076	1413.098389	3026.442627	1849.998413	27.080397
790.214172	1353.934937	3137.943115	1811.314575	25.637754
790.525269	1363.036987	3056.024414	1813.590088	26.612904
790.836365	1292.495850	2983.207764	1654.303589	21.399727
791.147339	1410.822876	2942.248291	1626.997314	14.115897
791.458191	1392.618774	2949.074951	1708.916138	20.321636
791.769104	1415.373901	2962.728027	1720.293701	19.705883
792.079895	1426.751587	2864.880615	1670.232300	16.930380
792.390686	1392.618774	2846.676514	1642.926025	17.214396
792.701416	1365.312500	2782.961914	1702.089600	23.756021
793.012085	1424.476074	2728.349365	1715.742676	22.338566
793.322693	1408.547363	2742.002686	1652.028076	18.259382
793.633240	1383.516602	2701.043213	1608.793213	17.098448
793.943787	1390.343262	2669.185791	1645.201538	19.928823
794.254272	1415.373901	2653.257324	1601.966675	15.073534
794.564636	1451.782227	2712.420898	1692.987427	19.133572
794.875000	1440.404663	2753.380127	1670.232300	17.504335
795.185303	1392.618774	2694.216553	1638.375000	18.881119
795.495544	1358.485962	2723.798340	1604.242188	18.000000
795.805786	1444.955688	2703.318604	1683.885376	18.987343
796.115906	1353.934937	2735.176025	1706.640625	25.535418
796.426025	1374.414551	2653.257324	1683.885376	24.199286
796.736023	1363.036987	2762.482178	1647.477051	20.325203
797.045959	1394.894287	2828.472412	1681.609863	19.999996
797.355896	1390.343262	2896.738037	1699.814087	20.543806
797.665833	1401.720825	2835.298828	1702.089600	20.952385
797.975708	1417.649414	2901.289063	1661.130127	16.411041
798.285461	1463.159912	2807.992676	1743.048950	20.812181
798.595154	1406.271851	2762.482178	1695.262939	21.308722
798.904846	1378.965576	2778.410889	1638.375000	18.536589
799.214478	1508.670288	2739.727051	1652.028076	11.645100
799.524109	1331.179688	2755.655762	1620.170776	20.287535
799.833557	1413.098389	2812.543701	1686.160889	19.512196
800.143005	1374.414551	2807.992676	1629.272949	17.777782
800.452393	1399.445313	2632.777588	1622.446289	18.081175
800.761780	1349.383789	2610.022461	1652.028076	24.007219
801.071106	1385.792114	2782.961914	1661.130127	19.706841
801.380371	1322.077637	2653.257324	1647.477051	24.444439
801.689575	1383.516602	2628.226563	1667.956787	22.851925
801.998718	1451.782227	2612.297852	1672.507813	19.019613
802.307800	1406.271851	2635.052979	1715.742676	25.185186
802.616882	1381.241089	2655.532715	1583.762451	15.892859
802.925903	1349.383789	2632.777588	1599.691162	19.503551
803.234863	1422.200562	2632.777588	1626.997314	16.917284
803.543701	1401.720825	2434.807373	1576.935913	16.960350
803.852539	1383.516602	2655.532715	1672.507813	22.719147
804.161316	1417.649414	2685.114502	1636.099487	17.235195
804.470032	1374.414551	2594.093750	1633.823975	21.268660
804.778809	1403.996338	2632.777588	1554.180664	12.222219
805.087341	1308.424438	2594.093750	1670.232300	28.141596
805.395935	1367.588013	2523.552490	1581.486938	18.503937
805.704468	1392.618774	2503.072998	1647.477051	22.950813
806.012939	1426.751587	2589.542725	1647.477051	18.982382
806.321350	1417.649414	2603.195801	1604.242188	15.738969
806.629761	1399.445313	2539.481201	1647.477051	21.756485
806.938049	1303.873413	2639.604248	1608.793213	22.827938
807.246277	1442.680176	2696.492188	1579.211426	10.889292
807.554504	1342.557251	2669.185791	1670.232300	24.699835
807.862671	1401.720825	2698.767578	1597.415649	15.087723
808.170715	1360.761475	2605.471436	1647.477051	23.034729
808.478821	1406.271851	2625.950928	1576.935913	13.992538
808.786804	1397.169800	2539.481201	1604.242188	18.127491
809.094727	1392.618774	2564.511963	1620.170776	19.417469
809.402649	1369.863525	2514.450439	1670.232300	26.242548
809.710510	1429.027100	2530.379150	1586.037964	14.256192
810.018311	1333.455200	2464.388916	1574.660400	21.327971
810.326050	1442.680176	2550.858887	1556.456177	10.266936
810.633667	1390.343262	2584.991699	1615.619751	18.857136
810.941345	1388.067749	2516.726074	1558.731689	15.120957
811.248901	1374.414551	2373.368164	1567.833862	19.362192
811.556396	1476.812988	2407.500977	1590.588989	12.224935
811.863892	1385.792114	2396.123291	1606.517700	21.846855
812.171326	1378.965576	2466.664551	1626.997314	22.803345
812.478699	1383.516602	2291.449463	1615.619751	25.563911
812.786011	1385.792114	2380.194824	1583.762451	19.908466
813.093262	1397.169800	2475.766602	1565.558350	15.611816
813.400391	1312.975464	2400.674561	1579.211426	24.476986
813.707642	1324.353149	2382.470215	1629.272949	28.817209
814.014709	1349.383789	2393.847900	1601.966675	24.183012
814.321716	1422.200562	2448.460449	1556.456177	13.082029
814.628723	1406.271851	2361.990479	1506.394775	10.476192
814.935669	1310.699951	2375.643799	1574.660400	24.786325
815.242554	1442.680176	2434.807373	1570.109375	12.844039
815.549438	1392.618774	2396.123291	1565.558350	17.233562
815.856201	1413.098389	2357.439453	1608.793213	20.722897
816.162964	1433.578125	2373.368164	1626.997314	20.581106
816.469604	1415.373901	2407.500977	1615.619751	20.183489
816.776184	1385.792114	2427.980713	1570.109375	17.685596
817.082825	1369.863525	2425.705078	1556.456177	17.672411
817.389343	1397.169800	2416.603027	1549.629639	14.955353
817.695801	1383.516602	2384.745850	1599.691162	21.590916
818.002197	1376.690063	2364.266113	1583.762451	20.967741
818.308533	1374.414551	2368.817139	1615.619751	24.256292
818.614868	1351.659302	2380.194824	1574.660400	21.681419
818.921143	1392.618774	2450.735840	1592.864502	18.924723
819.227356	1358.485962	2364.266113	1624.721802	26.470579
819.533447	1369.863525	2425.705078	1565.558350	18.534489
819.839539	1394.894287	2443.909424	1604.242188	19.956614
820.145569	1340.281738	2564.511963	1620.170776	22.862452
820.451538	1422.200562	2580.440674	1647.477051	19.449896
820.757568	1394.894287	2742.002686	1647.477051	18.749996
821.063416	1467.710938	2817.094727	1756.702026	21.416523
821.369263	1406.271851	3019.616211	1622.446289	13.399151
821.675049	1426.751587	3069.677490	1715.742676	17.590025
821.980713	1347.108276	3128.841064	1731.671387	21.583658
822.286438	1383.516602	3285.852051	1774.906250	20.574165
822.592102	1340.281738	3816.048340	1931.917114	23.897058
822.897583	1367.588013	4931.053711	2350.613037	27.586206
823.203125	1415.373901	7145.135254	3003.687500	27.720415
823.508545	1474.537476	9388.798828	3342.739990	23.605520
823.813965	1367.588013	10603.926758	3679.517090	25.030796
824.119263	1454.057739	10378.650391	3627.180176	24.349823
824.424622	1488.190552	9006.511719	3360.944336	24.909201
824.729858	1383.516602	7552.453613	2885.360352	24.345261
825.035095	1344.832764	6589.908203	2641.879639	24.728851
825.340149	1374.414551	5939.109375	2439.358398	23.330011
825.645264	1369.863525	5311.065430	2357.439453	25.057735
825.950256	1394.894287	4956.084473	2227.734863	23.386580
826.255310	1347.108276	4553.316895	2214.081787	27.040459
826.560242	1347.108276	4321.213867	2054.795166	23.794949
826.865112	1340.281738	4091.386475	2054.795166	25.971872
827.169922	1415.373901	3884.313965	1959.223389	22.027651
827.474670	1374.414551	3841.079102	1938.743774	22.878231
827.779419	1419.924927	4191.509277	2075.274902	23.645319
828.084045	1358.485962	4776.318359	2168.571289	23.701727
828.388672	1406.271851	5267.830566	2286.898438	22.804953
828.693176	1447.231201	5438.494629	2275.520752	20.752565
828.997681	1360.761475	5129.023926	2184.500000	21.859903
829.302124	1319.802124	4573.796875	2143.540527	25.314682
829.606567	1403.996338	4111.866211	1979.703125	21.260504
829.910828	1401.720825	3706.823486	1975.152100	24.876606
830.215149	1369.863525	3513.404053	1818.141113	20.912951
830.519348	1385.792114	3260.821289	1838.620850	24.150490
830.823547	1353.934937	3099.259277	1790.834839	25.032591
831.127686	1372.139038	2926.319824	1674.783325	19.472914
831.431763	1394.894287	2885.360352	1702.089600	20.610687
831.735779	1365.312500	2726.073975	1663.405762	21.906357
832.039734	1358.485962	2641.879639	1661.130127	23.581553
832.343628	1378.965576	2525.828125	1629.272949	21.825403
832.647461	1278.842651	2562.236328	1599.691162	25.000008
832.951233	1374.414551	2507.624023	1588.313477	18.875498
833.255127	1383.516602	2484.868652	1570.109375	16.942156
833.558777	1415.373901	2482.593262	1611.068726	18.336889
833.862366	1406.271851	2516.726074	1640.650513	21.106558
834.165955	1342.557251	2732.900391	1706.640625	26.186584
834.469482	1365.312500	3160.698486	1788.559326	23.574141
834.773010	1369.863525	3417.832275	1856.824951	23.777777
835.076416	1403.996338	3768.262451	1934.192627	22.425407
835.379822	1399.445313	3879.762939	2020.662476	25.045872
835.683105	1376.690063	3804.670898	1931.917114	22.867851
835.986389	1388.067749	3442.863037	1868.202637	23.366554
836.289612	1374.414551	3192.555664	1788.559326	22.778473
836.592773	1394.894287	3005.962891	1793.110352	24.717512
836.895874	1363.036987	2908.115479	1749.875488	25.036819
837.198914	1390.343262	2853.503174	1622.446289	15.863134
837.501892	1338.006226	2703.318604	1756.702026	30.666668
837.804871	1442.680176	2562.236328	1681.609863	21.341465
838.107666	1353.934937	2528.103516	1645.201538	24.806200
838.410583	1363.036987	2468.940186	1588.313477	20.370363
838.713379	1347.108276	2382.470215	1611.068726	25.494509
839.016052	1397.169800	2259.592041	1522.323364	14.511867
839.318787	1378.965576	2234.561523	1599.691162	25.797876
839.621338	1381.241089	2230.010498	1538.252075	18.498663
839.923889	1419.924927	2316.480225	1535.976563	12.944169
840.226440	1385.792114	2191.326416	1579.211426	24.011307
840.528931	1369.863525	2245.938965	1476.812988	12.207791
840.831299	1356.210449	2352.888428	1479.088501	12.328762
841.133606	1369.863525	2336.959961	1551.905151	18.823524
841.435913	1413.098389	2407.500977	1645.201538	23.340963
841.738220	1376.690063	2409.776611	1588.313477	20.484577
842.040405	1333.455200	2323.306641	1501.843750	17.011497
842.342529	1422.200562	2255.041016	1520.047852	11.748624
842.644592	1369.863525	2284.622803	1574.660400	22.388062
842.946594	1397.169800	2209.530762	1533.701050	16.806723
843.248596	1406.271851	2084.376953	1545.078613	20.469801
843.550598	1374.414551	2118.509766	1547.354126	23.241592
843.852478	1392.618774	2020.662476	1549.629639	24.999990
844.154236	1408.547363	2057.070801	1474.537476	10.175440
844.455994	1324.353149	2027.489014	1460.884399	19.417479
844.757690	1378.965576	1959.223389	1504.119263	21.568634
845.059326	1383.516602	2045.693237	1524.598877	21.305838
845.360962	1356.210449	1952.396851	1524.598877	28.244259
845.662476	1367.588013	1881.855713	1513.221313	28.318579
845.963989	1465.435425	1950.121338	1495.017212	6.103290
846.265381	1365.312500	1904.610962	1454.057739	16.455683
846.566772	1397.169800	2032.040039	1520.047852	19.354830
846.868042	1369.863525	1909.161987	1495.017212	23.206758
847.169373	1385.792114	1991.080688	1504.119263	19.548882
847.470581	1369.863525	1918.264038	1463.159912	17.012455
847.771729	1413.098389	1881.855713	1524.598877	23.786400
848.072815	1388.067749	1827.243164	1522.323364	30.569929
848.373901	1353.934937	1863.651489	1520.047852	32.589272
848.674866	1374.414551	1811.314575	1483.639526	24.999992
848.975891	1367.588013	1972.876587	1465.435425	16.165415
849.276794	1483.639526	1897.784302	1394.894287	-21.428555
849.577637	1376.690063	1906.886475	1454.057739	14.592267
849.878357	1367.588013	1870.478149	1410.822876	8.597278
850.179077	1351.659302	1802.212524	1408.547363	12.626269
850.479736	1381.241089	1884.131226	1394.894287	2.714947
850.780396	1397.169800	1820.416626	1385.792114	-2.688192
851.080994	1369.863525	1897.784302	1451.782227	15.517234
851.381470	1390.343262	1856.824951	1433.578125	9.268288
851.681946	1356.210449	1886.406738	1401.720825	8.583684
851.982361	1312.975464	1802.212524	1440.404663	26.046515
852.282715	1394.894287	1824.967651	1472.261963	17.989414
852.583008	1381.241089	1845.447388	1401.720825	4.411775
852.883240	1374.414551	1872.753662	1360.761475	-2.739716
853.183411	1390.343262	1758.977539	1363.036987	-7.407416
853.483521	1335.730713	1797.661377	1385.792114	10.837428
853.783630	1351.659302	1847.722900	1342.557251	-1.834856
854.083679	1383.516602	1738.497925	1408.547363	7.051290
854.383667	1401.720825	1811.314575	1376.690063	-6.111119
854.683533	1442.680176	1843.171875	1397.169800	-11.363626
854.983337	1422.200562	1793.110352	1433.578125	3.067475
855.283203	1367.588013	1795.385864	1454.057739	20.212753
855.582886	1347.108276	1781.732788	1397.169800	11.518339
855.882629	1360.761475	1738.497925	1390.343262	7.831330
856.182312	1344.832764	1834.069824	1433.578125	18.139542
856.481873	1324.353149	1774.906250	1433.578125	24.242420
856.781372	1324.353149	1863.651489	1433.578125	20.253164
857.080872	1376.690063	1824.967651	1369.863525	-1.522837
857.380310	1328.904175	1811.314575	1426.751587	20.283024
857.679688	1397.169800	1824.967651	1394.894287	-0.531913
857.979004	1349.383789	1729.395752	1383.516602	8.982037
858.278259	1397.169800	1743.048950	1490.466064	26.973660
858.577454	1426.751587	1749.875488	1376.690063	-15.492981
858.876648	1385.792114	1777.181763	1315.250977	-18.023251
859.175720	1403.996338	1779.457275	1385.792114	-4.848500
859.474792	1426.751587	1809.039063	1469.986450	11.309516
859.773743	1413.098389	1849.998413	1356.210449	-13.020814
860.072693	1363.036987	1774.906250	1374.414551	2.762421
860.371521	1413.098389	1733.946899	1483.639526	21.985807
860.670349	1378.965576	1777.181763	1451.782227	18.285707
860.969116	1429.027100	1768.079712	1449.506714	6.040246
861.267883	1413.098389	1752.151001	1399.445313	-4.026831
861.566589	1403.996338	1875.029175	1415.373901	2.415450
861.865112	1390.343262	1761.253052	1358.485962	-8.588962
862.163635	1363.036987	1781.732788	1388.067749	5.978269
862.462158	1363.036987	1815.865601	1388.067749	5.527646
862.760620	1367.588013	1815.865601	1353.934937	-3.045675
863.059021	1415.373901	1758.977539	1442.680176	7.947027
863.357361	1401.720825	1743.048950	1351.659302	-14.666686
863.655640	1356.210449	1797.661377	1438.129150	18.556694
863.953857	1399.445313	1695.262939	1444.955688	15.384605
864.251953	1390.343262	1763.528564	1413.098389	6.097541
864.550110	1372.139038	1718.018188	1365.312500	-1.973677
864.848206	1408.547363	1752.151001	1447.231201	11.258274
865.146179	1410.822876	1743.048950	1490.466064	23.972588
865.444092	1338.006226	1820.416626	1408.547363	14.622641
865.741943	1408.547363	1799.937012	1419.924927	2.906966
866.039795	1342.557251	1754.426514	1385.792114	10.497230
866.337646	1374.414551	1758.977539	1422.200562	12.426056
866.635376	1308.424438	1790.834839	1476.812988	34.905663
866.933044	1385.792114	1804.488037	1454.057739	16.304344
867.230652	1328.904175	1809.039063	1410.822876	17.061602
867.528198	1392.618774	1793.110352	1456.333252	15.909068
867.825745	1310.699951	1713.467163	1415.373901	25.988697
868.123230	1390.343262	1843.171875	1474.537476	18.592953
868.420593	1449.506714	1799.937012	1401.720825	-13.636346
868.717896	1399.445313	1768.079712	1419.924927	5.555535
869.015198	1381.241089	1724.844727	1451.782227	20.529799
869.312439	1469.986450	1765.804199	1438.129150	-10.769232
869.609619	1392.618774	1729.395752	1440.404663	14.189179
869.906738	1408.547363	1790.834839	1444.955688	9.523808
870.203796	1367.588013	1754.426514	1347.108276	-5.294131
870.500854	1403.996338	1815.865601	1403.996338	0.000000
870.797791	1356.210449	1699.814087	1476.812988	35.099319
871.094666	1385.792114	1695.262939	1474.537476	28.676487
871.391602	1431.302612	1797.661377	1397.169800	-9.316772
871.688293	1435.853638	1642.926025	1433.578125	-1.098897
871.985107	1340.281738	1784.008301	1397.169800	12.820522
872.281738	1287.944824	1765.804199	1426.751587	29.047617
872.578369	1381.241089	1772.630737	1435.853638	13.953499
872.874939	1392.618774	1790.834839	1401.720825	2.285707
873.171509	1374.414551	1820.416626	1385.792114	2.551011
873.467957	1367.588013	1699.814087	1429.027100	18.493156
873.764343	1349.383789	1761.253052	1349.383789	0.000000
874.060669	1447.231201	1763.528564	1394.894287	-16.546743
874.356995	1438.129150	1768.079712	1424.476074	-4.137916
874.653198	1413.098389	1831.794189	1419.924927	1.630429
874.949463	1363.036987	1818.141113	1369.863525	1.499995
875.245544	1385.792114	1754.426514	1399.445313	3.703723
875.541626	1388.067749	1736.222412	1399.445313	3.267962
875.837646	1331.179688	1799.937012	1406.271851	16.019411
876.133606	1401.720825	1774.906250	1381.241089	-5.487818
876.429565	1399.445313	1731.671387	1415.373901	4.794503
876.725403	1328.904175	1772.630737	1438.129150	24.615379
877.021179	1363.036987	1790.834839	1429.027100	15.425536
877.316956	1338.006226	1708.916138	1479.088501	38.036804
877.612610	1424.476074	1679.334351	1426.751587	0.892854
877.908203	1415.373901	1670.232300	1415.373901	0.000000
878.203857	1358.485962	1702.089600	1479.088501	35.099319
878.499390	1356.210449	1813.590088	1444.955688	19.402971
878.794800	1419.924927	1786.283813	1460.884399	11.180150
879.090271	1340.281738	1799.937012	1403.996338	13.861387
879.385559	1365.312500	1824.967651	1424.476074	12.871296
879.680847	1422.200562	1795.385864	1492.741699	18.902443
879.976196	1319.802124	1852.273926	1424.476074	19.658121
880.271301	1403.996338	1890.957764	1456.333252	10.747651
880.566467	1363.036987	1961.498901	1483.639526	20.152082
880.861572	1451.782227	1981.978638	1444.955688	-1.287549
881.156555	1324.353149	2066.172852	1554.180664	30.981586
881.451477	1408.547363	2264.143311	1590.588989	21.276588
881.746460	1438.129150	2528.103516	1615.619751	16.283924
882.041321	1444.955688	3135.667725	1822.692139	22.341856
882.336121	1358.485962	4016.294189	2009.284912	24.486303
882.630798	1449.506714	4728.532227	2141.265137	21.096464
882.925537	1403.996338	5001.594727	2250.489990	23.529409
883.220215	1426.751587	4869.614746	2207.255127	22.670187
883.514771	1308.424438	4548.766113	2150.367188	25.983147
883.809326	1401.720825	4211.988770	1993.356201	21.052631
884.103760	1351.659302	3920.722412	1902.335449	21.434902
884.398132	1403.996338	3688.619141	1861.375977	20.019918
884.692505	1378.965576	3547.536865	1820.416626	20.356770
884.986816	1333.455200	3335.913574	1843.171875	25.454546
885.281067	1363.036987	3076.504150	1790.834839	24.966797
885.575256	1374.414551	2978.656738	1699.814087	20.283691
885.869385	1406.271851	2742.002686	1697.538574	21.805794
886.163452	1488.190552	2662.359375	1677.058838	16.085276
886.457458	1415.373901	2459.837891	1595.140137	17.211338
886.751465	1410.822876	2343.786377	1517.772339	11.463413
887.045410	1360.761475	2243.663574	1545.078613	20.876284
887.339233	1358.485962	2116.234375	1556.456177	26.126114
887.632996	1390.343262	2070.723877	1463.159912	10.702340
887.926758	1367.588013	1966.049927	1504.119263	22.813690
888.220398	1397.169800	1922.815063	1472.261963	14.285711
888.514099	1390.343262	1931.917114	1381.241089	-1.680689
888.807678	1328.904175	1811.314575	1483.639526	32.075459
889.101196	1385.792114	1929.641602	1488.190552	18.828451
889.394653	1374.414551	1859.100464	1424.476074	10.328652
889.688049	1435.853638	1893.233276	1447.231201	2.487554
889.981384	1338.006226	1822.692139	1438.129150	20.657280
890.274719	1385.792114	1733.946899	1433.578125	13.725508
890.567932	1378.965576	1843.171875	1415.373901	7.843135
>>>>>End Processed Spectral Data<<<<<
