Jaz Data File
++++++++++++++++++++++++++++++++++++
Date: Wed Feb 07 06:39:02 2024
User: jaz
Dark Spectrum Present: Yes
Reference Spectrum Present: Yes
Processed Spectrum Present: Yes
Spectrometers: JAZA3692
Integration Time (usec): 43100 (JAZA3692)
Spectra Averaged: 1 (JAZA3692)
Boxcar Smoothing: 0 (JAZA3692)
Correct for Electrical Dark: No (JAZA3692)
Strobe/Lamp Enabled: Yes (JAZA3692)
Correct for Detector Non-linearity: No (JAZA3692)
Correct for Stray Light: No (JAZA3692)
Number of Pixels in Processed Spectrum: 2048
>>>>>Begin Processed Spectral Data<<<<<
W	D	R	S	P
190.244385	0.000000	0.000000	0.000000	0.000000
190.627136	0.000000	0.000000	0.000000	0.000000
191.009842	1165.066650	1165.066650	1260.638550	0.000000
191.392532	1169.617676	1219.679199	1235.607788	131.818024
191.775177	1231.056763	1215.128052	1158.240112	457.140900
192.157791	1199.199463	1258.363037	1196.923950	-3.846138
192.540390	1246.985352	1210.577026	1194.648438	143.749847
192.922943	1276.567139	1251.536499	1253.812012	90.909088
193.305481	1253.812012	1281.118164	1287.944824	125.000450
193.687958	1221.954712	1217.403687	1206.026001	350.002686
194.070419	1253.812012	1246.985352	1165.066650	1299.982178
194.452866	1301.597900	1285.669312	1258.363037	271.429352
194.835251	1262.914063	1274.291626	1317.526489	480.001068
195.217621	1196.923950	1231.056763	1199.199463	6.666643
195.599960	1256.087524	1228.781250	1269.740601	-49.999775
195.982254	1272.016113	1228.781250	1285.669312	-31.579140
196.364517	1299.322388	1274.291626	1217.403687	327.272095
196.746750	1242.434326	1201.474976	1226.505737	38.888775
197.128952	1246.985352	1224.230225	1272.016113	-110.000534
197.511139	1312.975464	1221.954712	1319.802124	-7.500114
197.893280	1256.087524	1290.220337	1317.526489	179.999710
198.275391	1160.515625	1274.291626	1233.332275	64.000008
198.657471	1224.230225	1224.230225	1274.291626	0.000000
199.039520	1199.199463	1201.474976	1251.536499	2300.010742
199.421539	1285.669312	1265.189575	1212.852539	355.555237
199.803513	1358.485962	1306.148926	1224.230225	256.521484
200.185471	1301.597900	1338.006226	1258.363037	-118.749939
200.567383	1165.066650	1278.842651	1285.669312	106.000092
200.949265	1240.158813	1335.730713	1278.842651	40.476162
201.331131	1212.852539	1299.322388	1171.893188	-47.368362
201.712967	1294.771362	1319.802124	1269.740601	-100.000000
202.094742	1283.393677	1278.842651	1199.199463	1850.005371
202.476517	1253.812012	1324.353149	1228.781250	-35.483921
202.858231	1358.485962	1237.883301	1133.209351	186.792404
203.239944	1267.465088	1253.812012	1210.577026	416.668457
203.621582	1301.597900	1262.914063	1285.669312	41.176342
204.003235	1260.638550	1233.332275	1256.087524	16.666592
204.384827	1201.474976	1242.434326	1240.158813	94.444458
204.766388	1249.260864	1315.250977	1190.097412	-89.655029
205.147934	1253.812012	1315.250977	1242.434326	-18.518681
205.529449	1253.812012	1269.740601	1324.353149	442.858673
205.910904	1237.883301	1219.679199	1231.056763	37.500000
206.292343	1242.434326	1217.403687	1190.097412	209.091400
206.673767	1215.128052	1233.332275	1201.474976	-74.999496
207.055115	1235.607788	1208.301514	1149.138062	316.666138
207.436462	1180.995239	1215.128052	1183.270874	6.667000
207.817780	1297.046875	1262.914063	1201.474976	280.000061
208.199051	1160.515625	1283.393677	1251.536499	74.074150
208.580307	1235.607788	1274.291626	1153.689087	-211.764664
208.961517	1233.332275	1272.016113	1228.781250	-11.764668
209.342712	1171.893188	1242.434326	1237.883301	93.548409
209.723846	1165.066650	1308.424438	1251.536499	60.317509
210.104965	1196.923950	1240.158813	1180.995239	-36.842285
210.486069	1231.056763	1256.087524	1201.474976	-118.181732
210.867111	1253.812012	1344.832764	1276.567139	24.999933
211.248123	1201.474976	1315.250977	1283.393677	71.999985
211.629120	1210.577026	1244.709839	1194.648438	-46.666500
212.010071	1237.883301	1322.077637	1178.719727	-70.270256
212.390991	1297.046875	1249.260864	1190.097412	223.809143
212.771881	1242.434326	1301.597900	1267.465088	42.307724
213.152756	1299.322388	1235.607788	1219.679199	124.999901
213.533569	1292.495850	1294.771362	1267.465088	-1100.005371
213.914368	1203.750488	1369.863525	1221.954712	10.958938
214.295135	1158.240112	1274.291626	1174.168701	13.725447
214.675858	1256.087524	1237.883301	1262.914063	-37.499748
215.056549	1233.332275	1310.699951	1192.372925	-52.941166
215.437225	1237.883301	1258.363037	1194.648438	-211.110443
215.817841	1217.403687	1251.536499	1242.434326	73.333069
216.198441	1190.097412	1235.607788	1256.087524	145.000153
216.579025	1196.923950	1258.363037	1217.403687	33.333401
216.959549	1199.199463	1338.006226	1228.781250	21.311489
217.340057	1242.434326	1219.679199	1203.750488	170.000534
217.720535	1224.230225	1169.617676	1174.168701	91.666702
218.100967	1199.199463	1290.220337	1215.128052	17.499929
218.481369	1183.270874	1258.363037	1149.138062	-45.454559
218.861740	1251.536499	1210.577026	1201.474976	122.222092
219.242065	1244.709839	1276.567139	1196.923950	-149.999802
219.622391	1253.812012	1237.883301	1210.577026	271.428009
220.002670	1237.883301	1281.118164	1272.016113	78.947426
220.382919	1228.781250	1240.158813	1331.179688	900.003235
220.763123	1249.260864	1290.220337	1301.597900	127.777611
221.143295	1281.118164	1292.495850	1251.536499	-259.997223
221.523453	1242.434326	1290.220337	1297.046875	114.285645
221.903549	1226.505737	1290.220337	1217.403687	-14.285660
222.283630	1242.434326	1338.006226	1190.097412	-54.761822
222.663696	1246.985352	1224.230225	1190.097412	250.000534
223.043701	1219.679199	1281.118164	1196.923950	-37.037163
223.423676	1192.372925	1272.016113	1201.474976	11.428536
223.803635	1219.679199	1215.128052	1246.985352	-599.983887
224.183548	1194.648438	1331.179688	1224.230225	21.666679
224.563431	1201.474976	1281.118164	1310.699951	137.142899
224.943283	1246.985352	1244.709839	1158.240112	3900.010742
225.323105	1192.372925	1340.281738	1206.026001	9.230739
225.702881	1267.465088	1308.424438	1199.199463	-166.666763
226.082642	1196.923950	1328.904175	1224.230225	20.689671
226.462357	1251.536499	1342.557251	1274.291626	24.999933
226.842041	1221.954712	1301.597900	1215.128052	-8.571555
227.221695	1281.118164	1333.455200	1194.648438	-165.217087
227.601318	1212.852539	1317.526489	1278.842651	63.043491
227.980911	1196.923950	1385.792114	1251.536499	28.915699
228.360474	1215.128052	1376.690063	1226.505737	7.042303
228.739990	1196.923950	1365.312500	1192.372925	-2.702693
229.119476	1221.954712	1456.333252	1160.515625	-26.213615
229.498932	1246.985352	1467.710938	1246.985352	0.000000
229.878372	1228.781250	1481.364014	1253.812012	9.909925
230.257736	1242.434326	1554.180664	1253.812012	3.649661
230.637115	1192.372925	1542.803101	1290.220337	27.922085
231.016449	1240.158813	1588.313477	1262.914063	6.535960
231.395737	1278.842651	1549.629639	1294.771362	5.882377
231.774994	1206.026001	1467.710938	1287.944824	31.304371
232.154221	1219.679199	1424.476074	1217.403687	-1.111107
232.533417	1203.750488	1460.884399	1237.883301	13.274333
232.912582	1237.883301	1495.017212	1267.465088	11.504429
233.291702	1240.158813	1513.221313	1224.230225	-5.833313
233.670792	1215.128052	1372.139038	1190.097412	-15.941967
234.049866	1237.883301	1408.547363	1262.914063	14.666686
234.428894	1276.567139	1444.955688	1221.954712	-32.432388
234.807892	1206.026001	1435.853638	1192.372925	-5.940572
235.186874	1251.536499	1372.139038	1267.465088	13.207507
235.565781	1194.648438	1433.578125	1235.607788	17.142847
235.944687	1192.372925	1435.853638	1249.260864	23.364454
236.323547	1201.474976	1449.506714	1192.372925	-3.669712
236.702377	1208.301514	1563.282837	1319.802124	31.410275
237.081177	1180.995239	1501.843750	1294.771362	35.461010
237.459946	1322.077637	1474.537476	1251.536499	-46.268669
237.838669	1260.638550	1492.741699	1242.434326	-7.843161
238.217361	1260.638550	1472.261963	1235.607788	-11.827973
238.596039	1219.679199	1458.608887	1260.638550	17.142847
238.974670	1251.536499	1510.945801	1246.985352	-1.754427
239.353271	1244.709839	1504.119263	1299.322388	21.052647
239.731842	1199.199463	1447.231201	1299.322388	40.366982
240.110367	1256.087524	1545.078613	1231.056763	-8.661430
240.488876	1228.781250	1522.323364	1262.914063	11.627910
240.867340	1219.679199	1595.140137	1215.128052	-1.212149
241.245789	1253.812012	1586.037964	1262.914063	2.739717
241.624176	1208.301514	1711.191650	1272.016113	12.669685
242.002548	1294.771362	1649.752563	1299.322388	1.282047
242.380890	1292.495850	1822.692139	1297.046875	0.858366
242.759186	1192.372925	1843.171875	1262.914063	10.839160
243.137451	1251.536499	1934.192627	1262.914063	1.666661
243.515686	1253.812012	2088.927979	1331.179688	9.264303
243.893890	1185.546387	2043.417725	1287.944824	11.936339
244.272049	1267.465088	2148.091553	1299.322388	3.617572
244.650192	1237.883301	2075.274902	1303.873413	7.880436
245.028290	1221.954712	1895.508789	1267.465088	6.756752
245.406357	1203.750488	1847.722900	1278.842651	11.660773
245.784393	1199.199463	1804.488037	1249.260864	8.270667
246.162384	1251.536499	1843.171875	1228.781250	-3.846161
246.540359	1242.434326	1925.090576	1292.495850	7.333343
246.918289	1240.158813	2002.458252	1262.914063	2.985080
247.296204	1251.536499	2186.775391	1292.495850	4.379560
247.674057	1215.128052	2464.388916	1310.699951	7.650276
248.051895	1237.883301	2691.941162	1351.659302	7.824723
248.429703	1233.332275	2767.033203	1429.027100	12.759647
248.807465	1285.669312	2839.849854	1365.312500	5.124449
249.185196	1278.842651	2546.307861	1338.006226	4.667866
249.562897	1240.158813	2373.368164	1399.445313	14.056229
249.940567	1180.995239	2311.929199	1410.822876	20.321932
250.318192	1174.168701	2102.581299	1322.077637	15.931379
250.695801	1210.577026	2088.927979	1258.363037	5.440423
251.073349	1185.546387	1945.570313	1249.260864	8.383220
251.450882	1235.607788	1927.366089	1347.108276	16.118418
251.828400	1281.118164	1879.580200	1301.597900	3.422061
252.205872	1251.536499	1931.917114	1342.557251	13.377916
252.583313	1235.607788	2025.213501	1324.353149	11.239200
252.960693	1185.546387	2091.203613	1365.312500	19.849243
253.338074	1278.842651	2291.449463	1413.098389	13.258428
253.715408	1260.638550	2239.112549	1392.618774	13.488373
254.092682	1240.158813	2047.968750	1349.383789	13.521123
254.469955	1142.311401	1890.957764	1244.709839	13.677812
254.847198	1217.403687	1936.468262	1297.046875	11.075944
255.224365	1215.128052	1913.713013	1331.179688	16.612387
255.601563	1269.740601	1877.304688	1272.016113	0.374530
255.978683	1256.087524	1802.212524	1251.536499	-0.833330
256.355743	1199.199463	1859.100464	1317.526489	17.931026
256.732819	1251.536499	1890.957764	1303.873413	8.185044
257.109894	1176.444214	1954.672363	1319.802124	18.421064
257.486877	1226.505737	1909.161987	1331.179688	15.333332
257.863831	1267.465088	2066.172852	1308.424438	5.128202
258.240753	1192.372925	2120.785400	1299.322388	11.519607
258.617645	1219.679199	2198.153076	1338.006226	12.093019
258.994507	1110.454102	2280.071777	1340.281738	19.649809
259.371307	1274.291626	2232.285889	1360.761475	9.026134
259.748108	1162.791138	2509.899414	1415.373901	18.749998
260.124878	1158.240112	2751.104736	1385.792114	14.285708
260.501617	1249.260864	3106.085938	1358.485962	5.882358
260.878296	1297.046875	3319.984863	1440.404663	7.086613
261.254944	1201.474976	3445.138428	1483.639526	12.576063
261.631561	1199.199463	3299.505127	1499.568237	14.301193
262.008179	1167.342163	3056.024414	1363.036987	10.361447
262.384735	1240.158813	2762.482178	1413.098389	11.360239
262.761261	1237.883301	2503.072998	1385.792114	11.690643
263.137695	1199.199463	2373.368164	1356.210449	13.372098
263.514191	1269.740601	2416.603027	1369.863525	8.730160
263.890594	1260.638550	2318.755615	1376.690063	10.967738
264.267029	1249.260864	2373.368164	1351.659302	9.109312
264.643341	1203.750488	2264.143311	1415.373901	19.957077
265.019653	1226.505737	2191.326416	1347.108276	12.499995
265.395935	1224.230225	2234.561523	1349.383789	12.387379
265.772217	1231.056763	2193.602051	1267.465088	3.782505
266.148407	1228.781250	2264.143311	1249.260864	1.978015
266.524597	1281.118164	2405.225586	1340.281738	5.263160
266.900726	1226.505737	2441.633789	1262.914063	2.996254
267.276855	1237.883301	2459.837891	1363.036987	10.242090
267.652924	1228.781250	2580.440674	1356.210449	9.427611
268.028992	1183.270874	2539.481201	1406.271851	16.442949
268.404999	1185.546387	2603.195801	1338.006226	10.754411
268.781006	1224.230225	2589.542725	1376.690063	11.166662
269.156921	1155.964600	2589.542725	1256.087524	6.984128
269.532837	1249.260864	2534.930176	1283.393677	2.654867
269.908661	1306.148926	2587.267090	1392.618774	6.749561
270.284546	1269.740601	2571.338623	1356.210449	6.643361
270.660339	1269.740601	2655.532715	1358.485962	6.403945
271.036133	1244.709839	2587.267090	1394.894287	11.186446
271.411835	1292.495850	2705.594238	1299.322388	0.483090
271.787537	1183.270874	2858.054199	1378.965576	11.684777
272.163239	1237.883301	3112.912354	1495.017212	13.713596
272.538849	1201.474976	3283.576416	1385.792114	8.852457
272.914459	1215.128052	3324.535889	1460.884399	11.650491
273.290070	1258.363037	3096.983887	1372.139038	6.188117
273.665588	1169.617676	2990.034424	1351.659302	9.999997
274.041046	1294.771362	2994.585449	1381.241089	5.087011
274.416565	1203.750488	2912.666504	1367.588013	9.587219
274.791962	1219.679199	2807.992676	1358.485962	8.739255
275.167389	1274.291626	2796.614990	1349.383789	4.932734
275.542755	1199.199463	2833.023438	1406.271851	12.674094
275.918060	1206.026001	2769.308838	1342.557251	8.733624
276.293365	1151.413574	2792.063965	1338.006226	11.373091
276.668640	1215.128052	2851.227539	1406.271851	11.682896
277.043854	1256.087524	2864.880615	1399.445313	8.910891
277.419037	1292.495850	2990.034424	1353.934937	3.619304
277.794189	1171.893188	3026.442627	1363.036987	10.306751
278.169312	1228.781250	2967.279053	1378.965576	8.638741
278.544373	1258.363037	2885.360352	1406.271851	9.090907
278.919464	1260.638550	2903.564453	1369.863525	6.648199
279.294464	1226.505737	2924.044189	1410.822876	10.857906
279.669464	1153.689087	2871.707275	1426.751587	15.894040
280.044403	1212.852539	2735.176025	1381.241089	11.061286
280.419312	1206.026001	2919.493164	1417.649414	12.350596
280.794189	1208.301514	2955.901611	1383.516602	10.026040
281.169037	1226.505737	3053.749023	1397.169800	9.339974
281.543854	1235.607788	3087.881836	1335.730713	5.405406
281.918671	1251.536499	3124.290039	1467.710938	11.543134
282.293365	1283.393677	3381.423828	1374.414551	4.338397
282.668091	1258.363037	3310.882813	1460.884399	9.866962
283.042786	1249.260864	3506.577637	1394.894287	6.451616
283.417419	1251.536499	3540.710449	1458.608887	9.045726
283.792053	1219.679199	3379.148438	1406.271851	8.640672
284.166595	1249.260864	3333.637939	1431.302612	8.733629
284.541138	1210.577026	3147.045166	1488.190552	14.336075
284.915619	1262.914063	3301.780762	1538.252075	13.504463
285.290100	1283.393677	3363.219727	1497.292725	10.284468
285.664520	1219.679199	3438.312012	1517.772339	13.435893
286.038940	1185.546387	3351.842041	1542.803101	16.491596
286.413300	1228.781250	3604.425049	1545.078613	13.314175
286.787628	1265.189575	3699.996826	1531.425537	10.934581
287.161896	1237.883301	3836.528076	1601.966675	14.010509
287.536194	1180.995239	3870.660889	1599.691162	15.566840
287.910400	1274.291626	3847.905762	1583.762451	12.024755
288.284607	1206.026001	3638.557861	1549.629639	14.125351
288.658752	1253.812012	3340.464600	1567.833862	15.049072
289.032867	1240.158813	3247.168213	1517.772339	13.832198
289.406921	1187.821899	3363.219727	1495.017212	14.121339
289.781006	1190.097412	3447.414063	1565.558350	16.633064
290.154999	1331.179688	3436.036377	1556.456177	10.702700
290.529022	1240.158813	3615.802490	1606.517700	15.421458
290.902954	1251.536499	3738.680664	1645.201538	15.827995
291.276825	1253.812012	3886.589600	1652.028076	15.125321
291.650757	1201.474976	3866.109863	1745.324463	20.409908
292.024597	1233.332275	3841.079102	1704.365112	18.062828
292.398407	1219.679199	3704.547852	1795.385864	23.168495
292.772156	1242.434326	3670.415039	1763.528564	21.462042
293.145905	1249.260864	3531.608398	1738.497925	21.435694
293.519592	1249.260864	3527.057129	1672.507813	18.581421
293.893280	1281.118164	3563.465576	1745.324463	20.338985
294.266907	1246.985352	3574.843262	1704.365112	19.648096
294.640533	1178.719727	3781.915527	1754.426514	22.115385
295.014069	1169.617676	3988.988037	1777.181763	21.549637
295.387604	1258.363037	4102.764160	1831.794189	20.159996
295.761078	1228.781250	4148.274414	1736.222412	17.381140
296.134552	1226.505737	4029.947266	1865.927002	22.808441
296.507996	1217.403687	4000.365479	1768.079712	19.787409
296.881378	1317.526489	4196.060547	1809.039063	17.075100
297.254730	1244.709839	4341.693848	1895.508789	21.013960
297.628021	1206.026001	4639.787109	1922.815063	20.874750
298.001282	1258.363037	4623.858398	2002.458252	22.109529
298.374573	1253.812012	4705.776855	1956.947876	20.369148
298.747803	1169.617676	4519.184082	1915.988525	22.282612
299.121002	1244.709839	4348.520020	1915.988525	21.627569
299.494141	1162.791138	4120.968262	1915.988525	25.461536
299.867188	1135.484863	4009.467773	1831.794189	24.228025
300.240265	1183.270874	3886.589600	1847.722900	24.579121
300.613312	1287.944824	3936.650879	1781.732788	18.642611
300.986328	1196.923950	3932.099854	1827.243164	23.044926
301.359314	1242.434326	3852.456787	1820.416626	22.144726
301.732239	1206.026001	3786.466553	1797.661377	22.927691
302.105103	1262.914063	3674.966064	1840.896362	23.962265
302.477997	1260.638550	3756.884766	1699.814087	17.593439
302.850830	1185.546387	3963.957275	1829.518677	23.177719
303.223602	1235.607788	3699.996826	1761.253052	21.329638
303.596375	1219.679199	3638.557861	1761.253052	22.389460
303.969116	1219.679199	3613.527100	1743.048950	21.863117
304.341766	1194.648438	3540.710449	1743.048950	23.375362
304.714478	1233.332275	3572.567627	1745.324463	21.887159
305.087067	1242.434326	3581.669678	1727.120239	20.719845
305.459656	1231.056763	3561.189941	1788.559326	23.925779
305.832214	1269.740601	3634.006836	1683.885376	17.516842
306.204681	1297.046875	3438.312012	1774.906250	22.316685
306.577148	1260.638550	3533.883789	1806.763550	24.024027
306.949646	1265.189575	3574.843262	1699.814087	18.817734
307.322021	1281.118164	3608.976074	1727.120239	19.159334
307.694397	1237.883301	3547.536865	1720.293701	20.886700
308.066742	1308.424438	3481.546875	1652.028076	15.811517
308.439026	1253.812012	3586.220703	1804.488037	23.609756
308.811279	1276.567139	3950.304199	1765.804199	18.297874
309.183502	1258.363037	3904.793701	1802.212524	20.550303
309.555695	1242.434326	3954.855225	1840.896362	22.063761
309.927887	1244.709839	3866.109863	1865.927002	23.697916
310.299988	1169.617676	3966.232666	1868.202637	24.979662
310.672058	1162.791138	4020.845215	1847.722900	23.964968
311.044128	1228.781250	4218.815430	1877.304688	21.689499
311.416168	1251.536499	4189.233887	1772.630737	17.738188
311.788147	1171.893188	4011.743164	1840.896362	23.557693
312.160065	1215.128052	4109.590332	1809.039063	20.518871
312.531982	1212.852539	4182.407227	1806.763550	20.000002
312.903870	1208.301514	4050.427002	1843.171875	22.337872
313.275696	1272.016113	3895.691650	1786.283813	19.601040
313.647491	1146.862427	3927.548828	1845.447388	25.122751
314.019318	1240.158813	3841.079102	1781.732788	20.822397
314.391022	1281.118164	3800.119629	1743.048950	18.337852
314.762726	1253.812012	3884.313965	1806.763550	21.020761
315.134369	1242.434326	4048.151611	1795.385864	19.708027
315.505981	1246.985352	4266.601563	1838.620850	19.593069
315.877594	1199.199463	4191.509277	1870.478149	22.433462
316.249146	1187.821899	4189.233887	1845.447388	21.910536
316.620636	1169.617676	4023.120850	1845.447388	23.684212
316.992157	1301.597900	3831.977051	1820.416626	20.503595
317.363586	1287.944824	3699.996826	1770.355225	20.000000
317.735016	1178.719727	3697.721191	1781.732788	23.938576
318.106354	1187.821899	3809.221924	1738.497925	21.006945
318.477722	1208.301514	3763.711426	1740.773438	20.837046
318.849060	1206.026001	3722.751953	1722.569214	20.524412
319.220306	1190.097412	3718.200928	1731.671387	21.422144
319.591522	1199.199463	3861.558838	1802.212524	22.649574
319.962738	1192.372925	3836.528076	1809.039063	23.321857
320.333923	1262.914063	3836.528076	1727.120239	18.037132
320.705017	1294.771362	3731.854004	1740.773438	18.300655
321.076111	1215.128052	3768.262451	1672.507813	17.914442
321.447144	1269.740601	3661.312988	1758.977539	20.456707
321.818176	1258.363037	3695.445801	1761.253052	20.634918
322.189178	1249.260864	3688.619141	1718.018188	19.216419
322.560120	1276.567139	3809.221924	1670.232300	15.543577
322.931030	1233.332275	3684.068115	1754.426514	21.262766
323.301910	1240.158813	3968.508301	1811.314575	20.934113
323.672729	1237.883301	4068.631104	1806.763550	20.096466
324.043549	1142.311401	4216.540039	1799.937012	21.391565
324.414337	1217.403687	4394.030762	1872.753662	20.630373
324.785095	1208.301514	4475.949219	1847.722900	19.568247
325.155792	1217.403687	4669.368652	1943.294800	21.028347
325.526428	1260.638550	4594.276367	1947.845825	20.614336
325.897034	1226.505737	4546.490723	1849.998413	18.779985
326.267670	1199.199463	4369.000000	1915.988525	22.613066
326.638184	1206.026001	4482.775879	1881.855713	20.625000
327.008728	1258.363037	4469.123047	1861.375977	18.781004
327.379211	1281.118164	4460.020996	1809.039063	16.607016
327.749634	1215.128052	4387.204102	1843.171875	19.799141
328.120026	1199.199463	4143.723145	1804.488037	20.556417
328.490417	1265.189575	4264.326172	1809.039063	18.133533
328.860748	1212.852539	4100.488281	1822.692139	21.118994
329.231079	1276.567139	4150.549805	1795.385864	18.052258
329.601318	1306.148926	4209.713379	1743.048950	15.047024
329.971558	1203.750488	4350.795898	1779.457275	18.293564
330.341736	1210.577026	4332.591797	1802.212524	18.950439
330.711914	1215.128052	4207.437988	1793.110352	19.315588
331.082062	1212.852539	4250.672852	1770.355225	18.352062
331.452148	1201.474976	4271.152344	1779.457275	18.828764
331.822174	1212.852539	4293.907715	1758.977539	17.725258
332.192200	1183.270874	4321.213867	1777.181763	18.926760
332.562134	1158.240112	4432.714355	1761.253052	18.415565
332.932129	1178.719727	4398.581543	1799.937012	19.293291
333.302063	1274.291626	4623.858398	1824.967651	16.440216
333.671906	1249.260864	4726.256836	1856.824951	17.473822
334.041718	1281.118164	4632.960449	1838.620850	16.632725
334.411499	1169.617676	4926.502441	1852.273926	18.170807
334.781281	1292.495850	4660.266602	1881.855713	17.500000
335.151001	1262.914063	4719.430176	1843.171875	16.787361
335.520721	1203.750488	4560.143555	1870.478149	19.864408
335.890350	1226.505737	4683.021973	1872.753662	18.696512
336.259979	1272.016113	4749.011719	1909.161987	18.324610
336.629547	1233.332275	4719.430176	1886.406738	18.733681
336.999084	1224.230225	4578.347656	1797.661377	17.096334
337.368622	1294.771362	4710.328125	1934.192627	18.720850
337.738098	1244.709839	4698.950684	1795.385864	15.942028
338.107513	1217.403687	4701.226074	1790.834839	16.459827
338.476898	1196.923950	4630.685059	1831.794189	18.489061
338.846252	1226.505737	4712.603516	1897.784302	19.255875
339.215576	1199.199463	4867.338867	1877.304688	18.486353
339.584869	1306.148926	4667.093262	1824.967651	15.436695
339.954132	1169.617676	4696.674805	1968.325439	22.645161
340.323334	1276.567139	4539.664063	1827.243164	16.875872
340.692505	1244.709839	4535.112793	1870.478149	19.017984
341.061646	1233.332275	4537.388672	1822.692139	17.837463
341.430786	1237.883301	4523.735352	1859.100464	18.905817
341.799896	1201.474976	4660.266602	1829.518677	18.157894
342.168915	1199.199463	4717.154785	1868.202637	19.016819
342.537903	1201.474976	4974.288574	1936.468262	19.481304
342.906830	1290.220337	4944.706543	1959.223389	18.306351
343.275757	1210.577026	4956.084473	1988.805176	20.777643
343.644684	1196.923950	4887.818848	1863.651489	18.064116
344.013550	1246.985352	4976.563965	1904.610962	17.632706
344.382355	1237.883301	5204.116211	1947.845825	17.900173
344.751129	1226.505737	5336.096191	2009.284912	19.047621
345.119873	1219.679199	5625.087402	2038.866699	18.595041
345.488586	1187.821899	5827.608887	2157.193604	20.892590
345.857269	1217.403687	6066.538574	2009.284912	16.330360
346.225891	1217.403687	6011.925781	2118.509766	18.794493
346.594482	1258.363037	5973.242188	2138.989502	18.677605
346.963043	1208.301514	5959.588867	2093.479248	18.630272
347.331543	1258.363037	5477.178711	2034.315552	18.392664
347.700043	1294.771362	5540.893066	1995.631714	16.505894
348.068512	1308.424438	5320.167480	2052.519775	18.547930
348.436951	1310.699951	5261.003906	1993.356201	17.281107
348.805328	1253.812012	5174.534180	2027.489014	19.733023
349.173645	1215.128052	5067.584961	1966.049927	19.492025
349.541931	1281.118164	5185.912109	1993.356201	18.240093
349.910217	1272.016113	5224.595703	2004.733887	18.537710
350.278473	1240.158813	5386.157715	2013.835938	18.660812
350.646667	1242.434326	5484.005371	2034.315552	18.669525
351.014801	1160.515625	5627.362793	2050.244141	19.918489
351.382935	1258.363037	5631.914063	2032.040039	17.689905
351.751007	1240.158813	5522.688965	2113.958740	20.403824
352.119049	1199.199463	5677.424316	2063.897461	19.308947
352.487091	1171.893188	5593.229980	2020.662476	19.197119
352.855072	1192.372925	5625.087402	2068.448486	19.763863
353.222992	1267.465088	5622.812012	2086.652588	18.808779
353.590881	1299.322388	5795.751465	2032.040039	16.295546
353.958740	1226.505737	6030.129883	2088.927979	17.953575
354.326599	1199.199463	6168.937012	2138.989502	18.910255
354.694397	1242.434326	6319.121094	2132.163086	17.525778
355.062134	1192.372925	6501.163086	2232.285889	19.588512
355.429840	1180.995239	6391.937988	2204.979736	19.650658
355.797516	1201.474976	6494.336426	2202.704102	18.916595
356.165192	1237.883301	6635.418457	2166.295898	17.200678
356.532776	1210.577026	6897.103516	2305.102539	19.247700
356.900360	1130.933838	7156.512695	2334.684326	19.977341
357.267883	1224.230225	7131.482422	2236.836914	17.141756
357.635376	1267.465088	7511.494141	2427.980713	18.586006
358.002808	1242.434326	7932.465332	2396.123291	17.244896
358.370270	1283.393677	8187.323730	2528.103516	18.029003
358.737640	1272.016113	8210.079102	2500.797363	17.710726
359.105011	1253.812012	8091.751953	2594.093750	19.600666
359.472321	1233.332275	7657.127441	2407.500977	18.278427
359.839569	1153.689087	7543.351563	2336.959961	18.518518
360.206787	1231.056763	7584.311035	2405.225586	18.481377
360.574005	1231.056763	7950.669922	2446.184814	18.083303
360.941193	1217.403687	8141.813477	2505.348389	18.600065
361.308319	1258.363037	8699.316406	2557.685303	17.461771
361.675415	1212.852539	9290.951172	2689.665527	18.281691
362.042450	1224.230225	9570.840820	2742.002686	18.184298
362.409424	1283.393677	10344.517578	2921.768799	18.081367
362.776428	1231.056763	10590.273438	2905.840088	17.894482
363.143402	1306.148926	10230.741211	2924.044189	18.128508
363.510284	1231.056763	9579.942383	2812.543701	18.942492
363.877136	1249.260864	8412.600586	2596.369141	18.805590
364.243988	1267.465088	7871.026367	2421.154053	17.470709
364.610779	1242.434326	7663.954102	2430.256104	18.497519
364.977539	1240.158813	7645.750000	2339.235352	17.158081
365.344269	1210.577026	7443.228516	2257.316650	16.794451
365.710938	1226.505737	7204.298828	2380.194824	19.299583
366.077576	1276.567139	7147.410645	2387.021240	18.914728
366.444183	1297.046875	6719.612793	2223.183838	17.079311
366.810760	1219.679199	6890.276855	2248.214600	18.138042
367.177277	1180.995239	7065.492188	2425.705078	21.152357
367.543823	1206.026001	7072.318848	2291.449463	18.502714
367.910248	1235.607788	7099.625000	2282.347412	17.850214
368.276642	1244.709839	7019.981445	2305.102539	18.360916
368.643036	1215.128052	6774.225586	2316.480225	19.811708
369.009399	1267.465088	6890.276855	2230.010498	17.118578
369.375671	1251.536499	6610.387695	2275.520752	19.108280
369.741974	1251.536499	6573.979492	2159.469238	17.058571
370.108215	1183.270874	6665.000488	2289.173828	20.174343
370.474396	1338.006226	6669.551270	2211.806152	16.389244
370.840546	1299.322388	6603.561523	2166.295898	16.344917
371.206665	1228.781250	6892.552734	2252.765625	18.079550
371.572784	1272.016113	6878.899414	2307.378174	18.465910
371.938843	1231.056763	6958.542480	2368.817139	19.864918
372.304840	1242.434326	7151.961914	2280.071777	17.558722
372.670807	1215.128052	7274.839844	2311.929199	18.099890
373.036713	1246.985352	7199.748047	2280.071777	17.354738
373.402649	1244.709839	7022.257324	2193.602051	16.423790
373.768524	1244.709839	6906.205566	2309.653564	18.810289
374.134308	1256.087524	6960.818359	2318.755615	18.627838
374.500122	1244.709839	7056.390137	2291.449463	18.010963
374.865875	1253.812012	7186.094727	2300.551514	17.644802
375.231567	1244.709839	7206.574219	2280.071777	17.366413
375.597260	1160.515625	7247.533691	2357.439453	19.663549
375.962891	1224.230225	7440.953125	2341.510986	17.972183
376.328461	1224.230225	7504.667480	2357.439453	18.043476
376.694031	1253.812012	7816.414063	2314.204590	16.158112
377.059540	1203.750488	8107.680664	2489.419678	18.622280
377.425049	1206.026001	8487.692383	2539.481201	18.312500
377.790497	1196.923950	8774.408203	2550.858887	17.867868
378.155945	1265.189575	8922.317383	2555.409912	16.849926
378.521301	1226.505737	8849.500000	2637.328613	18.507463
378.886597	1235.607788	8797.163086	2619.124512	18.296722
379.251892	1231.056763	8307.926758	2571.338623	18.938908
379.617157	1297.046875	8055.343750	2491.695313	17.676767
379.982422	1158.240112	7823.240723	2382.470215	18.368042
380.347595	1240.158813	7732.219727	2402.949951	17.910971
380.712738	1190.097412	7723.117676	2364.266113	17.972830
381.077820	1196.923950	7709.464355	2382.470215	18.204052
381.442902	1185.546387	7618.443848	2425.705078	19.278385
381.807953	1215.128052	7743.597168	2389.296875	17.985361
382.172974	1244.709839	7679.882813	2268.694336	15.912308
382.537933	1155.964600	7830.066895	2446.184814	19.331741
382.902832	1228.781250	7736.770508	2380.194824	17.692308
383.267700	1212.852539	7732.219727	2398.398926	18.184992
383.632538	1215.128052	8082.649902	2377.919189	16.931742
383.997345	1183.270874	8014.384277	2343.786377	16.988672
384.362152	1258.363037	8180.497070	2480.317627	17.652861
384.726898	1260.638550	8385.293945	2437.082764	16.512297
385.091553	1194.648438	8551.407227	2414.327637	16.579029
385.456238	1196.923950	8433.080078	2466.664551	17.547169
385.820862	1224.230225	8419.426758	2541.756836	18.311197
386.185425	1240.158813	8342.059570	2498.521729	17.718678
386.549988	1210.577026	8435.355469	2487.144287	17.669292
386.914490	1196.923950	8569.611328	2482.593262	17.438272
387.278961	1235.607788	8553.682617	2464.388916	16.791044
387.643372	1203.750488	8890.459961	2630.501953	18.561277
388.007782	1190.097412	8881.357422	2498.521729	17.011833
388.372101	1171.893188	9040.644531	2509.899414	17.004047
388.736450	1240.158813	9140.766602	2439.358398	15.178574
389.100739	1274.291626	8869.980469	2498.521729	16.117434
389.464966	1226.505737	8856.327148	2478.042236	16.403221
389.829163	1196.923950	8733.449219	2412.052002	16.123186
390.193329	1258.363037	8583.264648	2493.970703	16.868591
390.557495	1258.363037	8667.458984	2484.868652	16.554052
390.921570	1303.873413	9015.613281	2407.500977	14.311007
391.285614	1353.934937	9065.674805	2509.899414	14.989672
391.649597	1171.893188	9434.309570	2596.369141	17.240429
392.013550	1180.995239	9752.881836	2623.675537	16.830370
392.377502	1215.128052	10246.669922	2632.777588	15.696650
392.741455	1192.372925	10289.905273	2646.430664	15.982991
393.105316	1224.230225	9975.882813	2607.746826	15.808633
393.469086	1199.199463	9823.422852	2505.348389	15.145119
393.832886	1178.719727	9862.107422	2496.246338	15.172956
394.196655	1233.332275	9702.820313	2482.593262	14.750135
394.560333	1260.638550	9912.168945	2594.093750	15.412940
394.924042	1140.035889	10035.046875	2664.634766	17.139933
395.287659	1180.995239	10016.842773	2539.481201	15.374710
395.651245	1151.413574	9882.586914	2562.236328	16.158455
396.014771	1240.158813	9652.758789	2498.521729	14.958075
396.378296	1246.985352	9418.380859	2448.460449	14.703426
396.741791	1128.658325	9306.879883	2339.235352	14.802448
397.105255	1185.546387	9254.542969	2259.592041	13.310771
397.468628	1272.016113	8910.939453	2348.337402	14.089961
397.832001	1265.189575	9152.144531	2314.204590	13.300633
398.195313	1256.087524	9026.991211	2323.306641	13.733526
398.558624	1199.199463	8986.031250	2491.695313	16.598482
398.921844	1294.771362	8990.583008	2289.173828	12.921347
399.285095	1237.883301	8929.143555	2321.031250	14.082841
399.648254	1199.199463	9202.206055	2341.510986	14.273529
400.011383	1242.434326	9306.879883	2302.827148	13.148987
400.374451	1262.914063	8765.305664	2227.734863	12.860176
400.737549	1240.158813	9143.042969	2336.959961	13.878491
401.100586	1292.495850	9108.910156	2366.541748	13.740903
401.463562	1231.056763	9140.766602	2398.398926	14.758344
401.826508	1210.577026	9420.656250	2366.541748	14.079824
402.189392	1153.689087	9042.919922	2230.010498	13.642920
402.552246	1176.444214	9131.665039	2334.684326	14.559497
402.915070	1294.771362	9213.583984	2277.796387	12.413794
403.277893	1260.638550	9452.513672	2346.062012	13.250000
403.640656	1242.434326	9579.942383	2350.613037	13.291487
404.003326	1201.474976	10000.914063	2327.857666	12.800619
404.366028	1231.056763	9887.137695	2325.582275	12.644585
404.728699	1171.893188	10574.344727	2350.613037	12.536304
405.091248	1278.842651	10603.926758	2441.633789	12.469498
405.453857	1281.118164	10738.182617	2425.705078	12.102983
405.816345	1246.985352	10483.324219	2421.154053	12.712490
406.178833	1249.260864	10405.957031	2412.052002	12.698807
406.541260	1199.199463	10626.682617	2389.296875	12.623702
406.903687	1258.363037	10362.721680	2284.622803	11.272182
407.266052	1224.230225	10148.823242	2325.582275	12.340642
407.628387	1260.638550	10012.291992	2264.143311	11.466459
407.990662	1290.220337	9789.290039	2268.694336	11.512719
408.352905	1265.189575	9832.525391	2300.551514	12.084992
408.715118	1206.026001	10057.801758	2314.204590	12.519280
409.077332	1240.158813	10089.659180	2280.071777	11.751093
409.439484	1174.168701	9953.127930	2268.694336	12.467602
409.801575	1206.026001	9973.607422	2307.378174	12.561643
410.163605	1212.852539	9996.363281	2255.041016	11.865284
410.525635	1201.474976	10428.711914	2309.653564	12.009863
410.887604	1210.577026	10565.243164	2218.632813	10.775968
411.249573	1180.995239	10551.589844	2302.827148	11.971832
411.611481	1235.607788	10565.243164	2193.602051	10.268292
411.973328	1244.709839	10519.732422	2239.112549	10.721297
412.335144	1194.648438	10246.669922	2227.734863	11.412770
412.696930	1206.026001	10155.649414	2214.081787	11.263667
413.058685	1244.709839	10237.568359	2054.795166	9.008096
413.420410	1183.270874	10141.996094	2125.336426	10.515620
413.782104	1210.577026	10351.343750	2123.060791	9.982574
414.143707	1208.301514	10217.088867	2111.683350	10.027785
414.505310	1224.230225	10294.456055	2070.723877	9.332664
414.866852	1203.750488	10442.365234	2045.693237	9.113300
415.228394	1237.883301	10594.825195	2079.825928	8.998054
415.589874	1208.301514	10838.305664	2082.101563	9.073725
415.951324	1217.403687	11122.746094	2141.265137	9.326900
416.312683	1224.230225	11279.756836	2072.999512	8.440825
416.674072	1208.301514	11368.501953	2091.203613	8.689810
417.035370	1178.719727	11784.921875	2109.407715	8.774941
417.396667	1215.128052	11905.524414	2166.295898	8.897405
417.757935	1290.220337	12092.117188	2141.265137	7.878661
418.119141	1294.771362	12731.539063	2184.500000	7.779546
418.480286	1183.270874	12881.723633	2113.958740	7.955649
418.841400	1228.781250	13366.409180	2143.540527	7.536557
419.202484	1244.709839	13887.503906	2209.530762	7.631390
419.563568	1249.260864	14388.118164	2261.867676	7.706963
419.924591	1203.750488	15157.244141	2273.245361	7.664710
420.285553	1262.914063	15409.827148	2241.387939	6.916519
420.646484	1244.709839	16210.810547	2459.837891	8.119203
421.007355	1256.087524	16884.365234	2375.643799	7.163658
421.368225	1219.679199	17639.837891	2471.215576	7.621951
421.729065	1297.046875	18115.421875	2571.338623	7.576783
422.089874	1267.465088	18518.187500	2673.737061	8.151959
422.450592	1262.914063	18575.076172	2598.644775	7.715563
422.811279	1210.577026	18636.515625	2657.808350	8.305040
423.171936	1210.577026	18238.298828	2514.450439	7.657356
423.532593	1246.985352	17846.910156	2546.307861	7.827279
423.893127	1201.474976	18108.593750	2493.970703	7.644683
424.253723	1162.791138	18716.158203	2564.511963	7.985481
424.614197	1233.332275	18522.740234	2569.062988	7.725717
424.974670	1233.332275	18982.394531	2689.665527	8.205128
425.335052	1333.455200	19421.570313	2676.012451	7.422317
425.695496	1183.270874	18304.289063	2578.165039	8.147262
426.055817	1183.270874	18718.433594	2650.981689	8.370101
426.416168	1226.505737	18079.013672	2630.501953	8.331081
426.776398	1192.372925	17391.804688	2496.246338	8.048883
427.136627	1190.097412	16711.423828	2573.614014	8.913650
427.496826	1233.332275	16417.882813	2491.695313	8.287127
427.856995	1174.168701	15971.880859	2416.603027	8.396125
428.217102	1262.914063	15259.642578	2448.460449	8.470168
428.577179	1306.148926	15261.917969	2400.674561	7.842818
428.937195	1221.954712	14916.039063	2366.541748	8.358259
429.297180	1262.914063	14328.954102	2359.715088	8.394288
429.657135	1315.250977	14472.312500	2330.133301	7.713594
430.017059	1210.577026	14540.578125	2368.817139	8.688972
430.376984	1226.505737	14297.097656	2289.173828	8.130221
430.736786	1224.230225	13944.391602	2343.786377	8.801431
431.096588	1249.260864	14074.095703	2300.551514	8.197304
431.456360	1208.301514	14046.790039	2300.551514	8.507622
431.816071	1253.812012	13596.236328	2286.898438	8.370207
432.175781	1171.893188	13821.513672	2218.632813	8.274870
432.535400	1249.260864	13653.125000	2234.561523	7.943498
432.895020	1219.679199	13844.268555	2255.041016	8.201152
433.254578	1276.567139	14096.851563	2223.183838	7.383742
433.614105	1185.546387	14256.137695	2291.449463	8.461002
433.973602	1185.546387	14367.638672	2286.898438	8.354911
434.333038	1231.056763	14620.220703	2366.541748	8.480626
434.692444	1308.424438	14567.883789	2334.684326	7.739832
435.051819	1215.128052	14797.711914	2257.316650	7.672977
435.411133	1208.301514	14984.304688	2314.204590	8.027750
435.770416	1153.689087	14404.046875	2234.561523	8.157308
436.129669	1224.230225	14797.711914	2284.622803	7.812237
436.488861	1210.577026	14413.148438	2266.418701	7.997243
436.848083	1158.240112	14467.761719	2191.326416	7.762009
437.207184	1212.852539	14633.874023	2298.276123	8.087488
437.566254	1194.648438	15009.334961	2241.387939	7.577005
437.925293	1210.577026	14615.669922	2200.428711	7.384147
438.284363	1228.781250	14820.466797	2136.714111	6.680061
438.643311	1206.026001	15284.672852	2184.500000	6.950058
439.002258	1292.495850	15327.908203	2191.326416	6.404020
439.361145	1253.812012	15434.857422	2268.694336	7.156612
439.719971	1306.148926	16260.872070	2230.010498	6.177724
440.078827	1224.230225	16556.689453	2257.316650	6.737905
440.437592	1212.852539	16693.220703	2289.173828	6.952815
440.796295	1269.740601	17098.263672	2305.102539	6.541115
441.155029	1258.363037	18181.412109	2239.112549	5.795348
441.513672	1249.260864	18613.759766	2348.337402	6.329446
441.872253	1194.648438	18415.789063	2268.694336	6.236787
442.230865	1256.087524	17997.093750	2261.867676	6.007884
442.589386	1269.740601	17762.714844	2273.245361	6.084438
442.947876	1153.689087	17644.388672	2227.734863	6.513040
443.306335	1281.118164	17362.224609	2207.255127	5.759162
443.664764	1251.536499	16515.730469	2293.724854	6.827667
444.023102	1237.883301	16918.498047	2141.265137	5.761137
444.381500	1212.852539	16902.568359	2252.765625	6.627992
444.739777	1210.577026	16718.251953	2239.112549	6.632429
445.098022	1210.577026	17025.447266	2230.010498	6.446044
445.456238	1244.709839	17293.958984	2255.041016	6.295193
445.814423	1244.709839	17737.685547	2216.357178	5.891279
446.172577	1244.709839	18317.943359	2286.898438	6.104225
446.530701	1221.954712	19007.425781	2314.204590	6.141248
446.888733	1262.914063	19253.181641	2298.276123	5.755123
447.246765	1324.353149	20233.931641	2316.480225	5.246691
447.604736	1242.434326	19296.416016	2316.480225	5.949080
447.962677	1228.781250	19835.714844	2400.674561	6.298154
448.320587	1185.546387	20293.093750	2402.949951	6.371323
448.678436	1194.648438	19790.205078	2462.113525	6.815957
449.036255	1194.648438	19555.826172	2382.470215	6.469203
449.394043	1233.332275	18208.716797	2323.306641	6.420911
449.751770	1155.964600	18313.390625	2425.705078	7.400530
450.109467	1265.189575	18003.919922	2421.154053	6.905927
450.467163	1246.985352	17712.654297	2468.940186	7.421228
450.824768	1215.128052	17571.572266	2487.144287	7.776851
451.182343	1283.393677	17346.294922	2439.358398	7.196488
451.539886	1162.791138	16715.976563	2457.562500	8.324799
451.897369	1142.311401	16938.976563	2519.001465	8.715068
452.254822	1242.434326	16777.414063	2459.837891	7.836532
452.612274	1187.821899	17359.947266	2448.460449	7.795132
452.969635	1221.954712	17036.824219	2591.818115	8.661870
453.326965	1192.372925	17020.896484	2723.798340	9.675099
453.684326	1192.372925	16861.609375	2666.910400	9.410398
454.041534	1235.607788	16235.840820	2703.318604	9.784587
454.398773	1221.954712	16190.330078	2721.522949	10.018244
454.755951	1233.332275	15771.634766	2728.349365	10.283298
455.113098	1192.372925	15191.376953	2660.083740	10.484395
455.470215	1194.648438	15318.805664	2748.829102	11.003705
455.827240	1221.954712	15455.336914	2773.859863	10.903277
456.184265	1196.923950	14975.202148	2760.206787	11.345996
456.541260	1235.607788	15309.704102	2930.870850	12.045271
456.898193	1208.301514	15241.438477	2896.738037	12.031783
457.255096	1267.465088	15355.214844	3117.463379	13.131965
457.611969	1244.709839	15123.111328	3046.922363	12.985736
457.968781	1210.577026	15546.358398	3124.290039	13.349206
458.325531	1162.791138	15468.990234	3317.709229	15.062826
458.682312	1153.689087	16103.860352	3472.444824	15.509895
459.039001	1178.719727	17029.998047	3722.751953	16.049381
459.395630	1224.230225	18122.248047	3902.518066	15.849716
459.752289	1272.016113	19023.353516	4255.224121	16.805538
460.108856	1185.546387	20518.371094	4434.990234	16.807911
460.465363	1258.363037	21348.935547	4778.593750	17.521805
460.821899	1228.781250	21310.251953	4655.715332	17.065155
461.178345	1281.118164	20634.421875	4792.246582	18.142267
461.534760	1201.474976	20145.185547	4783.144531	18.906904
461.891144	1265.189575	19469.355469	4678.470703	18.750000
462.247467	1265.189575	18468.126953	4764.940430	20.343914
462.603760	1274.291626	18317.943359	4737.634277	20.320427
462.960052	1267.465088	17387.253906	4714.878906	21.386221
463.316254	1187.821899	16854.783203	4628.409180	21.960783
463.672424	1194.648438	16572.617188	4571.521484	21.959162
464.028564	1262.914063	16060.625977	4537.388672	22.128250
464.384644	1256.087524	16140.269531	4728.532227	23.329767
464.740723	1265.189575	16153.921875	4687.572754	22.986399
465.096741	1269.740601	16083.380859	4903.747559	24.531490
465.452698	1212.852539	15944.574219	4810.451172	24.420761
465.808655	1231.056763	16090.208008	4951.533203	25.038284
466.164520	1196.923950	15971.880859	4960.635254	25.473587
466.520355	1215.128052	16570.341797	5131.299316	25.503855
466.876190	1212.852539	16900.292969	5245.075684	25.703512
467.231964	1210.577026	16659.087891	5527.240234	27.942261
467.587677	1242.434326	17318.988281	5554.546387	26.822367
467.943390	1208.301514	17587.500000	5766.169922	27.827175
468.299011	1187.821899	16756.935547	5613.709961	28.427362
468.654633	1190.097412	16677.291016	5620.536621	28.607117
469.010223	1169.617676	16775.138672	5577.301270	28.244385
469.365723	1244.709839	16388.300781	5820.782227	30.217880
469.721191	1206.026001	16700.046875	5793.476074	29.607874
470.076660	1260.638550	15874.033203	5511.311523	29.087511
470.432068	1208.301514	16217.636719	5898.149902	31.246212
470.787445	1167.342163	15839.900391	5702.455078	30.908808
471.142792	1233.332275	15867.207031	5720.659180	30.663971
471.498016	1269.740601	16320.035156	5772.996094	29.921377
471.853271	1228.781250	16069.727539	5850.363770	31.140753
472.208496	1228.781250	16072.003906	5973.242188	31.963820
472.563660	1192.372925	16379.198242	5948.211426	31.315554
472.918762	1210.577026	16613.578125	6030.129883	31.289700
473.273865	1246.985352	16847.955078	6325.947754	32.555428
473.628876	1242.434326	17532.888672	6464.754395	32.057549
473.983917	1212.852539	17476.000000	6603.561523	33.146774
474.338837	1226.505737	17359.947266	6571.704102	33.131172
474.693787	1206.026001	17378.152344	6594.459473	33.319267
475.048645	1251.536499	17082.333984	6660.449219	34.167023
475.403503	1215.128052	17630.734375	6728.714844	33.587471
475.758270	1217.403687	17526.060547	6665.000488	33.403099
476.113037	1244.709839	17252.998047	6728.714844	34.257286
476.467773	1219.679199	17967.511719	7010.879395	34.578804
476.822418	1269.740601	18734.363281	7306.697266	34.566772
477.177063	1208.301514	18440.820313	7331.728027	35.534134
477.531647	1256.087524	19077.966797	7534.249512	35.227276
477.886200	1283.393677	19439.773438	7659.402832	35.117184
478.240723	1274.291626	19863.021484	7873.301758	35.500057
478.595184	1228.781250	19842.541016	7905.159180	35.867970
478.949585	1237.883301	20584.361328	8130.436035	35.626911
479.303986	1176.444214	20584.361328	8139.538086	35.877594
479.658325	1162.791138	21278.394531	8282.895508	35.395927
480.012634	1178.719727	21009.882813	8387.569336	36.351116
480.366913	1217.403687	21628.826172	8731.172852	36.811592
480.721130	1226.505737	22163.572266	8813.091797	36.235191
481.075317	1206.026001	22454.839844	8990.583008	36.635254
481.429474	1187.821899	23765.539063	9616.350586	37.331181
481.783569	1235.607788	24502.808594	9932.648438	37.378975
482.137604	1203.750488	25542.720703	10173.853516	36.854900
482.491669	1272.016113	28334.785156	11184.184570	36.626583
482.845612	1176.444214	30655.816406	12572.251953	38.656887
483.199554	1187.821899	34166.945313	13798.757813	38.239147
483.553436	1215.128052	40363.187500	16210.810547	38.305046
483.907318	1292.495850	47221.609375	19143.957031	38.867420
484.261139	1246.985352	53802.414063	22204.531250	39.877033
484.614899	1253.812012	56687.773438	23617.630859	40.343174
484.968628	1315.250977	56644.539063	24227.470703	41.410652
485.322357	1228.781250	54510.101563	22832.576172	40.546658
485.675964	1249.260864	51294.789063	20934.791016	39.335243
486.029572	1246.985352	47205.679688	19250.906250	39.174137
486.383148	1256.087524	43653.589844	18115.421875	39.764919
486.736694	1235.607788	41107.285156	17255.273438	40.178059
487.090149	1244.709839	41309.804688	17159.703125	39.722839
487.443604	1267.465088	42458.941406	17480.550781	39.360294
487.796997	1119.556274	43940.308594	18124.523438	39.711975
488.150360	1215.128052	45651.500000	18925.505859	39.855587
488.503693	1240.158813	46825.667969	19485.285156	40.023964
488.856964	1262.914063	45480.835938	19225.875000	40.623711
489.210175	1253.812012	43394.183594	18304.289063	40.461143
489.563416	1285.669312	40982.128906	17148.324219	39.959873
489.916565	1192.372925	38649.722656	16279.076172	40.277016
490.269653	1206.026001	36230.843750	15373.418945	40.449585
490.622772	1256.087524	34678.937500	14815.916016	40.570530
490.975769	1178.719727	34526.476563	14793.161133	40.825657
491.328735	1272.016113	36183.054688	15271.020508	40.099075
491.681732	1262.914063	38012.574219	16426.984375	41.263157
492.034607	1249.260864	40235.757813	17227.968750	40.985237
492.387482	1253.812012	40970.753906	17708.103516	41.428898
492.740326	1199.199463	40765.957031	17592.050781	41.430870
493.093079	1260.638550	38988.773438	16804.720703	41.200237
493.445862	1228.781250	35231.886719	15412.102539	41.711842
493.798523	1215.128052	32874.449219	14158.290039	40.882629
494.151215	1217.403687	30460.121094	13323.173828	41.397556
494.503815	1240.158813	27938.843750	12362.904297	41.660271
494.856384	1233.332275	26607.664063	11657.493164	41.081520
495.208923	1217.403687	25504.037109	11188.735352	41.056873
495.561432	1199.199463	24748.564453	11027.173828	41.733501
495.913879	1217.403687	24127.347656	10833.754883	41.974575
496.266296	1274.291626	24402.685547	10790.519531	41.145214
496.618683	1265.189575	24507.359375	10872.438477	41.335423
496.970978	1221.954712	25073.962891	11097.714844	41.404312
497.323273	1219.679199	25228.699219	11163.705078	41.417873
497.675507	1249.260864	25574.578125	11439.042969	41.889618
498.027710	1256.087524	25626.916016	11209.215820	40.840336
498.379852	1272.016113	25340.199219	11382.155273	42.006237
498.731995	1265.189575	24750.839844	11286.583008	42.670284
499.084076	1256.087524	24982.943359	11090.888672	41.450081
499.436096	1231.056763	23988.541016	10824.652344	42.155785
499.788086	1226.505737	23685.896484	10474.222656	41.175278
500.140106	1237.883301	23103.363281	10346.792969	41.658863
500.491943	1231.056763	22491.248047	10337.691406	42.834209
500.843842	1260.638550	22500.349609	10194.333008	42.061279
501.195679	1235.607788	21735.775391	10155.649414	43.512043
501.547455	1206.026001	21428.580078	9928.097656	43.130413
501.899231	1283.393677	21314.802734	9595.871094	41.497219
502.250885	1190.097412	21396.722656	9812.045898	42.668919
502.602600	1228.781250	21139.587891	9630.003906	42.194286
502.954193	1194.648438	20973.474609	9723.300781	43.120113
503.305786	1228.781250	21130.486328	9607.249023	42.099247
503.657379	1212.852539	21123.660156	9616.350586	42.205711
504.008820	1276.567139	21389.896484	9709.647461	41.927814
504.360291	1221.954712	21594.693359	9691.443359	41.572655
504.711700	1233.332275	21694.814453	9825.699219	41.992886
505.063080	1208.301514	21781.285156	9743.780273	41.488773
505.414368	1269.740601	21435.406250	9898.515625	42.789440
505.765656	1194.648438	21301.150391	9827.974609	42.937981
506.116943	1169.617676	21351.210938	9905.341797	43.285603
506.468109	1210.577026	21337.558594	9684.616211	42.102879
506.819305	1242.434326	21187.375000	9796.117188	42.886478
507.170410	1242.434326	21155.517578	9611.799805	42.029476
507.521484	1237.883301	21219.232422	9655.035156	42.125046
507.872559	1278.842651	21373.966797	9784.739258	42.328159
508.223480	1251.536499	21260.191406	9830.250000	42.875015
508.574493	1244.709839	21697.091797	9937.199219	42.501106
508.925385	1196.923950	22113.511719	10132.894531	42.721931
509.276245	1228.781250	22090.755859	9930.373047	41.710297
509.627045	1183.270874	22559.513672	10253.497070	42.431343
509.977814	1215.128052	22600.472656	10551.589844	43.658226
510.328613	1190.097412	22757.484375	10273.976563	42.118587
510.679260	1199.199463	23014.617188	10638.059570	43.266926
511.029999	1251.536499	23526.609375	10679.019531	42.323021
511.380585	1265.189575	23458.343750	10913.397461	43.473801
511.731140	1192.372925	23424.210938	11095.439453	44.544525
512.081726	1233.332275	23965.785156	10685.845703	41.581581
512.432129	1315.250977	24143.275391	11031.724609	42.563797
512.782654	1226.505737	24102.316406	10999.867188	42.723564
513.133057	1224.230225	24307.113281	11125.021484	42.892349
513.483398	1221.954712	23981.712891	11013.520508	43.021397
513.833801	1183.270874	24307.113281	11147.776367	43.091915
514.183960	1167.342163	23760.988281	10902.020508	43.085911
514.534302	1190.097412	23724.580078	10817.826172	42.724426
514.884460	1281.118164	23811.048828	10751.835938	42.036163
515.234619	1228.781250	23453.792969	10638.059570	42.336437
515.584717	1210.577026	23474.273438	10817.826172	43.152084
515.934753	1158.240112	23328.638672	10767.764648	43.343941
516.284851	1290.220337	23355.945313	10635.784180	42.353306
516.634766	1237.883301	23799.671875	11152.327148	43.943516
516.984741	1174.168701	24238.847656	11186.459961	43.409626
517.334595	1242.434326	24837.308594	11459.522461	43.302151
517.684448	1260.638550	25847.640625	11782.646484	42.795002
518.034363	1244.709839	26798.808594	11987.443359	42.039177
518.384094	1208.301514	28100.406250	12428.894531	41.724487
518.733826	1219.679199	28753.480469	13050.111328	42.966938
519.083496	1228.781250	29606.800781	13427.848633	42.987732
519.433167	1183.270874	29709.199219	13309.521484	42.509575
519.782776	1221.954712	29913.996094	13334.551758	42.215878
520.132324	1269.740601	29586.322266	13332.276367	42.598843
520.481873	1206.026001	28940.074219	12952.264648	42.353130
520.831299	1294.771362	27906.986328	13013.703125	44.035912
521.180786	1244.709839	27112.830078	12387.935547	43.077057
521.530151	1251.536499	26903.482422	12228.648438	42.792515
521.879517	1285.669312	26334.601563	11957.861328	42.605381
522.228882	1244.709839	26427.898438	11955.585938	42.531849
522.578064	1294.771362	26198.070313	11703.003906	41.794594
522.927307	1272.016113	25938.662109	11718.931641	42.352398
523.276489	1228.781250	26025.130859	11643.839844	42.002388
523.625610	1303.873413	26389.214844	12285.537109	43.777214
523.974792	1328.904175	26837.492188	12103.495117	42.239071
524.323792	1262.914063	27101.453125	12280.985352	42.642006
524.672852	1221.954712	27763.628906	12763.396484	43.484226
525.021790	1194.648438	28833.125000	12915.856445	42.409023
525.370728	1299.322388	29977.710938	13750.972656	43.418236
525.719604	1260.638550	31652.494141	14249.311523	42.737347
526.068420	1342.557251	33436.503906	14661.180664	41.498863
526.417297	1208.301514	35222.785156	15594.144531	42.293285
526.765991	1297.046875	35812.144531	16137.993164	42.998421
527.114746	1210.577026	36704.152344	16117.513672	41.998974
527.463379	1155.964600	37471.000000	17070.957031	43.824802
527.812012	1194.648438	39951.320313	17842.359375	42.954437
528.160706	1210.577026	43264.476563	19485.285156	43.455444
528.509155	1285.669312	48015.765625	21765.357422	43.825474
528.857727	1265.189575	52737.468750	24102.316406	44.367821
529.206177	1199.199463	55773.015625	26163.937500	45.744900
529.554565	1260.638550	56462.496094	26423.347656	45.583084
529.902893	1196.923950	55342.941406	25683.802734	45.223785
530.251221	1251.536499	53037.839844	24129.623047	44.177868
530.599548	1231.056763	49765.640625	21979.255859	42.749310
530.947876	1224.230225	45637.843750	20377.289063	43.124298
531.296021	1265.189575	41912.816406	18950.537109	43.508934
531.644165	1219.679199	39041.109375	17541.990234	43.156250
531.992249	1249.260864	37530.164063	16697.771484	42.580284
532.340454	1228.781250	36483.425781	16122.064453	42.244884
532.688354	1190.097412	36956.734375	16126.616211	41.761036
533.036438	1256.087524	37571.125000	16624.955078	42.320942
533.384338	1258.363037	39669.152344	17498.755859	42.280811
533.732239	1246.985352	41514.601563	18404.412109	42.608494
534.080139	1144.586914	42859.433594	18834.486328	42.406719
534.427917	1137.760376	41603.347656	18691.126953	43.378506
534.775757	1226.505737	40201.625000	17769.541016	42.445114
535.123474	1194.648438	38244.679688	16941.251953	42.500919
535.471191	1256.087524	36428.812500	16131.166992	42.291515
535.818848	1201.474976	34788.160156	15330.183594	42.066402
536.166382	1283.393677	33909.812500	14811.365234	41.463245
536.513977	1262.914063	33718.667969	15186.826172	42.901215
536.861511	1185.546387	34191.976563	15234.611328	42.564629
537.208984	1253.812012	34292.097656	15107.182617	41.931267
537.556396	1297.046875	33857.472656	14872.803711	41.694038
537.903809	1224.230225	33086.074219	14786.333984	42.565346
538.251160	1269.740601	32189.517578	14447.281250	42.618484
538.598389	1235.607788	31019.900391	13826.064453	42.272137
538.945740	1256.087524	30071.007813	13493.837891	42.470184
539.292969	1160.515625	29766.087891	13166.163086	41.969612
539.640137	1246.985352	29474.820313	13170.714844	42.241032
539.987244	1240.158813	29672.791016	13045.560547	41.520607
540.334351	1212.852539	30328.140625	13291.317383	41.484955
540.681458	1226.505737	31845.914063	14042.239258	41.854935
541.028442	1203.750488	34333.058594	15296.050781	42.537262
541.375366	1228.781250	37848.738281	16850.232422	42.658298
541.722290	1169.617676	41000.332031	18197.339844	42.750233
542.069153	1217.403687	43325.917969	19077.966797	42.415558
542.416016	1178.719727	43712.753906	19128.027344	42.199871
542.762756	1265.189575	42518.105469	18604.658203	42.032108
543.109558	1312.975464	40963.925781	18074.460938	42.272598
543.456299	1269.740601	39225.425781	17471.449219	42.685856
543.802917	1160.515625	37935.207031	16727.353516	42.330303
544.149536	1187.821899	36151.199219	15992.360352	42.342983
544.496094	1192.372925	33750.523438	14674.833984	41.410400
544.842651	1269.740601	32203.169922	14260.688477	41.996468
545.189148	1324.353149	30630.785156	13516.593750	41.602608
545.535583	1242.434326	29820.699219	13118.376953	41.555855
545.882019	1210.577026	28949.175781	13006.876953	42.526661
546.228333	1215.128052	28211.906250	12604.109375	42.186447
546.574707	1199.199463	27859.201172	12362.904297	41.874359
546.920898	1201.474976	28211.906250	12845.314453	43.108677
547.267212	1180.995239	28573.714844	12708.783203	42.083401
547.613342	1231.056763	27904.710938	12431.169922	41.989422
547.959473	1176.444214	27656.679688	12428.894531	42.493767
548.305664	1153.689087	27171.994141	11932.831055	41.429070
548.651611	1242.434326	25813.507813	11627.911133	42.267082
548.997742	1206.026001	25262.832031	11031.724609	40.843735
549.343689	1178.719727	23729.130859	10810.999023	42.714432
549.689575	1199.199463	23246.720703	10198.883789	40.819485
550.035522	1183.270874	22370.644531	9989.536133	41.563744
550.381287	1208.301514	21599.244141	9634.554688	41.323505
550.727173	1226.505737	21398.998047	9466.166992	40.846024
551.072876	1290.220337	20659.453125	9038.368164	40.002350
551.418640	1231.056763	20716.341797	9140.766602	40.593246
551.764282	1217.403687	20227.103516	9143.042969	41.692608
552.109863	1283.393677	20636.697266	9026.991211	40.011765
552.455505	1297.046875	20677.658203	9042.919922	39.967125
552.801025	1246.985352	21344.384766	9220.410156	39.673916
553.146545	1267.465088	21355.763672	9229.512695	39.635250
553.491943	1196.923950	21428.580078	9199.930664	39.556854
553.837341	1267.465088	21571.937500	9279.574219	39.459824
554.182800	1251.536499	21273.843750	9131.665039	39.356747
554.528015	1228.781250	20893.832031	9143.042969	40.245316
554.873352	1251.536499	20643.525391	8810.816406	38.981457
555.218628	1244.709839	20445.554688	8829.020508	39.499878
555.563721	1253.812012	20092.849609	8683.387695	39.437130
555.908875	1208.301514	19371.507813	8458.110352	39.914806
556.254028	1237.883301	19351.029297	8426.253906	39.685928
556.599121	1244.709839	19316.896484	8364.814453	39.398132
556.944031	1226.505737	18870.894531	8219.180664	39.631153
557.289063	1206.026001	18898.201172	8109.956055	39.022507
557.633972	1276.567139	18704.781250	8096.303223	39.130436
557.978882	1215.128052	18579.626953	8128.160156	39.811298
558.323792	1176.444214	18552.320313	8014.384277	39.353065
558.668518	1274.291626	18381.656250	7886.955078	38.653900
559.013306	1272.016113	18038.052734	7932.465332	39.725842
559.358032	1180.995239	18097.216797	8005.282227	40.341679
559.702637	1276.567139	18131.349609	8025.761719	40.043198
560.047363	1260.638550	18115.421875	7775.454590	38.652622
560.391846	1237.883301	18299.738281	7909.710449	39.103760
560.736450	1201.474976	18058.533203	7768.627930	38.957882
561.080933	1187.821899	18140.451172	7768.627930	38.818794
561.425354	1219.679199	18156.380859	7875.577637	39.298672
561.769775	1235.607788	18195.064453	7957.496094	39.635044
562.114136	1265.189575	18600.107422	7836.893555	37.910213
562.458496	1187.821899	18479.503906	7757.250488	37.991844
562.802673	1242.434326	18534.117188	7782.281250	37.820763
563.146912	1201.474976	18347.523438	7770.903320	38.314529
563.491150	1183.270874	17899.246094	7939.291992	40.416553
563.835266	1217.403687	17983.441406	7707.188965	38.707924
564.179443	1326.628662	18170.033203	7657.127441	37.584438
564.523438	1212.852539	18201.890625	7554.729004	37.329224
564.867493	1235.607788	18222.371094	7493.290039	36.838577
565.211426	1231.056763	18454.474609	7684.433594	37.468620
565.555359	1240.158813	18993.771484	7911.985840	37.580109
565.899231	1285.669312	19102.998047	7971.149414	37.522350
566.243042	1269.740601	19667.326172	8205.528320	37.699444
566.586914	1233.332275	20106.501953	8205.528320	36.942371
566.930603	1160.515625	20638.974609	8460.386719	37.476635
567.274292	1260.638550	20529.748047	8517.274414	37.659424
567.617981	1233.332275	20252.134766	8392.121094	37.640587
567.961609	1299.322388	20397.767578	8339.784180	36.864059
568.305237	1183.270874	19594.509766	8173.670898	37.968113
568.648682	1240.158813	19933.562500	7921.087891	35.739498
568.992188	1265.189575	19082.517578	7773.179199	36.526184
569.335632	1226.505737	19073.416016	7909.710449	37.447403
569.679016	1235.607788	18725.259766	7950.669922	38.394485
570.022461	1262.914063	19105.273438	7768.627930	36.462185
570.365662	1228.781250	19027.904297	7679.882813	36.243931
570.708984	1194.648438	19184.916016	7673.056152	36.010624
571.052185	1237.883301	19114.375000	7718.566406	36.252544
571.395386	1178.719727	19332.824219	7789.107910	36.412636
571.738525	1278.842651	19913.082031	7982.526855	35.975086
572.081604	1219.679199	20215.726563	8210.079102	36.799236
572.424683	1303.873413	20145.185547	8178.221680	36.485504
572.767578	1246.985352	20814.189453	8298.824219	36.039074
573.110596	1267.465088	20488.789063	8312.477539	36.652069
573.453552	1194.648438	20302.197266	8291.998047	37.144218
573.796387	1278.842651	20283.992188	8257.865234	36.721745
574.139282	1278.842651	20222.552734	8298.824219	37.057056
574.481995	1196.923950	19767.449219	8046.241699	36.882736
574.824768	1176.444214	19728.765625	7861.924316	36.035812
575.167480	1228.781250	19815.234375	7711.740234	34.880024
575.510132	1251.536499	19555.826172	7875.577637	36.188465
575.852722	1235.607788	19869.847656	7791.383301	35.181339
576.195251	1208.301514	19560.376953	7764.077148	35.722256
576.537842	1235.607788	19417.019531	7645.750000	35.256569
576.880188	1201.474976	19164.435547	7527.422852	35.216621
577.222717	1158.240112	18618.310547	7397.718262	35.735699
577.565063	1190.097412	18272.431641	7354.483398	36.086319
577.907410	1219.679199	17908.349609	7122.379883	35.369511
578.249756	1233.332275	17419.111328	6992.675293	35.582733
578.591919	1260.638550	17080.058594	6826.562500	35.184120
578.934204	1219.679199	16841.128906	6671.827148	34.901680
579.276306	1201.474976	16558.964844	6517.091797	34.612534
579.618469	1242.434326	16244.943359	6398.764648	34.369785
579.960571	1297.046875	15826.247070	6378.284668	34.972591
580.302551	1269.740601	15801.216797	6537.571289	36.251171
580.644531	1221.954712	15691.991211	6232.651367	34.628086
580.986511	1281.118164	15348.387695	6114.324219	34.357811
581.328369	1217.403687	15389.347656	5993.721680	33.702629
581.670227	1217.403687	15102.631836	5923.180664	33.890526
582.012024	1231.056763	15157.244141	5916.354004	33.643791
582.353821	1231.056763	15107.182617	5843.537598	33.240410
582.695496	1208.301514	14972.926758	5829.884277	33.575802
583.037231	1174.168701	14629.323242	6023.303711	36.039234
583.378845	1287.944824	14911.488281	5864.017090	33.589443
583.720398	1319.802124	14815.916016	5838.986328	33.485077
584.062012	1258.363037	14793.161133	5850.363770	33.927372
584.403442	1185.546387	14977.477539	5688.802246	32.651379
584.744934	1240.158813	14617.945313	5613.709961	32.692638
585.086365	1215.128052	14627.047852	5695.628418	33.406853
585.427734	1244.709839	14476.863281	5693.353027	33.619949
585.768982	1265.189575	14397.219727	5497.658203	32.230118
586.110291	1180.995239	14349.434570	5429.392578	32.261967
586.451599	1237.883301	14235.658203	5538.617676	33.088234
586.792725	1269.740601	14513.271484	5520.413574	32.096218
587.133850	1199.199463	14215.178711	5531.791016	33.286713
587.474915	1278.842651	14331.230469	5470.352051	32.112968
587.815979	1187.821899	14333.505859	5474.902832	32.612083
588.157043	1180.995239	14536.027344	5461.250000	32.049755
588.497925	1194.648438	14704.415039	5609.158691	32.676437
588.838867	1240.158813	14526.924805	5477.178711	31.889025
589.179749	1269.740601	14745.375000	5600.056641	32.134411
589.520569	1169.617676	14966.100586	5704.730469	32.871513
589.861450	1208.301514	15218.683594	5547.719727	30.972874
590.202087	1194.648438	15129.937500	5452.147949	30.551928
590.542847	1192.372925	15143.590820	5586.403809	31.495680
590.883484	1228.781250	15111.733398	5638.740723	31.765285
591.224121	1260.638550	15088.978516	5477.178711	30.492020
591.564636	1258.363037	14982.029297	5447.596680	30.525614
591.905151	1242.434326	14945.621094	5433.943848	30.587847
592.245667	1260.638550	14615.669922	5408.913086	31.061510
592.585999	1206.026001	14647.527344	5258.728516	30.150671
592.926453	1267.465088	14476.863281	5363.402344	31.007750
593.266724	1274.291626	14485.965820	5383.882324	31.105755
593.607056	1215.128052	14768.129883	5304.238770	30.171255
593.947388	1221.954712	14495.067383	5274.657227	30.533175
594.287476	1283.393677	14727.170898	5258.728516	29.570074
594.627686	1208.301514	14795.436523	5338.371582	30.396919
594.967773	1221.954712	15052.570313	5265.555176	29.236591
595.307861	1276.567139	15405.275391	5317.892090	28.603642
595.647888	1212.852539	15077.600586	5338.371582	29.755457
595.987854	1278.842651	15760.256836	5361.126953	28.189817
596.327820	1258.363037	15521.327148	5447.596680	29.371408
596.667725	1276.567139	16058.350586	5595.505859	29.217979
597.007568	1206.026001	16597.648438	5613.709961	28.636904
597.347351	1240.158813	17246.171875	5809.404785	28.547060
597.687073	1165.066650	17633.009766	5973.242188	29.197184
598.026794	1169.617676	17428.212891	5843.537598	28.747377
598.366455	1258.363037	17225.693359	5618.260742	27.305113
598.706116	1246.985352	16659.087891	5504.484863	27.624392
599.045654	1217.403687	16433.810547	5470.352051	27.949753
599.385193	1135.484863	15521.327148	5217.769043	28.377096
599.724731	1235.607788	15032.090820	4999.319336	27.280224
600.064087	1203.750488	14451.833008	5035.727539	28.924768
600.403564	1258.363037	14035.412109	4887.818848	28.406057
600.742920	1246.985352	14249.311523	4753.562988	26.968849
601.082153	1242.434326	14092.300781	4821.828613	27.855499
601.421387	1228.781250	13903.431641	4680.746094	27.235188
601.760620	1210.577026	14033.136719	4689.848145	27.133982
602.099854	1237.883301	14115.055664	4683.021973	26.753845
602.438843	1219.679199	14101.402344	4653.439941	26.656069
602.778015	1190.097412	14105.953125	4728.532227	27.396055
603.117065	1183.270874	14510.996094	4703.501465	26.412838
603.456055	1196.923950	15002.508789	4778.593750	25.943630
603.794983	1253.812012	15191.376953	4876.440918	25.991837
604.133850	1180.995239	16033.319336	5069.860352	26.183546
604.472778	1180.995239	16367.821289	5176.810059	26.311060
604.811584	1201.474976	16850.232422	5199.564941	25.548927
605.150330	1176.444214	17264.376953	5204.116211	25.035360
605.489075	1251.536499	17717.205078	5397.535156	25.179655
605.827698	1183.270874	17455.519531	5363.402344	25.688713
606.166382	1237.883301	17282.580078	5329.269531	25.499928
606.504883	1249.260864	16568.066406	5144.952637	25.430780
606.843445	1194.648438	16251.769531	5195.014160	26.567932
607.181946	1244.709839	15805.767578	4917.400391	25.222691
607.520386	1206.026001	15211.856445	4844.583984	25.978882
607.858826	1196.923950	14754.476563	4812.726563	26.670025
608.197083	1240.158813	14683.935547	4537.388672	24.526070
608.535461	1265.189575	14390.393555	4419.061523	24.029127
608.873718	1258.363037	14490.516602	4519.184082	24.643162
609.211914	1215.128052	14654.353516	4516.908691	24.568237
609.550171	1212.852539	14966.100586	4635.235840	24.884182
609.888245	1315.250977	15398.449219	4835.481934	24.995962
610.226318	1244.709839	15892.237305	4824.104004	24.436848
610.564392	1206.026001	15616.899414	4762.665039	24.680248
610.902344	1269.740601	15712.470703	4778.593750	24.294943
611.240295	1274.291626	15393.898438	4676.195313	24.093475
611.578247	1285.669312	15184.550781	4657.991211	24.263260
611.916138	1315.250977	14997.958008	4687.572754	24.646597
612.253845	1235.607788	14447.281250	4498.704590	24.698586
612.591675	1233.332275	14224.280273	4494.153809	25.100719
612.929382	1258.363037	13848.819336	4259.774902	23.838785
613.267090	1237.883301	13393.715820	4284.805664	25.065519
613.604736	1256.087524	13425.572266	4259.774902	24.682127
613.942261	1256.087524	12940.886719	4089.110840	24.245377
614.279785	1219.679199	12954.540039	3975.334961	23.482645
614.617310	1187.821899	12660.998047	3998.090088	24.494247
614.954712	1224.230225	12492.609375	4073.182129	25.282713
615.292175	1237.883301	12472.129883	3961.681641	24.245493
615.629517	1258.363037	12672.375000	3993.539063	23.963320
615.966797	1287.944824	12451.649414	3986.712402	24.174479
616.304138	1278.842651	12551.772461	3913.895752	23.375051
616.641296	1153.689087	12285.537109	3872.936523	24.427639
616.978516	1178.719727	12292.363281	3941.202148	24.856676
617.315552	1267.465088	12192.240234	3945.753174	24.515726
617.652771	1219.679199	12267.333008	3836.528076	23.686918
617.989685	1219.679199	12510.813477	3827.426025	23.095524
618.326721	1203.750488	12494.884766	3909.344727	23.962111
618.663696	1310.699951	12638.242188	3893.416016	22.800322
619.000549	1233.332275	12331.046875	3888.864990	23.928644
619.337463	1203.750488	12647.344727	3857.007813	23.185526
619.674194	1267.465088	12258.230469	3775.089111	22.815735
620.010986	1185.546387	12155.832031	3904.793701	24.787390
620.347778	1203.750488	12333.322266	3747.782715	22.858311
620.684387	1224.230225	12133.077148	3829.701416	23.884020
621.020996	1260.638550	11912.351563	3788.742188	23.734243
621.357605	1258.363037	12167.209961	3809.221924	23.383396
621.694214	1240.158813	11921.453125	3768.262451	23.668514
622.030579	1208.301514	11882.769531	3761.435791	23.918140
622.367065	1146.862427	11898.698242	3695.445801	23.703705
622.703430	1215.128052	11898.698242	3743.231689	23.663471
623.039795	1208.301514	11839.535156	3677.241699	23.223459
623.376160	1224.230225	11682.523438	3674.966064	23.433422
623.712402	1199.199463	11536.890625	3593.047363	23.156504
624.048645	1196.923950	11666.594727	3677.241699	23.690504
624.384766	1253.812012	11693.901367	3652.210938	22.972973
624.720886	1260.638550	11885.044922	3738.680664	23.324051
625.057007	1319.802124	11987.443359	3768.262451	22.952219
625.392944	1299.322388	11871.391602	3699.996826	22.707705
625.729004	1231.056763	11807.677734	3779.640137	24.096386
626.064941	1278.842651	12030.678711	3811.497314	23.555557
626.400818	1221.954712	12187.689453	3779.640137	23.324343
626.736633	1272.016113	12351.527344	3866.109863	23.413431
627.072449	1162.791138	12845.314453	3941.202148	23.782629
627.408264	1210.577026	12954.540039	3875.211914	22.689400
627.743896	1199.199463	12758.844727	3900.242676	23.366142
628.079590	1199.199463	12956.815430	4020.845215	23.998451
628.415161	1269.740601	13015.978516	3820.599365	21.716391
628.750793	1256.087524	12460.751953	3932.099854	23.883020
629.086365	1251.536499	12437.997070	3925.273438	23.901543
629.421753	1253.812012	12326.496094	3718.200928	22.256474
629.757263	1278.842651	12164.934570	3763.711426	22.826086
630.092651	1215.128052	11784.921875	3772.813477	24.198065
630.427917	1249.260864	11602.880859	3727.302979	23.934063
630.763184	1272.016113	11361.675781	3647.659912	23.545330
631.098511	1224.230225	11643.839844	3604.425049	22.843416
631.433716	1308.424438	11336.644531	3517.955078	22.033131
631.768799	1224.230225	11122.746094	3536.159424	23.356321
632.103943	1201.474976	11077.235352	3570.292236	23.986176
632.438965	1240.158813	11131.847656	3622.629150	24.085577
632.773987	1249.260864	10638.059570	3599.874023	25.036358
633.109070	1231.056763	10774.590820	3515.679688	23.938963
633.443848	1192.372925	10997.591797	3497.475586	23.508936
633.778870	1258.363037	10876.989258	3476.995850	23.066006
634.113708	1226.505737	10867.887695	3506.577637	23.648808
634.448425	1272.016113	10876.989258	3527.057129	23.477850
634.783264	1251.536499	10997.591797	3433.760986	22.390848
635.117859	1267.465088	10888.367188	3483.822266	23.036896
635.452576	1215.128052	10929.326172	3424.658691	22.745375
635.787170	1160.515625	10583.447266	3461.067139	24.414392
636.121704	1203.750488	10567.518555	3340.464600	22.818956
636.456177	1272.016113	10494.702148	3492.924316	24.080927
636.790588	1228.781250	10544.763672	3322.260254	22.471909
637.125122	1210.577026	10041.873047	3354.117676	24.272095
637.459412	1183.270874	9973.607422	3240.341553	23.401501
637.793762	1251.536499	10244.394531	3258.545898	22.317814
638.128052	1226.505737	9916.719727	3269.923340	23.514008
638.462280	1201.474976	9684.616211	3240.341553	24.034334
638.796509	1135.484863	9766.535156	3162.973877	23.490639
639.130615	1212.852539	9677.790039	3128.841064	22.634409
639.464722	1253.812012	9809.770508	3213.035400	22.898933
639.798767	1242.434326	9498.023438	3244.892578	24.255789
640.132751	1219.679199	9666.412109	3149.320801	22.844830
640.466736	1258.363037	9589.044922	3131.116699	22.480198
640.800598	1256.087524	9393.349609	3060.575439	22.175615
641.134521	1344.832764	9256.818359	3126.565674	22.519417
641.468262	1258.363037	9345.563477	3128.841064	23.128870
641.802063	1262.914063	9313.707031	3185.729004	23.883547
642.135803	1256.087524	9102.083008	3169.800537	24.390951
642.469421	1221.954712	8942.796875	3030.993652	23.430590
642.803101	1251.536499	9020.164063	3040.095703	23.022846
643.136658	1190.097412	9054.296875	3065.126465	23.842594
643.470215	1294.771362	9113.460938	3126.565674	23.428406
643.803711	1237.883301	8920.041992	3046.922363	23.548576
644.137085	1212.852539	8929.143555	3046.922363	23.768801
644.470581	1256.087524	8899.561523	2933.146240	21.941053
644.803833	1246.985352	9011.062500	2987.758789	22.420868
645.137207	1183.270874	8974.654297	3030.993652	23.714952
645.470459	1228.781250	8940.521484	2974.105713	22.632044
645.803589	1212.852539	8954.174805	2969.554688	22.692533
646.136780	1231.056763	8931.418945	2951.350586	22.340427
646.469849	1278.842651	8872.255859	2946.799316	21.965836
646.802979	1221.954712	8974.654297	3094.708252	24.156147
647.135986	1192.372925	9049.746094	2935.421875	22.183609
647.468994	1249.260864	9038.368164	2996.860840	22.436460
647.801941	1221.954712	8942.796875	3040.095703	23.548479
648.134766	1221.954712	9124.838867	3042.371338	23.034838
648.467651	1142.311401	9045.195313	3008.238525	23.610712
648.800354	1237.883301	8749.377930	2983.207764	23.235382
649.133179	1169.617676	8972.378906	2944.523926	22.747156
649.465881	1278.842651	8908.664063	2992.309814	22.457500
649.798462	1249.260864	8931.418945	2978.656738	22.511848
650.131104	1228.781250	8778.958984	2942.248291	22.694393
650.463623	1224.230225	8856.327148	3003.687500	23.315445
650.796143	1301.597900	8815.367188	2928.595215	21.653543
651.128662	1244.709839	8872.255859	3087.881836	24.164679
651.461060	1235.607788	8906.388672	3069.677490	23.909819
651.793396	1301.597900	9029.266602	3065.126465	22.820965
652.125732	1262.914063	8951.898438	2967.279053	22.166321
652.458008	1226.505737	8890.459961	2905.840088	21.912113
652.790222	1187.821899	8879.082031	2958.177002	23.017750
653.122437	1253.812012	9097.532227	2980.932129	22.019144
653.454529	1183.270874	8740.275391	2967.279053	23.607346
653.786621	1299.322388	8826.745117	3001.411865	22.611849
654.118713	1206.026001	8580.989258	2990.034424	24.190065
654.450623	1272.016113	8815.367188	2935.421875	22.051285
654.782654	1276.567139	8505.896484	2976.381104	23.512749
655.114502	1262.914063	8624.223633	2990.034424	23.462135
655.446350	1233.332275	8583.264648	2935.421875	23.157894
655.778198	1258.363037	8665.183594	2955.901611	22.918587
656.109863	1253.812012	8603.744141	2996.860840	23.715170
656.441650	1196.923950	8478.590820	2953.625977	24.124998
656.773254	1165.066650	8433.080078	2780.686523	22.229181
657.104919	1217.403687	8469.488281	2860.329590	22.654533
657.436462	1171.893188	8492.243164	2919.493164	23.873175
657.767944	1244.709839	8437.630859	2905.840088	23.093960
658.099548	1249.260864	8571.886719	2914.942139	22.747049
658.430908	1278.842651	8669.734375	2926.319824	22.290642
658.762268	1237.883301	8933.694336	2924.044189	21.910112
659.093628	1231.056763	9147.593750	3051.473389	22.995113
659.424927	1221.954712	9300.053711	3210.759766	24.619717
659.756226	1203.750488	9875.760742	3240.341553	23.484650
660.087341	1224.230225	9807.495117	3228.964111	23.356310
660.418518	1272.016113	9953.127930	3349.566650	23.931850
660.749573	1267.465088	9932.648438	3131.116699	21.507353
661.080627	1178.719727	9702.820313	3263.096924	24.452753
661.411621	1187.821899	9791.566406	3185.729004	23.221369
661.742554	1240.158813	9529.880859	3213.035400	23.799068
662.073547	1287.944824	9108.910156	3008.238525	21.995926
662.404297	1260.638550	9013.337891	3037.820313	22.923393
662.735229	1287.944824	8967.827148	3028.718262	22.666668
663.065979	1237.883301	8692.489258	3037.820313	24.145300
663.396667	1128.658325	8530.927734	2873.982666	23.578234
663.727417	1231.056763	8410.325195	2933.146240	23.708397
664.057922	1253.812012	8239.661133	2933.146240	24.039085
664.388611	1224.230225	7982.526855	2894.462402	24.713802
664.719116	1258.363037	7966.598145	2846.676514	23.677069
665.049622	1192.372925	8260.140625	2835.298828	23.245331
665.380005	1228.781250	7889.230469	2851.227539	24.359413
665.710388	1199.199463	7732.219727	2833.023438	25.008707
666.040771	1199.199463	7766.352539	2787.512939	24.185722
666.371033	1208.301514	7748.148438	2887.635986	25.678499
666.701294	1126.382813	7773.179199	2755.655762	24.512154
667.031555	1242.434326	7841.444824	2839.849854	24.206894
667.361633	1258.363037	7673.056152	2892.187012	25.470024
667.691772	1219.679199	7836.893555	2755.655762	23.211830
668.021790	1192.372925	7909.710449	2828.472412	24.356369
668.351807	1212.852539	7848.271484	2798.890625	23.902607
668.681763	1242.434326	7677.607422	2905.840088	25.848658
669.011719	1269.740601	7818.689453	2858.054199	24.252954
669.341614	1278.842651	8062.170410	2933.146240	24.387789
669.671387	1281.118164	7789.107910	2819.370361	23.636364
670.001221	1231.056763	7900.608398	2794.339600	23.439098
670.330933	1246.985352	7830.066895	2830.747803	24.058071
670.660583	1292.495850	7866.475586	2760.206787	22.326065
670.990173	1242.434326	7698.086914	2951.350586	26.471628
671.319763	1262.914063	7711.740234	2796.614990	23.782637
671.649292	1342.557251	7399.993652	2935.421875	26.296019
671.978821	1194.648438	7629.821289	2894.462402	26.414427
672.308289	1206.026001	7522.871582	2812.543701	25.432278
672.637695	1208.301514	7561.555664	2753.380127	24.319485
672.966980	1171.893188	7418.197754	2819.370361	26.375229
673.296326	1185.546387	7434.126465	2769.308838	25.345957
673.625610	1231.056763	7374.962891	2767.033203	24.999998
673.954773	1221.954712	7345.381348	2701.043213	24.154589
674.283936	1233.332275	7252.084961	2719.247314	24.688087
674.613037	1206.026001	7258.911133	2860.329590	27.330828
674.942078	1226.505737	7356.758789	2719.247314	24.350409
675.271118	1290.220337	7327.176758	2703.318604	23.407461
675.600098	1194.648438	7199.748047	2726.073975	25.502085
675.928955	1160.515625	7181.543457	2744.278076	26.303856
676.257813	1322.077637	6967.644531	2648.706299	23.498590
676.586670	1294.771362	7140.584473	2673.737061	23.588947
676.915466	1278.842651	7181.543457	2632.777588	22.937550
677.244141	1212.852539	7108.727051	2712.420898	25.434196
677.572876	1231.056763	7161.063965	2723.798340	25.172676
677.901489	1260.638550	7186.094727	2678.288086	23.924732
678.230042	1155.964600	7172.441406	2746.553711	26.437220
678.558594	1219.679199	7165.615234	2810.268311	26.750862
678.887085	1187.821899	7174.717285	2851.227539	27.784111
679.215515	1185.546387	7372.687500	2780.686523	25.781538
679.543945	1203.750488	7374.962891	2826.196777	26.290560
679.872253	1276.567139	7283.941895	2801.166016	25.378786
680.200562	1272.016113	7545.626953	2801.166016	24.374319
680.528809	1203.750488	7714.015625	2894.462402	25.969940
680.856995	1183.270874	7793.658691	2971.830078	27.056797
681.185120	1265.189575	7766.352539	2908.115479	25.271261
681.513306	1192.372925	7836.893555	2976.381104	26.849314
681.841309	1231.056763	7845.995605	2926.319824	25.627796
682.169373	1221.954712	7843.720215	2996.860840	26.804121
682.497314	1219.679199	7716.291016	2969.554688	26.935202
682.825134	1237.883301	7711.740234	2914.942139	25.905096
683.153076	1151.413574	7586.586426	2965.003662	28.182461
683.480896	1235.607788	7481.912598	2867.156250	26.120218
683.808655	1210.577026	7511.494141	2782.961914	24.954859
684.136414	1196.923950	7331.728027	2862.605225	27.151335
684.464050	1297.046875	7256.635742	2789.788574	25.047729
684.791626	1308.424438	7217.952148	2862.605225	26.299576
685.119263	1285.669312	7106.451660	2776.135498	25.605944
685.446838	1260.638550	6976.746582	2739.727051	25.875797
685.774292	1287.944824	6851.593262	2694.216553	25.276072
686.101685	1251.536499	6781.051758	2701.043213	26.213993
686.429077	1212.852539	6703.684082	2728.349365	27.600498
686.756348	1242.434326	6655.898438	2739.727051	27.658682
687.083679	1201.474976	6703.684082	2723.798340	27.667494
687.410950	1217.403687	6692.306641	2694.216553	26.974230
687.738159	1253.812012	6888.001465	2796.614990	27.382874
688.065308	1244.709839	6867.521973	2737.451416	26.547955
688.392395	1233.332275	6931.236328	2805.717041	27.595844
688.719421	1212.852539	6728.714844	2751.104736	27.887793
689.046448	1242.434326	6710.510742	2701.043213	26.674992
689.373413	1246.985352	6847.041992	2689.665527	25.761885
689.700317	1237.883301	6749.194824	2787.512939	28.117258
690.027100	1180.995239	6737.816895	2669.185791	26.781326
690.353943	1224.230225	6742.368164	2632.777588	25.525774
690.680725	1297.046875	6512.540527	2666.910400	26.265270
691.007446	1299.322388	6248.580078	2614.573486	26.574715
691.334106	1174.168701	6316.845703	2707.869873	29.823013
691.660645	1251.536499	6382.835938	2678.288086	27.804880
691.987244	1187.821899	6121.150879	2653.257324	29.704798
692.313721	1190.097412	6187.141113	2662.359375	29.462658
692.640259	1251.536499	6153.008301	2614.573486	27.808729
692.966675	1162.791138	6171.212402	2555.409912	27.805544
693.293030	1153.689087	6087.018066	2482.593262	26.937269
693.619324	1210.577026	5907.251953	2539.481201	28.294575
693.945618	1169.617676	6123.426270	2628.226563	29.444191
694.271851	1242.434326	5886.772461	2607.746826	29.397354
694.598083	1272.016113	5911.803223	2600.920166	28.641487
694.924194	1240.158813	5838.986328	2539.481201	28.253340
695.250244	1228.781250	5955.038086	2468.940186	26.239771
695.576294	1192.372925	5829.884277	2582.716064	29.980373
695.902283	1160.515625	5955.038086	2566.787354	29.330799
696.228210	1235.607788	5829.884277	2530.379150	28.182270
696.554138	1258.363037	5916.354004	2441.633789	25.403027
696.879944	1233.332275	6027.854492	2525.828125	26.957760
697.205750	1228.781250	6057.436523	2516.726074	26.672951
697.531433	1208.301514	6264.508789	2662.359375	28.757877
697.857178	1190.097412	6218.998535	2635.052979	28.733027
698.182739	1294.771362	6444.274902	2685.114502	26.999557
698.508423	1212.852539	6603.561523	2776.135498	28.999580
698.833984	1269.740601	6831.113281	2796.614990	27.454992
699.159485	1187.821899	7024.532715	2855.778564	28.576996
699.484924	1326.628662	7459.157227	2935.421875	26.233767
699.810303	1212.852539	7404.544922	2983.207764	28.592428
700.135681	1262.914063	7365.860840	2939.972900	27.479492
700.460999	1251.536499	7634.372070	2985.483398	27.165777
700.786255	1269.740601	7352.207520	2823.921387	25.551817
701.111450	1180.995239	7161.063965	2905.840088	28.843227
701.436646	1244.709839	6837.939941	2794.339600	27.705454
701.761719	1251.536499	6592.183594	2773.859863	28.504475
702.086792	1262.914063	6457.928223	2846.676514	30.486200
702.411865	1244.709839	6282.712891	2671.461426	28.319784
702.736816	1221.954712	6059.711914	2610.022461	28.692381
703.061646	1224.230225	5882.221191	2587.267090	29.262333
703.386536	1281.118164	5779.822754	2398.398926	24.835611
703.711365	1194.648438	5618.260742	2493.970703	29.372427
704.036194	1194.648438	5761.618652	2521.277100	29.048332
704.360901	1251.536499	5445.321289	2393.847900	27.238199
704.685547	1190.097412	5411.188477	2466.664551	30.242588
705.010132	1217.403687	5256.453125	2368.817139	28.507042
705.334717	1235.607788	5377.055664	2373.368164	27.472528
705.659302	1237.883301	5290.585938	2368.817139	27.905670
705.983765	1201.474976	5240.524414	2332.408936	28.000004
706.308228	1251.536499	5167.707520	2412.052002	29.633934
706.632568	1283.393677	5308.790039	2300.551514	25.268513
706.956909	1249.260864	5092.615723	2352.888428	28.715214
707.281189	1174.168701	5206.391602	2277.796387	27.370205
707.605408	1203.750488	5049.380859	2377.919189	30.532541
707.929626	1246.985352	5283.759277	2241.387939	24.633596
708.253784	1199.199463	5165.432129	2414.327637	30.636835
708.577820	1183.270874	5224.595703	2300.551514	27.646397
708.901855	1276.567139	5154.054688	2421.154053	29.518778
709.225830	1201.474976	5131.299316	2466.664551	32.194557
709.549805	1203.750488	5415.739746	2355.164063	27.336575
709.873718	1317.526489	5172.258789	2405.225586	28.217239
710.197510	1249.260864	5276.932617	2398.398926	28.531075
710.521362	1219.679199	5331.545410	2350.613037	27.504150
710.845093	1192.372925	5235.973145	2466.664551	31.513790
711.168701	1167.342163	5288.310547	2387.021240	29.596905
711.492432	1217.403687	5515.862305	2464.388916	29.010056
711.816040	1212.852539	5595.505859	2462.113525	28.504673
712.139587	1228.781250	5615.985352	2487.144287	28.682573
712.463074	1219.679199	5631.914063	2446.184814	27.797832
712.786499	1267.465088	5636.464844	2473.491211	27.604168
713.109924	1274.291626	5484.005371	2393.847900	26.594593
713.433350	1219.679199	5499.933594	2507.624023	30.090380
713.756592	1219.679199	5481.729492	2352.888428	26.588360
714.079834	1253.812012	5429.392578	2330.133301	25.776566
714.403015	1237.883301	5222.320313	2332.408936	27.470020
714.726196	1253.812012	5315.616699	2414.327637	28.571428
715.049255	1278.842651	5390.708984	2371.092773	26.563368
715.372375	1176.444214	5220.044922	2291.449463	27.574564
715.695435	1308.424438	5092.615723	2309.653564	26.458204
716.018311	1269.740601	5169.983398	2273.245361	25.729290
716.341248	1196.923950	5208.666992	2382.470215	29.551899
716.664063	1269.740601	5235.973145	2393.847900	28.341942
716.987000	1237.883301	5436.219238	2368.817139	26.937670
717.309692	1237.883301	5117.646484	2316.480225	27.800587
717.632385	1251.536499	5245.075684	2296.000488	26.153845
717.955078	1269.740601	4903.747559	2343.786377	29.555414
718.277649	1285.669312	4928.777832	2314.204590	28.232355
718.600220	1240.158813	5047.104980	2316.480225	28.272566
718.922791	1224.230225	4953.808594	2259.592041	27.760828
719.245300	1201.474976	4858.236816	2093.479248	24.393284
719.567688	1203.750488	4769.491699	2129.887451	25.973196
719.890015	1235.607788	4774.042480	2259.592041	28.938906
720.212341	1167.342163	4544.214844	2179.948975	29.986526
720.534607	1206.026001	4582.898926	2136.714111	27.560648
720.856873	1251.536499	4553.316895	2138.989502	26.878016
721.179016	1187.821899	4482.775879	2095.754639	27.555246
721.501160	1262.914063	4462.296387	2141.265137	27.453770
721.823242	1242.434326	4441.816406	2093.479248	26.600290
722.145264	1199.199463	4403.132813	2027.489014	25.852272
722.467224	1253.812012	4394.030762	2109.407715	27.246372
722.789185	1228.781250	4337.142578	2095.754639	27.891655
723.111023	1249.260864	4389.479492	2082.101563	26.521742
723.432861	1253.812012	4405.408203	2116.234375	27.364622
723.754578	1192.372925	4318.938477	2084.376953	28.529837
724.076294	1226.505737	4166.478516	2043.417725	27.786381
724.397949	1210.577026	4227.917480	2102.581299	29.562601
724.719666	1215.128052	4264.326172	2075.274902	28.208952
725.041260	1253.812012	4223.366699	2093.479248	28.275864
725.362732	1208.301514	4284.805664	2104.856689	29.142012
725.684265	1283.393677	4437.265625	2004.733887	22.871574
726.005676	1301.597900	4250.672852	2070.723877	26.080246
726.327087	1281.118164	4248.397461	2075.274902	26.763802
726.648438	1215.128052	4298.458984	2032.040039	26.494463
726.969666	1260.638550	4296.183105	2052.519775	26.086958
727.290894	1208.301514	4248.397461	2020.662476	26.721558
727.612061	1351.659302	4300.734375	1993.356201	21.759258
727.933228	1249.260864	4416.785645	2116.234375	27.370693
728.254395	1151.413574	4400.857422	2054.795166	27.801115
728.575378	1235.607788	4430.438965	2072.999512	26.210829
728.896301	1253.812012	4425.888184	2170.846924	28.909613
729.217285	1221.954712	4475.949219	2141.265137	28.251749
729.538147	1183.270874	4507.806641	2157.193604	29.295000
729.858948	1219.679199	4485.051270	2116.234375	27.456448
730.179810	1146.862427	4637.511230	2120.785400	27.900915
730.500549	1196.923950	4391.755371	2045.693237	26.566950
730.821228	1217.403687	4434.990234	2125.336426	28.217819
731.141846	1256.087524	4548.766113	2068.448486	24.671736
731.462402	1246.985352	4521.459961	2150.367188	27.588604
731.782898	1219.679199	4630.685059	2063.897461	24.749834
732.103455	1231.056763	4698.950684	2100.305664	25.065613
732.423889	1167.342163	4462.296387	2086.652588	27.900553
732.744263	1203.750488	4510.082031	2225.459229	30.901581
733.064636	1242.434326	4580.623535	2120.785400	26.312202
733.384888	1251.536499	4596.552246	2164.020264	27.278910
733.705200	1180.995239	4578.347656	2170.846924	29.135971
734.025330	1242.434326	4637.511230	2138.989502	26.407507
734.345520	1187.821899	4496.429199	2136.714111	28.679504
734.665527	1269.740601	4587.449707	2091.203613	24.759949
734.985596	1287.944824	4482.775879	2075.274902	24.643871
735.305542	1251.536499	4507.806641	2079.825928	25.436754
735.625549	1265.189575	4432.714355	2091.203613	26.077587
735.945435	1155.964600	4348.520020	2013.835938	26.870993
736.265259	1240.158813	4259.774902	2004.733887	25.320272
736.585083	1194.648438	4177.855957	2013.835938	27.459957
736.904785	1235.607788	4298.458984	1997.907227	24.888557
737.224426	1274.291626	4189.233887	1997.907227	24.824354
737.544128	1233.332275	4036.773926	2013.835938	27.840910
737.863708	1217.403687	4107.314941	2066.172852	29.370079
738.183289	1267.465088	4239.295410	2047.968750	26.263399
738.502808	1228.781250	4273.428223	2009.284912	25.635277
738.822205	1226.505737	4221.091309	1993.356201	25.607901
739.141541	1149.138062	4216.540039	1988.805176	27.373886
739.460938	1231.056763	4184.682617	2072.999512	28.505394
739.780212	1297.046875	4230.193359	2054.795166	25.833973
740.099426	1251.536499	4248.397461	2041.142212	26.347761
740.418640	1162.791138	4307.561035	2027.489014	27.496378
740.737793	1178.719727	4173.305176	2066.172852	29.635258
741.056885	1212.852539	4255.224121	2068.448486	28.122663
741.375977	1258.363037	4207.437988	2084.376953	28.009254
741.694946	1244.709839	4114.141602	2072.999512	28.865984
742.013855	1183.270874	4059.529053	2018.386963	29.034809
742.332703	1242.434326	4002.641113	2072.999512	30.090687
742.651550	1208.301514	3952.579590	2004.733887	29.021563
742.970398	1269.740601	4016.294189	1911.437500	23.363712
743.289124	1185.546387	4041.324951	1954.672363	26.932270
743.607788	1219.679199	3886.589600	2016.111450	29.863480
743.926453	1233.332275	3925.273438	1993.356201	28.233303
744.245056	1199.199463	3982.161377	1918.264038	25.838104
744.563599	1258.363037	3954.855225	1981.978638	26.835442
744.882141	1244.709839	3911.620361	2029.764526	29.436857
745.200500	1246.985352	3829.701416	2054.795166	31.277531
745.518860	1310.699951	3765.986816	1893.233276	23.725672
745.837219	1253.812012	3674.966064	1954.672363	28.947367
746.155518	1237.883301	3791.017578	1895.508789	25.757576
746.473755	1226.505737	3775.089111	1895.508789	26.249996
746.791992	1283.393677	3622.629150	1981.978638	29.863817
747.110107	1233.332275	3718.200928	1897.784302	26.739925
747.428162	1306.148926	3788.742188	1918.264038	24.656279
747.746216	1180.995239	3768.262451	1945.570313	29.551455
748.064148	1274.291626	3665.864014	2000.182739	30.352045
748.382080	1212.852539	3686.343750	1927.366089	28.886845
748.700073	1206.026001	3754.609375	1913.713013	27.767857
749.017822	1215.128052	3809.221924	1852.273926	24.561405
749.335632	1196.923950	3713.649902	1915.988525	28.571428
749.653320	1242.434326	3791.017578	1922.815063	26.696430
749.971008	1137.760376	3841.079102	1988.805176	31.481482
750.288696	1208.301514	3800.119629	1902.335449	26.777880
750.606262	1274.291626	3756.884766	1886.406738	24.656279
750.923828	1206.026001	3779.640137	1984.254150	30.238726
751.241272	1185.546387	3738.680664	1915.988525	28.609625
751.558716	1137.760376	3608.976074	1929.641602	32.044197
751.876038	1272.016113	3654.486328	1820.416626	23.018148
752.193481	1258.363037	3672.690674	1870.478149	25.353439
752.510681	1265.189575	3668.139648	1979.703125	29.734846
752.827942	1174.168701	3677.241699	2002.458252	33.090908
753.145081	1233.332275	3690.894775	1984.254150	30.555555
753.462219	1269.740601	3636.282227	1918.264038	27.403849
753.779297	1267.465088	3593.047363	1968.325439	30.136984
754.096375	1258.363037	3697.721191	1961.498901	28.824627
754.413330	1235.607788	3563.465576	1991.080688	32.453568
754.730286	1226.505737	3581.669678	1868.202637	27.246378
755.047119	1219.679199	3636.282227	1979.703125	31.450094
755.363892	1237.883301	3490.648926	1890.957764	28.989899
755.680725	1244.709839	3563.465576	1886.406738	27.674191
755.997498	1251.536499	3565.741211	1911.437500	28.515240
756.314148	1192.372925	3502.026611	1895.508789	30.443344
756.630737	1265.189575	3643.108887	1961.498901	29.282293
756.947327	1260.638550	3486.097900	1947.845825	30.879343
757.263855	1237.883301	3513.404053	1879.580200	28.200003
757.580261	1226.505737	3529.332764	1911.437500	29.743082
757.896729	1190.097412	3513.404053	1920.539551	31.439764
758.213074	1221.954712	3520.230713	1936.468262	31.089111
758.529419	1206.026001	3545.261475	1918.264038	30.447472
758.845642	1281.118164	3631.731201	1870.478149	25.072607
759.161865	1242.434326	3595.322754	1945.570313	29.883949
759.478149	1251.536499	3634.006836	1986.529663	30.850046
759.794189	1292.495850	3647.659912	1918.264038	26.570047
760.110229	1246.985352	3624.904541	1902.335449	27.559814
760.426270	1226.505737	3845.630127	1993.356201	29.278885
760.742249	1219.679199	3704.547852	1950.121338	29.395603
761.058105	1256.087524	3665.864014	1879.580200	25.873466
761.374023	1212.852539	3593.047363	1918.264038	29.636713
761.689819	1276.567139	3763.711426	1902.335449	25.160112
762.005554	1278.842651	3768.262451	1968.325439	27.696524
762.321289	1246.985352	3647.659912	1918.264038	27.962086
762.636902	1233.332275	3754.609375	1986.529663	29.873646
762.952515	1228.781250	3791.017578	1927.366089	27.264652
763.268127	1303.873413	3704.547852	2022.937988	29.952608
763.583618	1267.465088	4016.294189	2034.315552	27.897350
763.899048	1274.291626	4223.366699	2102.581299	28.086420
764.214478	1253.812012	4721.705566	2191.326416	27.034117
764.529785	1242.434326	4969.737305	2352.888428	29.792429
764.845093	1292.495850	5210.942871	2371.092773	27.526133
765.160400	1244.709839	5158.605469	2352.888428	28.313955
765.475586	1269.740601	4944.706543	2284.622803	27.616098
765.790771	1160.515625	4967.461914	2252.765625	28.690975
766.105835	1224.230225	4664.817871	2250.489990	29.828037
766.420837	1240.158813	4446.367676	2245.938965	31.369762
766.735840	1256.087524	4403.132813	2186.775391	29.573385
767.050842	1203.750488	4300.734375	2102.581299	29.022779
767.365662	1171.893188	4020.845215	2104.856689	32.747601
767.680542	1221.954712	3950.304199	2025.213501	29.441196
767.995300	1240.158813	3884.313965	1975.152100	27.796904
768.309998	1180.995239	3818.323975	2022.937988	31.924074
768.624817	1199.199463	3788.742188	1977.427612	30.052725
768.939392	1237.883301	3718.200928	1950.121338	28.715597
769.254028	1256.087524	3709.098877	1991.080688	29.962894
769.568481	1240.158813	3574.843262	1893.233276	27.972706
769.882935	1219.679199	3661.312988	1895.508789	27.679399
770.197388	1203.750488	3502.026611	1884.131226	29.603960
770.511841	1242.434326	3490.648926	1865.927002	27.732792
770.826172	1199.199463	3449.689453	1902.335449	31.243685
771.140442	1228.781250	3422.383301	1890.957764	30.186720
771.454651	1249.260864	3356.393066	1895.508789	30.669546
771.768860	1158.240112	3422.383301	1843.171875	30.251259
772.082886	1235.607788	3376.872803	1902.335449	31.137091
772.397034	1221.954712	3360.944336	1941.019287	33.617020
772.711060	1219.679199	3345.015625	1758.977539	25.374727
773.025024	1272.016113	3222.137451	1786.283813	26.371061
773.338928	1201.474976	3256.270264	1768.079712	27.574753
773.652771	1194.648438	3285.852051	1790.834839	28.509247
773.966614	1251.536499	3269.923340	1829.518677	28.635847
774.280457	1233.332275	3222.137451	1822.692139	29.633865
774.594116	1231.056763	3185.729004	1804.488037	29.336441
774.907776	1231.056763	3213.035400	1815.865601	29.506313
775.221375	1267.465088	3149.320801	1781.732788	27.327690
775.534912	1208.301514	3117.463379	1720.293701	26.817642
775.848450	1215.128052	3190.280273	1768.079712	27.995394
776.161926	1174.168701	3122.014648	1781.732788	31.191587
776.475342	1251.536499	3026.442627	1747.599976	27.948717
776.788696	1258.363037	3167.524902	1852.273926	31.108461
777.101990	1240.158813	3085.606201	1731.671387	26.633789
777.415283	1178.719727	3081.055176	1788.559326	32.057415
777.728516	1237.883301	3076.504150	1731.671387	26.856440
778.041626	1201.474976	2978.656738	1777.181763	32.394367
778.354736	1174.168701	3151.596191	1758.977539	29.574224
778.667725	1262.914063	3046.922363	1784.008301	29.209183
778.980774	1212.852539	3081.055176	1852.273926	34.226555
779.293640	1176.444214	3053.749023	1829.518677	34.787876
779.606567	1206.026001	2965.003662	1793.110352	33.376453
779.919434	1231.056763	3012.789551	1802.212524	32.056198
780.232239	1242.434326	3060.575439	1747.599976	27.784733
780.544983	1221.954712	2903.564453	1733.946899	30.446552
780.857666	1267.465088	2980.932129	1786.283813	30.278885
781.170227	1285.669312	3090.157227	1720.293701	24.085747
781.482849	1258.363037	2876.258301	1829.518677	35.302387
781.795410	1299.322388	3019.616211	1722.569214	24.603170
782.107910	1265.189575	2976.381104	1722.569214	26.728724
782.420288	1278.842651	2901.289063	1747.599976	28.892006
782.732666	1210.577026	2937.697266	1736.222412	30.434788
783.044983	1262.914063	2949.074951	1711.191650	26.585695
783.357300	1249.260864	2889.911377	1677.058838	26.074900
783.669495	1278.842651	2821.645752	1731.671387	29.351038
783.981689	1249.260864	2792.063965	1731.671387	31.268444
784.293762	1265.189575	2910.391113	1724.844727	27.939140
784.605835	1249.260864	2858.054199	1665.681274	25.884022
784.917908	1242.434326	2864.880615	1774.906250	32.819080
785.229858	1174.168701	2899.013428	1758.977539	33.905014
785.541748	1253.812012	2785.237549	1672.507813	27.340265
785.853577	1242.434326	2807.992676	1667.956787	27.180237
786.165405	1256.087524	2785.237549	1658.854614	26.339279
786.477173	1267.465088	2755.655762	1699.814087	29.051989
786.788879	1246.985352	2703.318604	1611.068726	25.000004
787.100525	1217.403687	2764.757813	1642.926025	27.499996
787.412109	1162.791138	2710.145264	1586.037964	27.352940
787.723694	1176.444214	2705.594238	1586.037964	26.785713
788.035156	1256.087524	2757.931152	1715.742676	30.606060
788.346558	1237.883301	2621.399902	1715.742676	34.539474
788.658081	1244.709839	2848.952148	1681.609863	27.234041
788.969360	1217.403687	2958.177002	1688.436401	27.058821
789.280640	1206.026001	2955.901611	1729.395752	29.908968
789.591919	1278.842651	2967.279053	1733.946899	26.954184
789.903076	1219.679199	2939.972900	1793.110352	33.333328
790.214172	1240.158813	3081.055176	1681.609863	23.980223
790.525269	1221.954712	2996.860840	1702.089600	27.051283
790.836365	1215.128052	2780.686523	1770.355225	35.465118
791.147339	1249.260864	2901.289063	1695.262939	26.997244
791.458191	1217.403687	2730.625000	1677.058838	30.375937
791.769104	1153.689087	2682.839111	1654.303589	32.738091
792.079895	1185.546387	2723.798340	1665.681274	31.213020
792.390686	1185.546387	2705.594238	1642.926025	30.089819
792.701416	1244.709839	2625.950928	1658.854614	29.983526
793.012085	1274.291626	2648.706299	1724.844727	32.781452
793.322693	1217.403687	2751.104736	1624.721802	26.557856
793.633240	1287.944824	2678.288086	1658.854614	26.677570
793.943787	1203.750488	2578.165039	1561.007324	25.993383
794.254272	1265.189575	2662.359375	1597.415649	23.778503
794.564636	1276.567139	2637.328613	1520.047852	17.892975
794.875000	1267.465088	2662.359375	1683.885376	29.853180
795.185303	1308.424438	2623.675537	1692.987427	29.238750
795.495544	1240.158813	2644.155273	1597.415649	25.445707
795.805786	1176.444214	2607.746826	1626.997314	31.478535
796.115906	1251.536499	2587.267090	1620.170776	27.597952
796.426025	1285.669312	2575.889648	1624.721802	26.278650
796.736023	1249.260864	2730.625000	1636.099487	26.113676
797.045959	1285.669312	2689.665527	1622.446289	23.987028
797.355896	1224.230225	2873.982666	1777.181763	33.517242
797.665833	1167.342163	2701.043213	1613.344238	29.080118
797.975708	1208.301514	2730.625000	1620.170776	27.055305
798.285461	1231.056763	2757.931152	1613.344238	25.037258
798.595154	1176.444214	2628.226563	1638.375000	31.818184
798.904846	1235.607788	2650.981689	1633.823975	28.135052
799.214478	1269.740601	2635.052979	1658.854614	28.499998
799.524109	1276.567139	2644.155273	1638.375000	26.455908
799.833557	1215.128052	2635.052979	1604.242188	27.403852
800.143005	1242.434326	2623.675537	1652.028076	29.654036
800.452393	1185.546387	2598.644775	1599.691162	29.307568
800.761780	1276.567139	2534.930176	1649.752563	29.656420
801.071106	1274.291626	2534.930176	1665.681274	31.046936
801.380371	1187.821899	2498.521729	1522.323364	25.520830
801.689575	1224.230225	2480.317627	1642.926025	33.333332
801.998718	1192.372925	2466.664551	1561.007324	28.928574
802.307800	1242.434326	2423.429688	1576.935913	28.323700
802.616882	1190.097412	2475.766602	1522.323364	25.840702
802.925903	1269.740601	2437.082764	1574.660400	26.120859
803.234863	1206.026001	2382.470215	1567.833862	30.754358
803.543701	1253.812012	2371.092773	1592.864502	30.346222
803.852539	1174.168701	2507.624023	1583.762451	30.716721
804.161316	1226.505737	2437.082764	1592.864502	30.263151
804.470032	1199.199463	2416.603027	1561.007324	29.719633
804.778809	1262.914063	2505.348389	1561.007324	23.992678
805.087341	1231.056763	2389.296875	1595.140137	31.434189
805.395935	1217.403687	2519.001465	1667.956787	34.615387
805.704468	1242.434326	2480.317627	1608.793213	29.595592
806.012939	1240.158813	2434.807373	1590.588989	29.333328
806.321350	1231.056763	2453.011475	1640.650513	33.519554
806.629761	1185.546387	2464.388916	1608.793213	33.096085
806.938049	1269.740601	2446.184814	1661.130127	33.268856
807.246277	1246.985352	2525.828125	1622.446289	29.359428
807.554504	1208.301514	2446.184814	1624.721802	33.639706
807.862671	1212.852539	2475.766602	1665.681274	35.855862
808.170715	1174.168701	2493.970703	1563.282837	29.482765
808.478821	1310.699951	2478.042236	1495.017212	15.789478
808.786804	1269.740601	2441.633789	1638.375000	31.456314
809.094727	1203.750488	2512.175049	1576.935913	28.521738
809.402649	1301.597900	2405.225586	1617.895264	28.659788
809.710510	1240.158813	2407.500977	1545.078613	26.120859
810.018311	1269.740601	2464.388916	1592.864502	27.047617
810.326050	1219.679199	2439.358398	1565.558350	28.358208
810.633667	1256.087524	2352.888428	1520.047852	24.066385
810.941345	1253.812012	2305.102539	1590.588989	32.034626
811.248901	1192.372925	2257.316650	1558.731689	34.401703
811.556396	1228.781250	2400.674561	1510.945801	24.077665
811.863892	1269.740601	2311.929199	1583.762451	30.131001
812.171326	1281.118164	2327.857666	1549.629639	25.652178
812.478699	1269.740601	2273.245361	1604.242188	33.333332
812.786011	1290.220337	2164.020264	1570.109375	32.031250
813.093262	1224.230225	2307.378174	1481.364014	23.739489
813.400391	1267.465088	2266.418701	1595.140137	32.801826
813.707642	1258.363037	2311.929199	1567.833862	29.373650
814.014709	1278.842651	2332.408936	1558.731689	26.565868
814.321716	1215.128052	2270.969727	1556.456177	32.327587
814.628723	1203.750488	2277.796387	1460.884399	23.940681
814.935669	1283.393677	2243.663574	1581.486938	31.042654
815.242554	1219.679199	2275.520752	1567.833862	32.974140
815.549438	1221.954712	2245.938965	1554.180664	32.444439
815.856201	1174.168701	2293.724854	1533.701050	32.113831
816.162964	1226.505737	2289.173828	1520.047852	27.623123
816.469604	1151.413574	2327.857666	1510.945801	30.560928
816.776184	1292.495850	2300.551514	1529.150024	23.476301
817.082825	1246.985352	2248.214600	1556.456177	30.909088
817.389343	1267.465088	2305.102539	1476.812988	20.175438
817.695801	1201.474976	2255.041016	1495.017212	27.861778
818.002197	1237.883301	2350.613037	1554.180664	28.425354
818.308533	1244.709839	2336.959961	1576.935913	30.416666
818.614868	1285.669312	2293.724854	1501.843750	21.444695
818.921143	1231.056763	2305.102539	1656.579102	39.618641
819.227356	1212.852539	2478.042236	1545.078613	26.258993
819.533447	1256.087524	2368.817139	1595.140137	30.470350
819.839539	1217.403687	2407.500977	1592.864502	31.548750
820.145569	1244.709839	2519.001465	1504.119263	20.357147
820.451538	1292.495850	2607.746826	1572.384888	21.280275
820.757568	1256.087524	2746.553711	1681.609863	28.549614
821.063416	1199.199463	2792.063965	1654.303589	28.571428
821.369263	1203.750488	2858.054199	1686.160889	29.160933
821.675049	1162.791138	2962.728027	1708.916138	30.341341
821.980713	1244.709839	3153.871826	1736.222412	25.744938
822.286438	1217.403687	3345.015625	1845.447388	29.518717
822.592102	1267.465088	3927.548828	2061.621826	29.854576
822.897583	1256.087524	5604.607910	2516.726074	28.990057
823.203125	1224.230225	7934.741211	3126.565674	28.348595
823.508545	1231.056763	10055.526367	3809.221924	29.216091
823.813965	1269.740601	11131.847656	4054.978027	28.241806
824.119263	1224.230225	10251.221680	3825.150391	28.812702
824.424622	1187.821899	8888.184570	3513.404053	30.200941
824.729858	1262.914063	7525.147461	3137.943115	29.941858
825.035095	1215.128052	6253.131348	2873.982666	32.926826
825.340149	1253.812012	5891.323242	2657.808350	30.274780
825.645264	1333.455200	5267.830566	2459.837891	28.629263
825.950256	1192.372925	4789.971191	2366.541748	32.637577
826.255310	1240.158813	4378.102051	2195.877686	30.456856
826.560242	1194.648438	4200.611328	2134.438477	31.264193
826.865112	1210.577026	4041.324951	2136.714111	32.717045
827.169922	1228.781250	3913.895752	2127.612061	33.474579
827.474670	1158.240112	3877.487549	2098.030273	34.560669
827.779419	1228.781250	4330.315918	2209.530762	31.621428
828.084045	1246.985352	4821.828613	2316.480225	29.917252
828.388672	1244.709839	5313.341309	2484.868652	30.480982
828.693176	1262.914063	5461.250000	2448.460449	28.238483
828.997681	1162.791138	5022.074219	2341.510986	30.542456
829.302124	1244.709839	4434.990234	2125.336426	27.603424
829.606567	1233.332275	3816.048340	2013.835938	30.220266
829.910828	1185.546387	3634.006836	2013.835938	33.828995
830.215149	1276.567139	3272.198975	1881.855713	30.330673
830.519348	1176.444214	3201.657715	1829.518677	32.247192
830.823547	1149.138062	2992.309814	1815.865601	36.172840
831.127686	1192.372925	2878.533936	1667.956787	28.205128
831.431763	1203.750488	2721.522949	1731.671387	34.782612
831.735779	1240.158813	2509.899414	1699.814087	36.200722
832.039734	1201.474976	2555.409912	1617.895264	30.756300
832.343628	1292.495850	2493.970703	1665.681274	31.060610
832.647461	1292.495850	2457.562500	1558.731689	22.851555
832.951233	1249.260864	2402.949951	1581.486938	28.796846
833.255127	1219.679199	2523.552490	1581.486938	27.748688
833.558777	1242.434326	2498.521729	1579.211426	26.811598
833.862366	1260.638550	2500.797363	1601.966675	27.522936
834.165955	1226.505737	2807.992676	1702.089600	30.071943
834.469482	1240.158813	3115.187988	1786.283813	29.126213
834.773010	1194.648438	3586.220703	1945.570313	31.398670
835.076416	1287.944824	3759.160400	2013.835938	29.373848
835.379822	1258.363037	3775.089111	1981.978638	28.752258
835.683105	1274.291626	3695.445801	1943.294800	27.631580
835.986389	1228.781250	3376.872803	1859.100464	29.343220
836.289612	1208.301514	3067.402100	1806.763550	32.190945
836.592773	1278.842651	2846.676514	1720.293701	28.156750
836.895874	1285.669312	2721.522949	1784.008301	34.706810
837.198914	1319.802124	2632.777588	1704.365112	29.289427
837.501892	1281.118164	2598.644775	1599.691162	24.179625
837.804871	1196.923950	2514.450439	1640.650513	33.678757
838.107666	1192.372925	2482.593262	1633.823975	34.215168
838.410583	1221.954712	2332.408936	1604.242188	34.426224
838.713379	1201.474976	2248.214600	1588.313477	36.956516
839.016052	1215.128052	2189.051025	1590.588989	38.551399
839.318787	1196.923950	2138.989502	1485.915039	30.676325
839.621338	1228.781250	2059.346436	1508.670288	33.698624
839.923889	1265.189575	2111.683350	1460.884399	23.118282
840.226440	1258.363037	2013.835938	1517.772339	34.337341
840.528931	1201.474976	2100.305664	1481.364014	31.139238
840.831299	1231.056763	2252.765625	1583.762451	34.521152
841.133606	1240.158813	2261.867676	1581.486938	33.407574
841.435913	1242.434326	2286.898438	1531.425537	27.668850
841.738220	1242.434326	2348.337402	1545.078613	27.366259
842.040405	1246.985352	2214.081787	1601.966675	36.705887
842.342529	1196.923950	2186.775391	1426.751587	23.218397
842.644592	1269.740601	2054.795166	1513.221313	31.014496
842.946594	1187.821899	2084.376953	1431.302612	27.157364
843.248596	1224.230225	2079.825928	1465.435425	28.191492
843.550598	1180.995239	1911.437500	1490.466064	42.367596
843.852478	1203.750488	2045.693237	1413.098389	24.864862
844.154236	1276.567139	1954.672363	1499.568237	32.885914
844.455994	1208.301514	1875.029175	1451.782227	36.518764
844.757690	1167.342163	1847.722900	1476.812988	45.484947
845.059326	1224.230225	1893.233276	1435.853638	31.632652
845.360962	1242.434326	1845.447388	1490.466064	41.132069
845.662476	1276.567139	1802.212524	1383.516602	20.346313
845.963989	1231.056763	1813.590088	1408.547363	30.468746
846.265381	1237.883301	1793.110352	1433.578125	35.245911
846.566772	1146.862427	1790.834839	1417.649414	42.049469
846.868042	1299.322388	1790.834839	1351.659302	10.648136
847.169373	1228.781250	1765.804199	1292.495850	11.864409
847.470581	1249.260864	1786.283813	1388.067749	25.847477
847.771729	1231.056763	1777.181763	1381.241089	27.499990
848.072815	1281.118164	1695.262939	1292.495850	2.747272
848.373901	1233.332275	1770.355225	1315.250977	15.254228
848.674866	1274.291626	1740.773438	1390.343262	24.878063
848.975891	1269.740601	1720.293701	1349.383789	17.676760
849.276794	1267.465088	1749.875488	1322.077637	11.320765
849.577637	1233.332275	1763.528564	1406.271851	32.618027
849.878357	1297.046875	1697.538574	1392.618774	23.863640
850.179077	1187.821899	1679.334351	1422.200562	47.685192
850.479736	1226.505737	1667.956787	1328.904175	23.195875
850.780396	1221.954712	1681.609863	1388.067749	36.138622
851.080994	1203.750488	1720.293701	1376.690063	33.480175
851.381470	1206.026001	1688.436401	1324.353149	24.528316
851.681946	1210.577026	1642.926025	1410.822876	46.315788
851.982361	1260.638550	1667.956787	1378.965576	29.050264
852.282715	1228.781250	1699.814087	1392.618774	34.782612
852.583008	1192.372925	1652.028076	1383.516602	41.584148
852.883240	1274.291626	1713.467163	1369.863525	21.761663
853.183411	1285.669312	1708.916138	1376.690063	21.505360
853.483521	1183.270874	1692.987427	1306.148926	24.107134
853.783630	1231.056763	1661.130127	1429.027100	46.031761
854.083679	1233.332275	1665.681274	1260.638550	6.315794
854.383667	1242.434326	1649.752563	1385.792114	35.195522
854.683533	1174.168701	1613.344238	1349.383789	39.896366
854.983337	1187.821899	1661.130127	1324.353149	28.846161
855.283203	1237.883301	1586.037964	1374.414551	39.215691
855.582886	1206.026001	1677.058838	1403.996338	42.028988
855.882629	1262.914063	1661.130127	1369.863525	26.857143
856.182312	1228.781250	1665.681274	1401.720825	39.583328
856.481873	1260.638550	1631.548462	1363.036987	27.607361
856.781372	1185.546387	1681.609863	1308.424438	24.770630
857.080872	1196.923950	1667.956787	1342.557251	30.917866
857.380310	1265.189575	1654.303589	1358.485962	23.976620
857.679688	1251.536499	1720.293701	1410.822876	33.980572
857.979004	1206.026001	1597.415649	1367.588013	41.279072
858.278259	1221.954712	1658.854614	1422.200562	45.833347
858.577454	1251.536499	1670.232300	1385.792114	32.065193
858.876648	1228.781250	1647.477051	1356.210449	30.434793
859.175720	1258.363037	1638.375000	1369.863525	29.341311
859.474792	1276.567139	1629.272949	1312.975464	10.322576
859.773743	1235.607788	1561.007324	1360.761475	38.461544
860.072693	1235.607788	1574.660400	1322.077637	25.503372
860.371521	1301.597900	1711.191650	1331.179688	7.222226
860.670349	1315.250977	1599.691162	1360.761475	16.000025
860.969116	1233.332275	1649.752563	1342.557251	26.229504
861.267883	1269.740601	1647.477051	1383.516602	30.120472
861.566589	1249.260864	1642.926025	1369.863525	30.635849
861.865112	1228.781250	1608.793213	1242.434326	3.592802
862.163635	1260.638550	1647.477051	1378.965576	30.588224
862.462158	1251.536499	1590.588989	1353.934937	30.201353
862.760620	1231.056763	1579.211426	1303.873413	20.915030
863.059021	1246.985352	1595.140137	1303.873413	16.339876
863.357361	1310.699951	1583.762451	1294.771362	-5.833313
863.655640	1253.812012	1670.232300	1344.832764	21.857904
863.953857	1219.679199	1654.303589	1294.771362	17.277485
864.251953	1233.332275	1624.721802	1349.383789	29.651155
864.550110	1212.852539	1733.946899	1356.210449	27.510931
864.848206	1283.393677	1633.823975	1319.802124	10.389640
865.146179	1249.260864	1633.823975	1326.628662	20.118362
865.444092	1231.056763	1649.752563	1390.343262	38.043491
865.741943	1253.812012	1570.109375	1274.291626	6.474798
866.039795	1171.893188	1658.854614	1335.730713	33.644867
866.337646	1224.230225	1601.966675	1322.077637	25.903620
866.635376	1281.118164	1674.783325	1315.250977	8.670519
866.933044	1258.363037	1624.721802	1358.485962	27.329201
867.230652	1249.260864	1617.895264	1326.628662	20.987677
867.528198	1228.781250	1656.579102	1310.699951	19.148928
867.825745	1256.087524	1672.507813	1367.588013	26.775949
868.123230	1242.434326	1665.681274	1422.200562	42.473133
868.420593	1133.209351	1631.548462	1369.863525	47.488583
868.717896	1249.260864	1663.405762	1328.904175	19.230783
869.015198	1249.260864	1636.099487	1401.720825	39.411774
869.312439	1312.975464	1649.752563	1335.730713	6.756769
869.609619	1253.812012	1633.823975	1353.934937	26.347309
869.906738	1246.985352	1640.650513	1360.761475	28.901751
870.203796	1310.699951	1715.742676	1324.353149	3.370805
870.500854	1196.923950	1576.935913	1333.455200	35.928146
870.797791	1260.638550	1631.548462	1328.904175	18.404907
871.094666	1281.118164	1588.313477	1319.802124	12.592627
871.391602	1196.923950	1522.323364	1333.455200	41.958050
871.688293	1272.016113	1583.762451	1351.659302	25.547434
871.985107	1183.270874	1608.793213	1301.597900	27.807476
872.281738	1256.087524	1608.793213	1310.699951	15.483852
872.578369	1235.607788	1649.752563	1328.904175	22.527481
872.874939	1206.026001	1683.885376	1399.445313	40.476200
873.171509	1251.536499	1529.150024	1342.557251	32.786858
873.467957	1215.128052	1583.762451	1358.485962	38.888912
873.764343	1221.954712	1597.415649	1351.659302	34.545429
874.060669	1265.189575	1661.130127	1328.904175	16.091961
874.356995	1165.066650	1563.282837	1406.271851	60.571419
874.653198	1171.893188	1583.762451	1312.975464	34.254139
874.949463	1299.322388	1615.619751	1385.792114	27.338112
875.245544	1256.087524	1601.966675	1333.455200	22.368412
875.541626	1185.546387	1606.517700	1317.526489	31.351330
875.837646	1249.260864	1581.486938	1383.516602	40.410957
876.133606	1246.985352	1624.721802	1353.934937	28.313282
876.429565	1278.842651	1622.446289	1326.628662	13.907307
876.725403	1221.954712	1581.486938	1351.659302	36.075928
877.021179	1251.536499	1624.721802	1374.414551	32.926819
877.316956	1242.434326	1649.752563	1301.597900	14.525147
877.612610	1262.914063	1752.151001	1322.077637	12.093031
877.908203	1162.791138	1645.201538	1306.148926	29.716976
878.203857	1206.026001	1654.303589	1299.322388	20.812191
878.499390	1274.291626	1631.548462	1358.485962	23.566893
878.794800	1306.148926	1640.650513	1338.006226	9.523811
879.090271	1224.230225	1733.946899	1297.046875	14.285711
879.385559	1251.536499	1638.375000	1351.659302	25.882326
879.680847	1219.679199	1677.058838	1444.955688	49.253719
879.976196	1258.363037	1640.650513	1397.169800	36.309525
880.271301	1235.607788	1763.528564	1424.476074	35.775875
880.566467	1201.474976	1799.937012	1372.139038	28.517107
880.861572	1235.607788	1897.784302	1394.894287	24.054991
881.156555	1199.199463	1947.845825	1449.506714	33.434643
881.451477	1224.230225	2241.387939	1617.895264	38.702457
881.746460	1240.158813	2662.359375	1670.232300	30.240002
882.041321	1224.230225	3422.383301	1863.651489	29.089024
882.336121	1192.372925	4211.988770	2132.163086	31.122839
882.630798	1194.648438	4817.277344	2236.836914	28.768845
882.925537	1208.301514	5056.207031	2277.796387	27.794209
883.220215	1178.719727	4651.164551	2257.316650	31.061600
883.514771	1208.301514	4346.244629	2189.051025	31.254534
883.809326	1196.923950	4296.183105	2095.754639	29.001469
884.103760	1171.893188	3891.140625	2043.417725	32.050209
884.398132	1292.495850	3515.679688	1879.580200	26.407368
884.692505	1199.199463	3456.516113	1915.988525	31.754032
884.986816	1199.199463	3208.484375	1813.590088	30.577576
885.281067	1224.230225	2928.595215	1802.212524	33.911884
885.575256	1312.975464	2848.952148	1720.293701	26.518517
885.869385	1185.546387	2650.981689	1592.864502	27.795025
886.163452	1221.954712	2539.481201	1551.905151	25.043173
886.457458	1199.199463	2371.092773	1467.710938	22.912621
886.751465	1244.709839	2116.234375	1456.333252	24.281981
887.045410	1240.158813	2077.550537	1456.333252	25.815210
887.339233	1212.852539	2009.284912	1469.986450	32.285717
887.632996	1246.985352	1968.325439	1394.894287	20.504744
887.926758	1272.016113	1845.447388	1440.404663	29.365080
888.220398	1183.270874	1804.488037	1353.934937	27.472528
888.514099	1272.016113	1872.753662	1472.261963	33.333332
888.807678	1215.128052	1793.110352	1331.179688	20.078753
889.101196	1301.597900	1758.977539	1358.485962	12.437821
889.394653	1176.444214	1704.365112	1319.802124	27.155188
889.688049	1244.709839	1745.324463	1410.822876	33.181820
889.981384	1212.852539	1677.058838	1383.516602	36.764702
890.274719	1162.791138	1683.885376	1410.822876	47.598251
890.567932	1244.709839	1608.793213	1378.965576	36.875000
>>>>>End Processed Spectral Data<<<<<
