Jaz Data File
++++++++++++++++++++++++++++++++++++
Date: Wed Feb 07 06:47:29 2024
User: jaz
Dark Spectrum Present: Yes
Reference Spectrum Present: Yes
Processed Spectrum Present: Yes
Spectrometers: JAZA3692
Integration Time (usec): 47000 (JAZA3692)
Spectra Averaged: 1 (JAZA3692)
Boxcar Smoothing: 0 (JAZA3692)
Correct for Electrical Dark: No (JAZA3692)
Strobe/Lamp Enabled: Yes (JAZA3692)
Correct for Detector Non-linearity: No (JAZA3692)
Correct for Stray Light: No (JAZA3692)
Number of Pixels in Processed Spectrum: 2048
>>>>>Begin Processed Spectral Data<<<<<
W	D	R	S	P
190.244385	0.000000	0.000000	0.000000	0.000000
190.627136	0.000000	0.000000	0.000000	0.000000
191.009842	1044.463989	1105.903076	1014.882263	-48.148056
191.392532	964.820801	1023.984375	1053.566162	150.000000
191.775177	1033.086426	971.647400	1046.739624	-22.222355
192.157791	1092.250000	1023.984375	1014.882263	113.333374
192.540390	1117.280762	1112.729614	1046.739624	1549.963745
192.922943	1119.556274	1058.117188	1023.984375	155.555527
193.305481	1064.943726	1151.413574	1028.535400	-42.105225
193.687958	1089.974487	1037.637451	1001.229126	169.565125
194.070419	1162.791138	1089.974487	1110.454102	71.875092
194.452866	1060.392700	1130.933838	1030.810913	-41.935513
194.835251	1115.005249	1117.280762	1014.882263	-4400.018555
195.217621	1049.015137	1049.015137	996.678101	0.000000
195.599960	1033.086426	1105.903076	1023.984375	-12.499958
195.982254	1158.240112	1094.525513	1071.770264	135.714340
196.364517	1094.525513	1144.586914	1062.668213	-63.636452
196.746750	1101.352051	1167.342163	994.402588	-162.068924
197.128952	1119.556274	1060.392700	1058.117188	103.846138
197.511139	1137.760376	1055.841675	1012.606750	152.777847
197.893280	1101.352051	1021.708862	1076.321289	31.428629
198.275391	1117.280762	1076.321289	1055.841675	149.999695
198.657471	1128.658325	1069.494751	1035.361938	157.692276
199.039520	989.851563	1108.178589	1017.157776	23.076902
199.421539	1089.974487	1087.698975	1071.770264	800.005371
199.803513	1099.076538	1039.912964	1005.780212	157.692169
200.185471	1017.157776	1140.035889	1037.637451	16.666658
200.567383	1053.566162	1124.107300	1117.280762	90.322617
200.949265	1087.698975	1094.525513	987.576050	-1466.671997
201.331131	1042.188477	1128.658325	1108.178589	76.315750
201.712967	1049.015137	1069.494751	1085.423462	177.778381
202.094742	1105.903076	1115.005249	1028.535400	-849.991272
202.476517	1128.658325	1135.484863	1064.943726	-933.336914
202.858231	1128.658325	1055.841675	1110.454102	25.000084
203.239944	1071.770264	1144.586914	1085.423462	18.750105
203.621582	1137.760376	1026.259888	1003.504700	120.408150
204.003235	1108.178589	1037.637451	1117.280762	-12.903355
204.384827	1060.392700	1053.566162	1062.668213	-33.333332
204.766388	1055.841675	1142.311401	1017.157776	-44.736927
205.147934	1092.250000	1105.903076	1058.117188	-250.000900
205.529449	1064.943726	1162.791138	987.576050	-79.069717
205.910904	1140.035889	1124.107300	994.402588	914.288757
206.292343	1037.637451	1151.413574	992.127075	-39.999935
206.673767	1044.463989	1112.729614	1035.361938	-13.333285
207.055115	1044.463989	1137.760376	998.953613	-48.780426
207.436462	1105.903076	1201.474976	1060.392700	-47.618992
207.817780	1078.596802	1119.556274	985.300537	-227.777023
208.199051	1142.311401	1089.974487	978.473938	313.043793
208.580307	1076.321289	1140.035889	1055.841675	-32.142735
208.961517	1094.525513	1064.943726	1019.433350	253.845932
209.342712	1060.392700	1151.413574	1010.331238	-54.999981
209.723846	1074.045776	1112.729614	996.678101	-200.000000
210.104965	1053.566162	1062.668213	1055.841675	25.000000
210.486069	1074.045776	1096.801025	1094.525513	90.000053
210.867111	1074.045776	1117.280762	1017.157776	-131.578629
211.248123	1085.423462	1112.729614	1019.433350	-241.667557
211.629120	1069.494751	1146.862427	1064.943726	-5.882334
212.010071	980.749451	1094.525513	1060.392700	70.000008
212.390991	1026.259888	1119.556274	1069.494751	46.341412
212.771881	1058.117188	1171.893188	1117.280762	52.000046
213.152756	1062.668213	1046.739624	1101.352051	-242.857910
213.533569	998.953613	1085.423462	1049.015137	57.894775
213.914368	1030.810913	1087.698975	960.269775	-123.999893
214.295135	1067.219238	1108.178589	1042.188477	-61.111225
214.675858	1087.698975	1126.382813	1023.984375	-164.705994
215.056549	1103.627563	1151.413574	1064.943726	-80.952225
215.437225	1010.331238	1103.627563	1058.117188	51.219540
215.817841	1101.352051	1080.872437	998.953613	500.001801
216.198441	1019.433350	1142.311401	1071.770264	42.592564
216.579025	1119.556274	1074.045776	1080.872437	84.999809
216.959549	1112.729614	1112.729614	1005.780212	0.000000
217.340057	1021.708862	1115.005249	1030.810913	9.756060
217.720535	1105.903076	1028.535400	1042.188477	82.352997
218.100967	1083.147949	1060.392700	1080.872437	9.999947
218.481369	1096.801025	1049.015137	1046.739624	104.761894
218.861740	1019.433350	1067.219238	1023.984375	9.523786
219.242065	1060.392700	1103.627563	1021.708862	-89.473717
219.622391	1064.943726	1089.974487	1046.739624	-72.726921
220.002670	1055.841675	1137.760376	1051.290649	-5.555539
220.382919	1092.250000	1128.658325	1044.463989	-131.250229
220.763123	1049.015137	1187.821899	1033.086426	-11.475457
221.143295	1028.535400	1121.831787	1051.290649	24.390280
221.523453	1037.637451	1110.454102	1035.361938	-3.124990
221.903549	1135.484863	1087.698975	926.136963	438.095642
222.283630	1096.801025	1055.841675	1026.259888	172.222305
222.663696	1085.423462	1051.290649	1021.708862	186.666718
223.043701	1144.586914	1119.556274	967.096313	709.093323
223.423676	1096.801025	1112.729614	1030.810913	-414.287262
223.803635	1026.259888	1071.770264	1060.392700	75.000069
224.183548	1046.739624	1117.280762	996.678101	-70.967842
224.563431	1083.147949	1096.801025	992.127075	-666.669373
224.943283	1087.698975	1108.178589	1058.117188	-144.445038
225.323105	1130.933838	1105.903076	987.576050	572.726440
225.702881	1023.984375	1096.801025	1042.188477	24.999916
226.082642	1030.810913	1135.484863	1058.117188	26.086983
226.462357	1042.188477	1178.719727	1055.841675	10.000053
226.842041	1083.147949	1099.076538	971.647400	-700.002686
227.221695	1133.209351	1092.250000	1094.525513	94.444458
227.601318	1062.668213	1133.209351	1046.739624	-22.580566
227.980911	960.269775	1187.821899	1087.698975	56.000004
228.360474	1092.250000	1187.821899	1069.494751	-23.809561
228.739990	1033.086426	1167.342163	1039.912964	5.084727
229.119476	1124.107300	1240.158813	1083.147949	-35.294113
229.498932	1092.250000	1265.189575	978.473938	-65.789490
229.878372	1105.903076	1299.322388	1053.566162	-27.058784
230.257736	1080.872437	1299.322388	1039.912964	-18.750050
230.637115	998.953613	1363.036987	1035.361938	9.999996
231.016449	1071.770264	1374.414551	1046.739624	-8.270647
231.395737	1089.974487	1385.792114	1071.770264	-6.153867
231.774994	1067.219238	1235.607788	1064.943726	-1.351346
232.154221	1023.984375	1267.465088	1028.535400	1.869152
232.533417	1030.810913	1242.434326	1060.392700	13.978504
232.912582	1115.005249	1246.985352	1112.729614	-1.724226
233.291702	1026.259888	1274.291626	1092.250000	26.605511
233.670792	1103.627563	1281.118164	1071.770264	-17.948725
234.049866	1121.831787	1258.363037	1076.321289	-33.333393
234.428894	1001.229126	1237.883301	1062.668213	25.961548
234.807892	1119.556274	1253.812012	1046.739624	-54.237274
235.186874	1076.321289	1319.802124	1108.178589	13.084110
235.565781	1083.147949	1308.424438	1028.535400	-24.242455
235.944687	1003.504700	1363.036987	1069.494751	18.354416
236.323547	1083.147949	1269.740601	1030.810913	-28.048820
236.702377	1083.147949	1317.526489	1060.392700	-9.708759
237.081177	1103.627563	1367.588013	1039.912964	-24.137934
237.459946	1060.392700	1338.006226	1055.841675	-1.639338
237.838669	1069.494751	1315.250977	1035.361938	-13.888890
238.217361	1046.739624	1237.883301	1051.290649	2.380945
238.596039	1042.188477	1281.118164	1026.259888	-6.666643
238.974670	1067.219238	1340.281738	1039.912964	-10.000009
239.353271	1039.912964	1235.607788	1028.535400	-5.813932
239.731842	1096.801025	1363.036987	1019.433350	-29.059814
240.110367	1121.831787	1196.923950	1085.423462	-48.484852
240.488876	1044.463989	1392.618774	1069.494751	7.189550
240.867340	1028.535400	1356.210449	1092.250000	19.444447
241.245789	1105.903076	1479.088501	1069.494751	-9.756095
241.624176	1115.005249	1485.915039	1044.463989	-19.018440
242.002548	1069.494751	1479.088501	1155.964600	21.111126
242.380890	998.953613	1558.731689	1096.801025	17.479679
242.759186	1076.321289	1642.926025	1037.637451	-6.827306
243.137451	1010.331238	1847.722900	1135.484863	14.945650
243.515686	1035.361938	1890.957764	1115.005249	9.308520
243.893890	1069.494751	1909.161987	1049.015137	-2.439016
244.272049	1028.535400	1888.682251	1062.668213	3.968254
244.650192	1058.117188	1802.212524	1074.045776	2.140665
245.028290	1023.984375	1704.365112	1099.076538	11.036785
245.406357	1060.392700	1686.160889	1112.729614	8.363626
245.784393	1005.780212	1747.599976	996.678101	-1.226998
246.162384	1035.361938	1617.895264	1101.352051	11.328127
246.540359	1026.259888	1649.752563	1080.872437	8.759132
246.918289	1078.596802	1824.967651	1117.280762	5.182941
247.296204	1096.801025	1988.805176	1058.117188	-4.336733
247.674057	1178.719727	2220.908203	1215.128052	3.493449
248.051895	1137.760376	2521.277100	1199.199463	4.440791
248.429703	1062.668213	2598.644775	1165.066650	6.666667
248.807465	1099.076538	2471.215576	1146.862427	3.482584
249.185196	1096.801025	2471.215576	1240.158813	10.430462
249.562897	1092.250000	2232.285889	1158.240112	5.788424
249.940567	1126.382813	2164.020264	1121.831787	-0.438595
250.318192	1112.729614	1959.223389	1124.107300	1.344096
250.695801	1030.810913	1879.580200	1174.168701	16.890078
251.073349	1028.535400	1840.896362	1051.290649	2.801125
251.450882	1092.250000	1793.110352	1089.974487	-0.324674
251.828400	1099.076538	1752.151001	1089.974487	-1.393723
252.205872	1087.698975	1772.630737	1078.596802	-1.328917
252.583313	1053.566162	1845.447388	1124.107300	8.908045
252.960693	1028.535400	1947.845825	1158.240112	14.108913
253.338074	1092.250000	2016.111450	1196.923950	11.330049
253.715408	1117.280762	1966.049927	1142.311401	2.949051
254.092682	1037.637451	1872.753662	1089.974487	6.267036
254.469955	1076.321289	1806.763550	1083.147949	0.934593
254.847198	1017.157776	1686.160889	1135.484863	17.687077
255.224365	1099.076538	1747.599976	1078.596802	-3.157902
255.601563	1085.423462	1736.222412	1165.066650	12.237756
255.978683	1103.627563	1708.916138	1135.484863	5.263159
256.355743	1033.086426	1765.804199	1124.107300	12.422364
256.732819	1078.596802	1743.048950	1192.372925	17.123299
257.109894	1023.984375	1795.385864	1126.382813	13.274338
257.486877	1105.903076	1745.324463	1137.760376	4.982207
257.863831	1083.147949	1799.937012	1176.444214	13.015861
258.240753	1019.433350	1929.641602	1126.382813	11.749999
258.617645	1096.801025	1975.152100	1124.107300	3.108811
258.994507	1099.076538	2047.968750	1112.729614	1.438844
259.371307	1089.974487	2220.908203	1162.791138	6.438631
259.748108	1089.974487	2200.428711	1226.505737	12.295081
260.124878	1080.872437	2616.848877	1194.648438	7.407405
260.501617	1085.423462	2928.595215	1228.781250	7.777777
260.878296	1064.943726	3208.484375	1272.016113	9.660297
261.254944	1119.556274	3390.525879	1285.669312	7.314630
261.631561	1058.117188	3203.933350	1292.495850	10.922588
262.008179	1096.801025	2876.258301	1196.923950	5.626599
262.384735	1058.117188	2523.552490	1144.586914	5.900617
262.761261	1076.321289	2298.276123	1221.954712	11.918069
263.137695	1083.147949	2218.632813	1206.026001	10.821637
263.514191	1071.770264	2189.051025	1094.525513	2.036664
263.890594	1012.606750	2168.571289	1130.933838	10.236220
264.267029	1074.045776	2177.673340	1128.658325	4.948458
264.643341	1117.280762	2202.704102	1165.066650	4.402512
265.019653	1062.668213	2145.816162	1112.729614	4.621843
265.395935	1083.147949	2175.397949	1162.791138	7.291663
265.772217	985.300537	2125.336426	1053.566162	5.988024
266.148407	1042.188477	2052.519775	1087.698975	4.504512
266.524597	1085.423462	2236.836914	1121.831787	3.162055
266.900726	1062.668213	2243.663574	1199.199463	11.560693
267.276855	1085.423462	2339.235352	1171.893188	6.896547
267.652924	1083.147949	2446.184814	1155.964600	5.342237
268.028992	1028.535400	2462.113525	1128.658325	6.984128
268.404999	1094.525513	2466.664551	1124.107300	2.155889
268.781006	1128.658325	2361.990479	1146.862427	1.476010
269.156921	985.300537	2268.694336	1162.791138	13.829784
269.532837	1105.903076	2336.959961	1137.760376	2.587801
269.908661	1010.331238	2459.837891	1176.444214	11.459967
270.284546	1053.566162	2380.194824	1180.995239	9.605482
270.660339	1039.912964	2491.695313	1165.066650	8.620692
271.036133	1071.770264	2484.868652	1194.648438	8.695656
271.411835	1076.321289	2573.614014	1221.954712	9.726450
271.787537	1035.361938	2853.503174	1240.158813	11.264079
272.163239	1030.810913	2965.003662	1276.567139	12.705881
272.538849	1046.739624	3090.157227	1215.128052	8.240529
272.914459	1010.331238	3144.769775	1237.883301	10.660980
273.290070	1092.250000	2944.523926	1237.883301	7.862406
273.665588	1130.933838	2919.493164	1246.985352	6.488547
274.041046	1055.841675	2949.074951	1349.383789	15.504805
274.416565	1044.463989	2798.890625	1178.719727	7.652400
274.791962	1071.770264	2751.104736	1160.515625	5.284555
275.167389	1092.250000	2687.390137	1165.066650	4.564906
275.542755	1028.535400	2682.839111	1221.954712	11.691887
275.918060	1014.882263	2689.665527	1135.484863	7.201087
276.293365	1053.566162	2698.767578	1208.301514	9.405252
276.668640	1076.321289	2619.124512	1151.413574	4.867263
277.043854	1094.525513	2655.532715	1158.240112	4.081634
277.419037	1092.250000	2757.931152	1217.403687	7.513664
277.794189	1008.055725	2735.176025	1260.638550	14.624506
278.169312	1087.698975	2757.931152	1258.363037	10.217984
278.544373	1014.882263	2776.135498	1144.586914	7.364339
278.919464	1051.290649	2735.176025	1142.311401	5.405401
279.294464	1124.107300	2803.441650	1146.862427	1.355009
279.669464	1071.770264	2771.584229	1187.821899	6.827314
280.044403	1014.882263	2801.166016	1140.035889	7.006369
280.419312	1010.331238	2810.268311	1221.954712	11.757271
280.794189	1087.698975	2848.952148	1228.781250	8.010335
281.169037	1069.494751	2990.034424	1185.546387	6.042657
281.543854	1071.770264	3008.238525	1185.546387	5.875445
281.918671	1110.454102	3076.504150	1187.821899	3.935190
282.293365	1067.219238	3224.413086	1210.577026	6.645568
282.668091	1062.668213	3210.759766	1281.118164	10.169490
283.042786	1112.729614	3379.148438	1267.465088	6.827311
283.417419	1176.444214	3470.169189	1249.260864	3.174602
283.792053	1105.903076	3279.025391	1183.270874	3.560214
284.166595	1080.872437	3192.555664	1249.260864	7.974133
284.541138	1033.086426	3165.249512	1226.505737	9.071507
284.915619	1021.708862	3115.187988	1276.567139	12.173911
285.290100	1169.617676	3358.668701	1287.944824	5.405408
285.664520	1017.157776	3390.525879	1199.199463	7.670183
286.038940	1071.770264	3465.618164	1312.975464	10.076045
286.413300	1042.188477	3476.995850	1310.699951	11.028038
286.787628	1058.117188	3679.517090	1294.771362	9.027779
287.161896	1133.209351	3843.354736	1388.067749	9.403864
287.536194	1012.606750	3718.200928	1353.934937	12.615645
287.910400	1060.392700	3702.272461	1360.761475	11.369509
288.284607	1103.627563	3379.148438	1331.179688	10.000001
288.658752	1017.157776	3306.331787	1315.250977	13.021867
289.032867	1042.188477	3210.759766	1351.659302	14.270724
289.406921	1085.423462	3356.393066	1372.139038	12.625249
289.781006	1030.810913	3372.321777	1276.567139	10.495626
290.154999	1035.361938	3269.923340	1431.302612	17.718943
290.529022	1087.698975	3520.230713	1401.720825	12.909260
290.902954	1101.352051	3690.894775	1383.516602	10.896308
291.276825	1074.045776	3843.354736	1476.812988	14.543961
291.650757	1085.423462	3877.487549	1447.231201	12.958433
292.024597	1101.352051	3922.997803	1442.680176	12.096774
292.398407	1103.627563	3597.598389	1429.027100	13.047448
292.772156	1108.178589	3545.261475	1424.476074	12.978527
293.145905	1058.117188	3404.179199	1444.955688	16.488844
293.519592	1058.117188	3395.077148	1435.853638	16.163582
293.893280	1196.923950	3527.057129	1429.027100	9.960938
294.266907	1076.321289	3595.322754	1472.261963	15.718160
294.640533	989.851563	3638.557861	1576.935913	22.164948
295.014069	978.473938	3918.446777	1545.078613	19.272446
295.387604	1128.658325	4032.222900	1522.323364	13.557992
295.761078	1060.392700	4004.916504	1547.354126	16.537867
296.134552	1135.484863	4041.324951	1463.159912	11.276431
296.507996	1062.668213	4050.427002	1485.915039	14.166031
296.881378	1051.290649	4045.875977	1542.803101	16.413372
297.254730	1076.321289	4289.356934	1606.517700	16.501417
297.628021	962.545288	4607.929688	1590.588989	17.228464
298.001282	1058.117188	4612.480469	1652.028076	16.709347
298.374573	1026.259888	4805.899902	1611.068726	15.472607
298.747803	1101.352051	4644.337891	1592.864502	13.872831
299.121002	1042.188477	4323.489746	1495.017212	13.800280
299.494141	1119.556274	4143.723145	1535.976563	13.769752
299.867188	1074.045776	4107.314941	1517.772339	14.628658
300.240265	1078.596802	3941.202148	1458.608887	13.275043
300.613312	1071.770264	3820.599365	1520.047852	16.307947
300.986328	1089.974487	3818.323975	1467.710938	13.844870
301.359314	1087.698975	3704.547852	1429.027100	13.043479
301.732239	1085.423462	3734.129639	1463.159912	14.261169
302.105103	1014.882263	3781.915527	1583.762451	20.559210
302.477997	1119.556274	3706.823486	1497.292725	14.599824
302.850830	1094.525513	3761.435791	1508.670288	15.529011
303.223602	1053.566162	3806.946289	1529.150024	17.272728
303.596375	1042.188477	3831.977051	1499.568237	16.394783
303.969116	1094.525513	3649.935303	1549.629639	17.809439
304.341766	1099.076538	3552.087891	1454.057739	14.471242
304.714478	1089.974487	3536.159424	1490.466064	16.372087
305.087067	1089.974487	3533.883789	1465.435425	15.363130
305.459656	1069.494751	3645.384277	1451.782227	14.840988
305.832214	1076.321289	3563.465576	1460.884399	15.462034
306.204681	1162.791138	3554.363525	1388.067749	9.419603
306.577148	1030.810913	3506.577637	1458.608887	17.279415
306.949646	1085.423462	3713.649902	1438.129150	13.419912
307.322021	1074.045776	3668.139648	1429.027100	13.684214
307.694397	1039.912964	3579.394287	1495.017212	17.921148
308.066742	1069.494751	3595.322754	1413.098389	13.603603
308.439026	992.127075	3818.323975	1451.782227	16.264090
308.811279	1146.862427	3761.435791	1410.822876	10.095737
309.183502	1019.433350	3948.028564	1456.333252	14.918412
309.555695	983.024963	3954.855225	1479.088501	16.692188
309.927887	1033.086426	3991.263428	1454.057739	14.230768
310.299988	1121.831787	4070.906738	1515.496826	13.348763
310.672058	1103.627563	4064.080078	1508.670288	13.681784
311.044128	1069.494751	4239.295410	1549.629639	15.147162
311.416168	1092.250000	4255.224121	1601.966675	16.115107
311.788147	1085.423462	4159.651855	1495.017212	13.323464
312.160065	1124.107300	4089.110840	1435.853638	10.514198
312.531982	1096.801025	4123.243652	1497.292725	13.233084
312.903870	1089.974487	3954.855225	1485.915039	13.820489
313.275696	1019.433350	3893.416016	1460.884399	15.360254
313.647491	1037.637451	4004.916504	1492.741699	15.337426
314.019318	1153.689087	3763.711426	1435.853638	10.810809
314.391022	1044.463989	3765.986816	1419.924927	13.795986
314.762726	1046.739624	3913.895752	1485.915039	15.317456
315.134369	1074.045776	4023.120850	1495.017212	14.274693
315.505981	1089.974487	4287.081055	1444.955688	11.103203
315.877594	1037.637451	4321.213867	1465.435425	13.028416
316.249146	1099.076538	4127.794922	1467.710938	12.171301
316.620636	1030.810913	3927.548828	1474.537476	15.318148
316.992157	1105.903076	3809.221924	1438.129150	12.289563
317.363586	1035.361938	3836.528076	1442.680176	14.541024
317.735016	1089.974487	3690.894775	1353.934937	10.148732
318.106354	1055.841675	3781.915527	1390.343262	12.270452
318.477722	1044.463989	3784.191162	1406.271851	13.205982
318.849060	1074.045776	3788.742188	1444.955688	13.663035
319.220306	1055.841675	3875.211914	1415.373901	12.752218
319.591522	1083.147949	3963.957275	1378.965576	10.268559
319.962738	1053.566162	3895.691650	1417.649414	12.810246
320.333923	1071.770264	4011.743164	1376.690063	10.371517
320.705017	1092.250000	3843.354736	1388.067749	10.752689
321.076111	1155.964600	3836.528076	1390.343262	8.743634
321.447144	1105.903076	3909.344727	1481.364014	13.392858
321.818176	1094.525513	3699.996826	1381.241089	11.004366
322.189178	1005.780212	3829.701416	1403.996338	14.101531
322.560120	1003.504700	3761.435791	1353.934937	12.706272
322.931030	1110.454102	3613.527100	1410.822876	12.000001
323.301910	1060.392700	3868.385254	1490.466064	15.316043
323.672729	1033.086426	4180.131836	1415.373901	12.147504
324.043549	1021.708862	4369.000000	1495.017212	14.140041
324.414337	1078.596802	4425.888184	1440.404663	10.808974
324.785095	1096.801025	4764.940430	1495.017212	10.856081
325.155792	1092.250000	4667.093262	1572.384888	13.430935
325.526428	1074.045776	4728.532227	1517.772339	12.141968
325.897034	1080.872437	4683.021973	1554.180664	13.139606
326.267670	1035.361938	4391.755371	1438.129150	12.000000
326.638184	1071.770264	4505.531250	1490.466064	12.193504
327.008728	1071.770264	4607.929688	1403.996338	9.395110
327.379211	1130.933838	4532.837402	1438.129150	9.030101
327.749634	1087.698975	4516.908691	1424.476074	9.820837
328.120026	1089.974487	4412.234863	1435.853638	10.410959
328.490417	1083.147949	4434.990234	1440.404663	10.658518
328.860748	1105.903076	4207.437988	1392.618774	9.244316
329.231079	1064.943726	4214.264648	1429.027100	11.560695
329.601318	1055.841675	4227.917480	1515.496826	14.490674
329.971558	1060.392700	4312.111816	1431.302612	11.406579
330.341736	1058.117188	4200.611328	1403.996338	11.006517
330.711914	1101.352051	4209.713379	1388.067749	9.224014
331.082062	1130.933838	4391.755371	1469.986450	10.397767
331.452148	1074.045776	4246.121582	1410.822876	10.616931
331.822174	1064.943726	4275.703613	1388.067749	10.063787
332.192200	1087.698975	4466.847168	1451.782227	10.774409
332.562134	1096.801025	4412.234863	1447.231201	10.569663
332.932129	1046.739624	4621.582520	1472.261963	11.903246
333.302063	1067.219238	4667.093262	1460.884399	10.935526
333.671906	1067.219238	4785.420410	1517.772339	12.117502
334.041718	1092.250000	4846.859375	1451.782227	9.575756
334.411499	1071.770264	4821.828613	1474.537476	10.740292
334.781281	1030.810913	4903.747559	1542.803101	13.219741
335.151001	1112.729614	4808.175293	1551.905151	11.884237
335.520721	1126.382813	4833.206055	1540.527588	11.172499
335.890350	1037.637451	4678.470703	1458.608887	11.562503
336.259979	1085.423462	4642.062500	1476.812988	11.004477
336.629547	1046.739624	4683.021973	1424.476074	10.387985
336.999084	1085.423462	4778.593750	1438.129150	9.550215
337.368622	1017.157776	4805.899902	1474.537476	12.072072
337.738098	1023.984375	4796.797852	1481.364014	12.123038
338.107513	1046.739624	4712.603516	1465.435425	11.421477
338.476898	1049.015137	4737.634277	1458.608887	11.104257
338.846252	1055.841675	4869.614746	1465.435425	10.739857
339.215576	1126.382813	4965.186523	1465.435425	8.832247
339.584869	1158.240112	4758.113770	1483.639526	9.039190
339.954132	1064.943726	4883.267578	1403.996338	8.879620
340.323334	1083.147949	4628.409180	1442.680176	10.141206
340.692505	1060.392700	4578.347656	1520.047852	13.065975
341.061646	1115.005249	4444.092285	1458.608887	10.321258
341.430786	1035.361938	4651.164551	1451.782227	11.516676
341.799896	1096.801025	4805.899902	1540.527588	11.963190
342.168915	976.198425	4830.930664	1456.333252	12.455725
342.537903	1117.280762	5010.696777	1483.639526	9.409700
342.906830	978.473938	5008.421387	1579.211426	14.906832
343.275757	1017.157776	5110.819824	1576.935913	13.674263
343.644684	937.514587	5035.727539	1524.598877	14.325373
344.013550	1078.596802	5183.636230	1567.833862	11.917962
344.382355	1064.943726	5361.126953	1531.425537	10.858052
344.751129	1021.708862	5490.831543	1485.915039	10.386965
345.119873	1080.872437	5784.374023	1576.935913	10.546685
345.488586	1087.698975	5891.323242	1645.201538	11.605874
345.857269	1137.760376	6075.640625	1617.895264	9.723502
346.225891	1067.219238	6118.875488	1649.752563	11.531531
346.594482	1087.698975	6389.662598	1667.956787	10.944205
346.963043	1053.566162	6385.111328	1551.905151	9.346991
347.331543	1053.566162	5850.363770	1611.068726	11.622390
347.700043	1133.209351	5766.169922	1579.211426	9.626719
348.068512	1030.810913	5700.179688	1513.221313	10.331384
348.436951	1069.494751	5479.454102	1524.598877	10.319917
348.805328	1064.943726	5402.086426	1545.078613	11.070305
349.173645	1130.933838	5333.820801	1476.812988	8.229562
349.541931	1060.392700	5395.259766	1492.741699	9.973754
349.910217	1078.596802	5577.301270	1490.466064	9.155286
350.278473	1092.250000	5527.240234	1501.843750	9.235505
350.646667	1067.219238	5763.894043	1570.109375	10.707365
351.014801	1026.259888	5827.608887	1620.170776	12.369667
351.382935	1033.086426	5895.874512	1565.558350	10.949930
351.751007	1128.658325	5688.802246	1579.211426	9.880239
352.119049	1080.872437	5950.486816	1561.007324	9.859814
352.487091	1101.352051	5873.119141	1551.905151	9.442060
352.855072	1033.086426	5786.649414	1561.007324	11.105794
353.222992	1046.739624	5975.517578	1599.691162	11.218837
353.590881	1033.086426	6046.058594	1688.436401	13.073082
353.958740	1092.250000	6255.406738	1720.293701	12.163948
354.326599	1035.361938	6337.325195	1670.232300	11.974250
354.694397	1158.240112	6601.285645	1731.671387	10.535118
355.062134	1037.637451	6703.684082	1686.160889	11.445783
355.429840	1130.933838	6890.276855	1679.334351	9.521929
355.797516	1101.352051	6960.818359	1683.885376	9.941747
356.165192	1046.739624	7017.706055	1642.926025	9.984756
356.532776	1044.463989	7233.880859	1749.875488	11.397058
356.900360	1083.147949	7445.503906	1774.906250	10.872675
357.267883	1078.596802	7588.861816	1829.518677	11.534429
357.635376	1071.770264	8087.201172	1843.171875	10.995784
358.002808	1069.494751	8262.416016	1793.110352	10.060107
358.370270	1080.872437	8756.204102	1966.049927	11.532759
358.737640	1062.668213	8722.071289	2022.937988	12.537135
359.105011	1055.841675	8494.519531	1859.100464	10.798409
359.472321	1062.668213	8162.292969	1909.161987	11.923078
359.839569	1049.015137	8182.772949	1763.528564	10.015947
360.206787	1037.637451	7930.189941	1768.079712	10.597558
360.574005	1023.984375	8296.548828	1863.651489	11.545681
360.941193	1046.739624	8801.714844	1963.774414	11.825116
361.308319	1003.504700	9165.797852	1945.570313	11.541678
361.675415	1008.055725	9964.505859	2059.346436	11.737806
362.042450	1110.454102	10690.396484	2152.642578	10.878860
362.409424	1008.055725	11115.918945	2168.571289	11.481315
362.776428	1046.739624	11099.990234	2107.132324	10.547759
363.143402	1071.770264	10804.172852	2132.163086	10.895489
363.510284	1094.525513	9932.648438	2129.887451	11.714726
363.877136	1092.250000	9236.338867	2025.213501	11.455713
364.243988	1121.831787	8503.621094	1929.641602	10.943279
364.610779	1105.903076	8071.272461	1884.131226	11.172820
364.977539	1058.117188	7964.322754	1847.722900	11.433278
365.344269	1017.157776	7775.454590	1852.273926	12.356902
365.710938	1039.912964	7641.198730	1854.549438	12.340573
366.077576	1019.433350	7427.299805	1831.794189	12.677556
366.444183	1001.229126	7334.003418	1743.048950	11.713979
366.810760	1044.463989	7447.779785	1765.804199	11.265104
367.177277	998.953613	7525.147461	1797.661377	12.238493
367.543823	1055.841675	7436.401855	1886.406738	13.017118
367.910248	1039.912964	7390.891602	1906.886475	13.651023
368.276642	1049.015137	7236.156250	1868.202637	13.240162
368.643036	1058.117188	7447.779785	1813.590088	11.823361
369.009399	1110.454102	7124.655762	1736.222412	10.404844
369.375671	1051.290649	7142.859863	1786.283813	12.065744
369.741974	1042.188477	6938.062988	1793.110352	12.736395
370.108215	1142.311401	7004.053223	1770.355225	10.714287
370.474396	1037.637451	7111.002441	1884.131226	13.937804
370.840546	1085.423462	7145.135254	1740.773438	10.814870
371.206665	1021.708862	7274.839844	1720.293701	11.171762
371.572784	1089.974487	7288.493164	1822.692139	11.820851
371.938843	1008.055725	7570.657715	1824.967651	12.447989
372.304840	1110.454102	7418.197754	1781.732788	10.642137
372.670807	1078.596802	7618.443848	1863.651489	12.004175
373.036713	1055.841675	7472.810547	1836.345337	12.163121
373.402649	1026.259888	7368.136230	1838.620850	12.809473
373.768524	985.300537	7363.585449	1818.141113	13.057437
374.134308	1017.157776	7447.779785	1920.539551	14.048124
374.500122	980.749451	7409.095703	1854.549438	13.592920
374.865875	1049.015137	7818.689453	1852.273926	11.865545
375.231567	1112.729614	7859.648926	1922.815063	12.006745
375.597260	1071.770264	7848.271484	2004.733887	13.767631
375.962891	1033.086426	7902.883789	1993.356201	13.978138
376.328461	1078.596802	8394.396484	1997.907227	12.566096
376.694031	1055.841675	8335.232422	1997.907227	12.941545
377.059540	1094.525513	8699.316406	1993.356201	11.819269
377.425049	1112.729614	8945.072266	2084.376953	12.405578
377.790497	1087.698975	9263.645508	2207.255127	13.693292
378.155945	1089.974487	9614.075195	2289.173828	14.068338
378.521301	1121.831787	9611.799805	2182.224365	12.489948
378.886597	1060.392700	9275.022461	2173.122314	13.545706
379.251892	1142.311401	8906.388672	2150.367188	12.983588
379.617157	1074.045776	8565.060547	2136.714111	14.185906
379.982422	1039.912964	8351.161133	2043.417725	13.725492
380.347595	1094.525513	8178.221680	2032.040039	13.234821
380.712738	1053.566162	8278.344727	1981.978638	12.850394
381.077820	1021.708862	8230.558594	2043.417725	14.172980
381.442902	989.851563	8403.498047	1991.080688	13.505219
381.807953	1126.382813	8319.303711	2002.458252	12.179689
382.172974	1085.423462	8480.866211	2009.284912	12.492308
382.537933	1021.708862	8114.507324	2052.519775	14.533205
382.902832	1001.229126	8291.998047	2072.999512	14.700375
383.267700	1112.729614	8330.681641	2111.683350	13.839849
383.632538	1023.984375	8269.242188	2013.835938	13.662062
383.997345	1099.076538	8594.641602	2113.958740	13.539769
384.362152	1046.739624	8844.949219	2150.367188	14.152320
384.726898	1049.015137	8976.929688	2184.500000	14.322618
385.091553	1092.250000	8854.051758	2164.020264	13.808267
385.456238	1060.392700	8872.255859	2150.367188	13.952810
385.820862	1069.494751	9113.460938	2164.020264	13.606789
386.185425	1083.147949	8942.796875	2236.836914	14.678633
386.549988	1055.841675	9006.511719	2234.561523	14.825416
386.914490	1053.566162	9281.849609	2275.520752	14.850663
387.278961	1080.872437	9422.931641	2275.520752	14.320784
387.643372	980.749451	9407.002930	2309.653564	15.770994
388.007782	1105.903076	9566.289063	2302.827148	14.147393
388.372101	1083.147949	9545.809570	2400.674561	15.568702
388.736450	1078.596802	9447.961914	2389.296875	15.660686
389.100739	1092.250000	9475.268555	2359.715088	15.119435
389.464966	998.953613	9379.696289	2227.734863	14.661963
389.829163	1033.086426	9320.533203	2241.387939	14.579900
390.193329	1089.974487	9163.522461	2225.459229	14.064260
390.557495	1001.229126	9193.104492	2225.459229	14.944442
390.921570	1049.015137	9413.829102	2275.520752	14.662676
391.285614	1053.566162	9598.146484	2236.836914	13.848203
391.649597	1101.352051	10248.945313	2500.797363	15.298508
392.013550	1055.841675	10742.733398	2423.429688	14.117924
392.377502	1062.668213	10817.826172	2443.909424	14.159085
392.741455	1119.556274	10952.082031	2507.624023	14.117104
393.105316	1026.259888	10963.458984	2530.379150	15.136250
393.469086	1037.637451	10565.243164	2425.705078	14.568903
393.832886	1080.872437	10444.640625	2484.868652	14.993922
394.196655	1012.606750	10553.865234	2541.756836	16.026712
394.560333	1039.912964	10647.162109	2530.379150	15.513975
394.924042	1058.117188	10733.631836	2466.664551	14.557855
395.287659	1042.188477	10738.182617	2464.388916	14.667917
395.651245	1005.780212	10763.213867	2550.858887	15.834888
396.014771	1121.831787	10476.498047	2414.327637	13.816590
396.378296	1037.637451	10114.690430	2471.215576	15.793431
396.741791	1110.454102	9798.392578	2334.684326	14.091147
397.105255	1062.668213	9684.616211	2273.245361	14.040645
397.468628	1076.321289	9450.238281	2291.449463	14.510870
397.832001	1014.882263	9427.482422	2302.827148	15.309711
398.195313	1049.015137	9650.483398	2327.857666	14.867723
398.558624	1092.250000	9402.452148	2350.613037	15.142387
398.921844	1087.698975	9582.217773	2293.724854	14.197696
399.285095	1026.259888	9602.698242	2330.133301	15.202971
399.648254	1089.974487	9675.514648	2248.214600	13.490591
400.011383	1042.188477	9741.504883	2336.959961	14.883600
400.374451	1126.382813	9723.300781	2343.786377	14.160931
400.737549	1067.219238	9645.932617	2200.428711	13.209551
401.100586	1094.525513	9591.320313	2352.888428	14.809854
401.463562	1078.596802	9645.932617	2273.245361	13.944224
401.826508	994.402588	9946.301758	2307.378174	14.667006
402.189392	1099.076538	9866.658203	2334.684326	14.092914
402.552246	1030.810913	9686.891602	2179.948975	13.275500
402.915070	1126.382813	9918.995117	2209.530762	12.318841
403.277893	1044.463989	10148.823242	2291.449463	13.696576
403.640656	1055.841675	10289.905273	2334.684326	13.849186
404.003326	1042.188477	10640.334961	2332.408936	13.442391
404.366028	1001.229126	10806.448242	2336.959961	13.622652
404.728699	1051.290649	11036.276367	2332.408936	12.830447
405.091248	1037.637451	11475.451172	2528.103516	14.279486
405.453857	1110.454102	11366.226563	2398.398926	12.558243
405.816345	1121.831787	11357.124023	2450.735840	12.983548
406.178833	1062.668213	11377.604492	2341.510986	12.397970
406.541260	1135.484863	11416.288086	2443.909424	12.726871
406.903687	1108.178589	10983.938477	2382.470215	12.903226
407.266052	1028.535400	10936.153320	2371.092773	13.550758
407.628387	1076.321289	10756.386719	2227.734863	11.894688
407.990662	1069.494751	10565.243164	2311.929199	13.084113
408.352905	1119.556274	10797.346680	2175.397949	10.909946
408.715118	1096.801025	10676.743164	2300.551514	12.565321
409.077332	1076.321289	10442.365234	2223.183838	12.244898
409.439484	1096.801025	10679.019531	2202.704102	11.541201
409.801575	1010.331238	10783.693359	2266.418701	12.852152
410.163605	1080.872437	11179.633789	2270.969727	11.784586
410.525635	1051.290649	11074.959961	2275.520752	12.213393
410.887604	1087.698975	11384.430664	2343.786377	12.198895
411.249573	1130.933838	11400.359375	2198.153076	10.392200
411.611481	1058.117188	11566.472656	2175.397949	10.632308
411.973328	1021.708862	11209.215820	2309.653564	12.642393
412.335144	1030.810913	11475.451172	2200.428711	11.198258
412.696930	1035.361938	11079.510742	2302.827148	12.618941
413.058685	1078.596802	11102.265625	2170.846924	10.896709
413.420410	1080.872437	11065.857422	2070.723877	9.913399
413.782104	1074.045776	11131.847656	2134.438477	10.542987
414.143707	1060.392700	11250.174805	2134.438477	10.540420
414.505310	1012.606750	11272.929688	2113.958740	10.734087
414.866852	1099.076538	11477.726563	2168.571289	10.304757
415.228394	1067.219238	11525.512695	2152.642578	10.378590
415.589874	1078.596802	11586.952148	2161.744873	10.307493
415.951324	1128.658325	11805.402344	2102.581299	9.121910
416.312683	1101.352051	12183.138672	2152.642578	9.486651
416.674072	1060.392700	12422.068359	2104.856689	9.192869
417.035370	998.953613	12674.650391	2116.234375	9.569285
417.396667	1012.606750	12852.141602	2220.908203	10.205650
417.757935	1049.015137	13141.132813	2239.112549	9.841928
418.119141	1062.668213	13755.523438	2225.459229	9.160989
418.480286	1051.290649	13846.543945	2323.306641	9.941312
418.841400	1062.668213	14690.762695	2248.214600	8.699282
419.202484	1055.841675	15052.570313	2252.765625	8.551455
419.563568	1112.729614	15619.174805	2307.378174	8.235295
419.924591	1092.250000	16490.699219	2391.572266	8.438007
420.285553	1060.392700	16729.628906	2366.541748	8.335754
420.646484	1087.698975	17785.470703	2500.797363	8.462796
421.007355	1110.454102	18261.054688	2521.277100	8.226085
421.368225	1060.392700	19087.068359	2571.338623	8.381722
421.729065	1014.882263	19485.285156	2694.216553	9.092029
422.089874	1069.494751	20008.654297	2769.308838	8.975129
422.450592	1085.423462	20354.533203	2694.216553	8.349078
422.811279	1010.331238	19917.632813	2641.879639	8.629197
423.171936	1060.392700	19933.562500	2628.226563	8.307210
423.532593	1010.331238	19567.203125	2625.950928	8.706315
423.893127	1019.433350	19942.664063	2735.176025	9.066859
424.253723	1039.912964	20397.767578	2778.410889	8.980840
424.614197	1039.912964	20456.931641	2726.073975	8.683933
424.974670	1137.760376	21091.802734	2812.543701	8.393203
425.335052	1087.698975	21280.669922	2735.176025	8.158666
425.695496	1087.698975	19999.552734	2705.594238	8.554927
426.055817	1008.055725	20254.410156	2785.237549	9.233863
426.416168	985.300537	20156.562500	2714.696289	9.020772
426.776398	1064.943726	19171.263672	2653.257324	8.772150
427.136627	1058.117188	18213.267578	2628.226563	9.152408
427.496826	992.127075	17753.613281	2571.338623	9.421668
427.856995	1060.392700	17266.652344	2546.307861	9.168773
428.217102	1046.739624	16506.626953	2521.277100	9.537827
428.577179	1053.566162	16518.005859	2514.450439	9.446733
428.937195	1042.188477	16304.106445	2343.786377	8.528403
429.297180	1028.535400	15616.899414	2416.603027	9.514895
429.657135	1076.321289	15484.918945	2398.398926	9.175616
430.017059	1085.423462	15980.982422	2368.817139	8.615949
430.376984	1030.810913	15425.755859	2400.674561	9.516282
430.736786	1014.882263	15437.132813	2384.745850	9.498264
431.096588	1044.463989	15018.437500	2398.398926	9.688976
431.456360	1094.525513	15496.296875	2296.000488	8.342550
431.816071	985.300537	14840.946289	2334.684326	9.738873
432.175781	1064.943726	14911.488281	2348.337402	9.268693
432.535400	1110.454102	15455.336914	2293.724854	8.248731
432.895020	1030.810913	15170.897461	2339.235352	9.253299
433.254578	1019.433350	15327.908203	2355.164063	9.335242
433.614105	1026.259888	15457.613281	2280.071777	8.688110
433.973602	1101.352051	15557.735352	2366.541748	8.751772
434.333038	1003.504700	15830.797852	2364.266113	9.177410
434.692444	1044.463989	15812.593750	2359.715088	8.906010
435.051819	1083.147949	16103.860352	2305.102539	8.135131
435.411133	1049.015137	16165.299805	2432.531738	9.152491
435.770416	989.851563	15387.071289	2252.765625	8.771930
436.129669	1049.015137	16274.524414	2332.408936	8.429234
436.488861	996.678101	15644.205078	2232.285889	8.435607
436.848083	1023.984375	15910.441406	2282.347412	8.453073
437.207184	1046.739624	15785.288086	2159.469238	7.549791
437.566254	1039.912964	16263.147461	2243.663574	7.907325
437.925293	987.576050	15992.360352	2261.867676	8.492569
438.284363	1101.352051	16265.422852	2280.071777	7.773109
438.643311	1089.974487	16663.638672	2307.378174	7.817067
439.002258	1117.280762	16586.271484	2255.041016	7.355103
439.361145	1108.178589	17146.048828	2259.592041	7.179341
439.719971	1051.290649	17505.582031	2334.684326	7.799751
440.078827	985.300537	17603.429688	2325.582275	8.065178
440.437592	1062.668213	18395.310547	2330.133301	7.312590
440.796295	1028.535400	18802.628906	2275.520752	7.015747
441.155029	1119.556274	19640.019531	2446.184814	7.163042
441.513672	1096.801025	20345.431641	2380.194824	6.667455
441.872253	1028.535400	20306.748047	2361.990479	6.916902
442.230865	1117.280762	19517.142578	2346.062012	6.678209
442.589386	1078.596802	19717.388672	2355.164063	6.848981
442.947876	1060.392700	19426.121094	2332.408936	6.926032
443.306335	1110.454102	18982.394531	2321.031250	6.773619
443.664764	1112.729614	18224.646484	2136.714111	5.984044
444.023102	1044.463989	18793.525391	2220.908203	6.628205
444.381500	1085.423462	18377.105469	2154.918213	6.185025
444.739777	1026.259888	18600.107422	2202.704102	6.694289
445.098022	1094.525513	18734.363281	2302.827148	6.849845
445.456238	1033.086426	18656.994141	2204.979736	6.649452
445.814423	1085.423462	19483.009766	2382.470215	7.050092
446.172577	1023.984375	20320.400391	2350.613037	6.875000
446.530701	1101.352051	20468.310547	2402.949951	6.720714
446.888733	1060.392700	21344.384766	2496.246338	7.078753
447.246765	1076.321289	22152.195313	2489.419678	6.704815
447.604736	1064.943726	21137.312500	2450.735840	6.903979
447.962677	1049.015137	21756.253906	2584.991699	7.417583
448.320587	1046.739624	21904.164063	2503.072998	6.982326
448.678436	1019.433350	21389.896484	2541.756836	7.473190
449.036255	1128.658325	21253.365234	2562.236328	7.123473
449.394043	1017.157776	19949.490234	2462.113525	7.632213
449.751770	1087.698975	20347.707031	2439.358398	7.017959
450.109467	998.953613	19626.367188	2505.348389	8.086977
450.467163	1064.943726	19517.142578	2462.113525	7.571834
450.824768	1060.392700	19232.701172	2566.787354	8.289506
451.182343	1069.494751	19025.628906	2550.858887	8.249906
451.539886	1064.943726	18356.626953	2475.766602	8.158968
451.897369	989.851563	18468.126953	2580.440674	9.100378
452.254822	1099.076538	18201.890625	2582.716064	8.674827
452.612274	1101.352051	18759.392578	2653.257324	8.788660
452.969635	1023.984375	18656.994141	2762.482178	9.859337
453.326965	1044.463989	18538.667969	2757.931152	9.794485
453.684326	1042.188477	18513.636719	2776.135498	9.924460
454.041534	1014.882263	17922.001953	2771.584229	10.390309
454.398773	1023.984375	17576.123047	2883.084961	11.231785
454.755951	1062.668213	17173.355469	2812.543701	10.861582
455.113098	1023.984375	16866.160156	2803.441650	11.232405
455.470215	1158.240112	16754.660156	2912.666504	11.248904
455.827240	1060.392700	16736.455078	2946.799316	12.033676
456.184265	1078.596802	16413.332031	3085.606201	13.087995
456.541260	1062.668213	16793.343750	3181.177979	13.467380
456.898193	1105.903076	16447.464844	3183.453613	13.541976
457.255096	1033.086426	16984.486328	3313.158203	14.293866
457.611969	1069.494751	16624.955078	3285.852051	14.248099
457.968781	1071.770264	16590.822266	3424.658691	15.161290
458.325531	1105.903076	17234.794922	3436.036377	14.446953
458.682312	1049.015137	17908.349609	3734.129639	15.926575
459.039001	1071.770264	18868.619141	3863.834229	15.688529
459.395630	1039.912964	19703.734375	4039.049316	16.069250
459.752289	1014.882263	21005.332031	4530.562012	17.586798
460.108856	1023.984375	22919.044922	4844.583984	17.449596
460.465363	1049.015137	23478.824219	5210.942871	18.555342
460.821899	1103.627563	23817.876953	5226.871094	18.152674
461.178345	1053.566162	22702.871094	5226.871094	19.276854
461.534760	1076.321289	22275.072266	5154.054688	19.235725
461.891144	1076.321289	21722.121094	5060.758301	19.299019
462.247467	1014.882263	20588.912109	5131.299316	21.029993
462.603760	1103.627563	20174.767578	5106.268555	20.987947
462.960052	1053.566162	18697.955078	4846.859375	21.498581
463.316254	1092.250000	18443.095703	4835.481934	21.573772
463.672424	1092.250000	18231.472656	4944.706543	22.477428
464.028564	1101.352051	17516.958984	4799.073242	22.525644
464.384644	1140.035889	17380.427734	4976.563965	23.623371
464.740723	1021.708862	18072.185547	5126.748535	24.075806
465.096741	1014.882263	17683.072266	5049.380859	24.204781
465.452698	1003.504700	17407.734375	5183.636230	25.482033
465.808655	960.269775	17696.724609	5247.351074	25.615227
466.164520	1069.494751	17623.908203	5192.738281	24.907215
466.520355	1044.463989	18358.902344	5563.648438	26.100672
466.876190	1155.964600	18256.503906	5741.139160	26.813042
467.231964	1049.015137	18616.035156	5763.894043	26.839378
467.587677	1037.637451	18975.568359	6009.650391	27.717871
467.943390	1094.525513	19332.824219	6121.150879	27.560823
468.299011	1158.240112	18661.546875	5961.864258	27.444094
468.654633	1149.138062	18506.810547	5914.078613	27.451494
469.010223	1021.708862	18540.943359	6109.773438	29.042732
469.365723	1167.342163	18067.634766	5993.721680	28.557962
469.721191	1117.280762	18183.687500	6114.324219	29.279999
470.076660	1110.454102	17396.357422	5973.242188	29.858879
470.432068	1062.668213	17928.828125	6162.110352	30.234756
470.787445	1042.188477	17601.154297	6005.099609	29.971144
471.142792	1078.596802	17464.623047	6328.223145	32.037216
471.498016	1064.943726	17767.265625	6325.947754	31.498638
471.853271	1042.188477	17790.021484	6287.264160	31.317938
472.208496	1055.841675	17937.929688	6478.407715	32.120232
472.563660	1012.606750	18042.603516	6505.713867	32.255478
472.918762	1115.005249	18251.953125	6530.744629	31.602707
473.273865	1112.729614	18684.300781	6856.144043	32.685837
473.628876	1026.259888	18934.609375	7158.788574	34.243965
473.983917	1071.770264	18932.333984	7047.288086	33.456490
474.338837	1071.770264	19143.957031	7181.543457	33.807602
474.693787	1101.352051	19096.169922	7224.778320	34.028831
475.048645	1058.117188	18757.117188	7104.175781	34.160454
475.403503	1089.974487	19314.621094	7302.146484	34.086651
475.758270	1010.331238	19519.417969	7527.422852	35.210232
476.113037	1035.361938	19298.691406	7359.034180	34.624969
476.467773	1117.280762	19746.968750	7525.147461	34.395996
476.822418	1174.168701	20825.566406	8062.170410	35.050949
477.177063	1010.331238	20247.583984	8030.312988	36.491604
477.531647	1028.535400	20880.179688	8187.323730	36.061436
477.886200	1005.780212	21494.570313	8831.295898	38.194130
478.240723	1044.463989	22108.960938	8690.213867	36.296856
478.595184	1074.045776	22113.511719	8769.857422	36.577976
478.949585	1089.974487	22677.839844	9081.603516	37.019077
479.303986	1076.321289	22805.269531	9067.950195	36.778717
479.658325	992.127075	23267.201172	9165.797852	36.694248
480.012634	1074.045776	22919.044922	9432.034180	38.260418
480.366913	1010.331238	23863.386719	9623.177734	37.687946
480.721130	1062.668213	24375.378906	10071.455078	38.643242
481.075317	1144.586914	25124.025391	10187.506836	37.711143
481.429474	1042.188477	26345.980469	10633.508789	37.904675
481.783569	1074.045776	27096.902344	11279.756836	39.218258
482.137604	1076.321289	28489.519531	11907.800781	39.511913
482.491669	1101.352051	31129.125000	12931.785156	39.398304
482.845612	989.851563	34688.039063	14033.136719	38.706192
483.199554	1037.637451	38736.191406	16436.085938	40.846256
483.553436	1030.810913	45319.273438	19050.660156	40.687458
483.907318	1092.250000	52503.089844	22334.236328	41.318108
484.261139	1108.178589	57998.472656	25761.171875	43.334270
484.614899	1099.076538	59985.003906	27668.056641	45.119408
484.968628	1105.903076	59912.187500	27613.445313	45.076038
485.322357	1058.117188	57973.445313	25906.804688	43.659042
485.675964	1133.209351	54819.570313	23993.091797	42.580429
486.029572	1110.454102	51119.574219	21983.806641	41.739090
486.383148	969.371887	47931.570313	20441.003906	41.462353
486.736694	1028.535400	45879.050781	19533.070313	41.258244
487.090149	1074.045776	45740.242188	19710.560547	41.723984
487.443604	1069.494751	46859.800781	20288.542969	41.971874
487.796997	1071.770264	48165.949219	21073.597656	42.471973
488.150360	1067.219238	50236.671875	22170.398438	42.919289
488.503693	1042.188477	50939.808594	22391.125000	42.785480
488.856964	1071.770264	49988.640625	22061.173828	42.908314
489.210175	1051.290649	47296.699219	20898.382813	42.916889
489.563416	1046.739624	44905.128906	19467.080078	41.999580
489.916565	1110.454102	42374.750000	18481.779297	42.097710
490.269653	1083.147949	39924.011719	17628.458984	42.597691
490.622772	1115.005249	38645.167969	17039.099609	42.430122
490.975769	1035.361938	38567.800781	17111.916016	42.833759
491.328735	1083.147949	40046.890625	17810.501953	42.930561
491.681732	1049.015137	42024.316406	18870.894531	43.494198
492.034607	1042.188477	44613.859375	20302.197266	44.203049
492.387482	1017.157776	45430.773438	20381.839844	43.600777
492.740326	1099.076538	44852.789063	19696.908203	42.505726
493.093079	1028.535400	42939.078125	19437.498047	43.924419
493.445862	1021.708862	39093.449219	17858.287109	44.223293
493.798523	1033.086426	36228.566406	16420.158203	43.718887
494.151215	1101.352051	33502.492188	14959.273438	42.769859
494.503815	1058.117188	30969.837891	13976.249023	43.187527
494.856384	1064.943726	29026.542969	13336.827148	43.888348
495.208923	1046.739624	28182.324219	12972.744141	43.949688
495.561432	1117.280762	27435.955078	12604.109375	43.645164
495.913879	1083.147949	26468.857422	12579.079102	45.285053
496.266296	1049.015137	26971.748047	12729.263672	45.057934
496.618683	1080.872437	26951.267578	12563.150391	44.383854
496.970978	1110.454102	27611.169922	12647.344727	43.534264
497.323273	1035.361938	27891.058594	12963.641602	44.416195
497.675507	1021.708862	28519.101563	13325.450195	44.745121
498.027710	1099.076538	28473.591797	13177.541016	44.123028
498.379852	1094.525513	27704.464844	12786.151367	43.937065
498.731995	1049.015137	27572.486328	13056.938477	45.272823
499.084076	1121.831787	27021.808594	12747.467773	44.886665
499.436096	1089.974487	26910.308594	12478.956055	44.108574
499.788086	1078.596802	26250.408203	12456.201172	45.199787
500.140106	1087.698975	26009.203125	12201.342773	44.594593
500.491943	1085.423462	25126.300781	11873.667969	44.874588
500.843842	1117.280762	24819.105469	11807.677734	45.103687
501.195679	1046.739624	23968.060547	11489.104492	45.557434
501.547455	1076.321289	24206.990234	11593.778320	45.469749
501.899231	1053.566162	23747.335938	11216.041992	44.780907
502.250885	983.024963	23642.660156	11441.318359	46.153847
502.602600	1010.331238	23276.302734	11140.950195	45.498215
502.954193	1101.352051	23287.679688	11216.041992	45.589741
503.305786	1105.903076	23066.955078	11304.787109	46.440777
503.657379	1094.525513	23490.201172	11213.766602	45.183907
504.008820	1089.974487	23365.046875	11325.266602	45.949535
504.360291	1080.872437	23892.968750	11541.441406	45.855362
504.711700	1026.259888	24034.050781	11691.625977	46.355453
505.063080	1058.117188	24243.398438	11816.779297	46.402985
505.414368	1017.157776	24102.316406	11543.716797	45.598816
505.765656	1028.535400	23754.162109	11352.573242	45.429058
506.116943	1033.086426	23658.589844	11220.592773	45.026646
506.468109	1060.392700	23633.558594	11336.644531	45.524193
506.819305	955.718750	23269.476563	11259.277344	46.175812
507.170410	1030.810913	23540.261719	11348.022461	45.835022
507.521484	1049.015137	23501.578125	11454.971680	46.346413
507.872559	1051.290649	23635.833984	11343.471680	45.571793
508.223480	1053.566162	23506.128906	11475.451172	46.417351
508.574493	1035.361938	24350.347656	11794.024414	46.144836
508.925385	1110.454102	24232.021484	11916.902344	46.737526
509.276245	1126.382813	24641.615234	12032.954102	46.380878
509.627045	1101.352051	25269.658203	12142.178711	45.683079
509.977814	1069.494751	25240.076172	12205.893555	46.074184
510.328613	1051.290649	25167.259766	12312.842773	46.697487
510.679260	1037.637451	25410.740234	12372.006836	46.503593
511.029999	1064.943726	26027.406250	12478.956055	45.724705
511.380585	1110.454102	25783.925781	12613.211914	46.619938
511.731140	1062.668213	26396.041016	12667.824219	45.809757
512.081726	1074.045776	26434.724609	12761.121094	46.083447
512.432129	1089.974487	26805.634766	12745.192383	45.323425
512.782654	1042.188477	26721.441406	12811.181641	45.830746
513.133057	1042.188477	26725.992188	12831.662109	45.902363
513.483398	1030.810913	26682.757813	12726.988281	45.595673
513.833801	1012.606750	26883.001953	12863.519531	45.808784
514.183960	1003.504700	26491.613281	12695.130859	45.870903
514.534302	1092.250000	26061.539063	12497.160156	45.675751
514.884460	1151.413574	26355.082031	12519.915039	45.106537
515.234619	1108.178589	25909.080078	12529.017578	46.050095
515.584717	1124.107300	25827.160156	12529.017578	46.168018
515.934753	1094.525513	25938.662109	12633.691406	46.446236
516.284851	1124.107300	26377.837891	12542.670898	45.215355
516.634766	1130.933838	26582.634766	12795.253906	45.829235
516.984741	1101.352051	27101.453125	12949.989258	45.571503
517.334595	1089.974487	27636.199219	13295.868164	45.979771
517.684448	1101.352051	28589.642578	13707.737305	45.860928
518.034363	1096.801025	29775.189453	14153.739258	45.528843
518.384094	1033.086426	30981.214844	14863.702148	46.181900
518.733826	1064.943726	31898.250000	15448.510742	46.649448
519.083496	992.127075	32942.714844	15703.369141	46.043728
519.433167	1085.423462	33350.031250	15707.919922	45.320545
519.782776	1055.841675	33099.726563	15760.256836	45.888367
520.132324	1069.494751	32849.417969	15343.836914	44.916225
520.481873	1019.433350	32155.384766	15359.765625	46.057152
520.831299	1053.566162	31277.033203	14570.160156	44.722183
521.180786	1030.810913	30674.019531	14467.761719	45.328938
521.530151	1019.433350	29877.587891	14226.555664	45.765652
521.879517	1110.454102	29128.941406	14181.045898	46.649883
522.228882	1085.423462	29019.716797	14119.606445	46.660149
522.578064	1080.872437	29131.216797	13837.442383	45.477413
522.927307	1105.903076	28921.869141	14012.657227	46.400524
523.276489	1087.698975	28976.482422	13748.696289	45.398170
523.625610	1080.872437	29763.812500	14012.657227	45.085285
523.974792	1046.739624	30175.681641	14224.280273	45.238655
524.323792	1055.841675	30758.214844	14690.762695	45.905155
524.672852	1149.138062	31008.521484	14774.957031	45.633293
525.021790	1001.229126	32387.488281	15421.204102	45.943592
525.370728	1037.637451	34075.925781	15955.952148	45.154621
525.719604	1103.627563	35575.492188	16752.384766	45.395737
526.068420	1117.280762	37295.785156	17580.673828	45.506008
526.417297	1010.331238	38852.242188	18477.228516	46.157543
526.765991	1039.912964	40219.832031	19082.517578	46.050648
527.114746	1021.708862	41394.000000	19371.507813	45.451466
527.463379	1051.290649	42413.433594	20022.306641	45.865646
527.812012	1146.862427	45128.128906	21289.773438	45.798843
528.160706	1087.698975	48789.441406	22975.933594	45.885609
528.509155	1126.382813	53490.667969	26120.703125	47.731617
528.857727	1117.280762	57636.667969	28455.386719	48.369431
529.206177	1044.463989	59723.320313	30908.398438	50.893860
529.554565	1044.463989	60041.890625	30928.878906	50.653759
529.902893	1117.280762	58897.304688	29995.916016	49.980309
530.251221	1103.627563	56872.089844	28111.783203	48.429085
530.599548	1069.494751	53677.261719	25574.578125	46.580734
530.947876	1067.219238	50077.386719	23767.814453	46.318134
531.296021	1096.801025	46306.847656	22013.388672	46.265354
531.644165	1078.596802	43284.957031	20220.277344	45.352596
531.992249	1078.596802	41457.714844	19344.203125	45.235275
532.340454	1101.352051	40795.535156	18973.292969	45.024082
532.688354	1094.525513	40647.628906	19030.179688	45.345760
533.036438	1092.250000	41871.859375	19439.773438	44.991905
533.384338	1080.872437	44229.296875	20764.126953	45.617550
533.732239	987.576050	46543.503906	21779.009766	45.639359
534.080139	1026.259888	47260.292969	22065.724609	45.506447
534.427917	1021.708862	46543.503906	21851.826172	45.758556
534.775757	1074.045776	44293.011719	20582.085938	45.137688
535.123474	1096.801025	42265.523438	19765.173828	45.346008
535.471191	1019.433350	39933.113281	18443.095703	44.775158
535.818848	1064.943726	38665.648438	17749.062500	44.371826
536.166382	1049.015137	37241.171875	17587.500000	45.696323
536.513977	1115.005249	37566.574219	17416.835938	44.721889
536.861511	1026.259888	38142.281250	17846.910156	45.319111
537.208984	1042.188477	38155.933594	17701.275391	44.886566
537.556396	1121.831787	37910.175781	17794.572266	45.320713
537.903809	1083.147949	36893.019531	17237.070313	45.110249
538.251160	1060.392700	36135.269531	16811.546875	44.907230
538.598389	1094.525513	34929.246094	16222.187500	44.710472
538.945740	1023.984375	33409.195313	15657.858398	45.186905
539.292969	1021.708862	32917.683594	15343.836914	44.902618
539.640137	1049.015137	32640.070313	15418.928711	45.487289
539.987244	1087.698975	33102.000000	15466.714844	44.914352
540.334351	1108.178589	34069.097656	15844.451172	44.708321
540.681458	1103.627563	35668.789063	16629.505859	44.917709
541.028442	1003.504700	39063.867188	18493.158203	45.952412
541.375366	1103.627563	42406.605469	20352.257813	46.603497
541.722290	1039.912964	46402.421875	21806.316406	45.778782
542.069153	1074.045776	47808.691406	23128.392578	47.190575
542.416016	1069.494751	48611.949219	22714.248047	45.527214
542.762756	1080.872437	47312.628906	22199.980469	45.680954
543.109558	1155.964600	45380.710938	21210.128906	45.346024
543.456299	1039.912964	43394.183594	20643.525391	46.284859
543.802917	1142.311401	41728.500000	19298.691406	44.735371
544.149536	985.300537	39321.000000	18616.035156	45.990383
544.496094	1071.770264	37211.589844	17132.396484	44.440250
544.842651	1021.708862	35589.144531	16386.025391	44.447369
545.189148	1133.209351	34050.894531	15971.880859	45.078117
545.535583	1046.739624	32621.867188	15359.765625	45.330067
545.882019	1092.250000	31777.648438	15041.192383	45.457916
546.228333	1008.055725	31261.105469	15022.988281	46.325687
546.574707	1005.780212	31363.503906	15057.121094	46.285881
546.920898	1080.872437	31147.328125	15216.407227	47.014305
547.267212	1092.250000	31481.830078	15048.019531	45.922878
547.613342	1037.637451	31206.492188	14743.099609	45.429173
547.959473	1055.841675	30660.367188	14752.201172	46.264412
548.305664	996.678101	29986.812500	14019.483398	44.921509
548.651611	1089.974487	28905.941406	13771.452148	45.590641
548.997742	1042.188477	27690.812500	12918.131836	44.564938
549.343689	1049.015137	26250.408203	12506.262695	45.462757
549.689575	1074.045776	25733.865234	11860.014648	43.739040
550.035522	1083.147949	24718.982422	11375.328125	43.544811
550.381287	1108.178589	23776.916016	11043.102539	43.826542
550.727173	1101.352051	23658.589844	10808.723633	43.034397
551.072876	1110.454102	23064.679688	10606.202148	43.252483
551.418640	1092.250000	22859.882813	10506.079102	43.246914
551.764282	1080.872437	22759.759766	10435.538086	43.151043
552.109863	1058.117188	22848.503906	10531.110352	43.473267
552.455505	1119.556274	22823.474609	10524.284180	43.331936
552.801025	1069.494751	23465.169922	10483.324219	42.034138
553.146545	1044.463989	23319.537109	10558.416992	42.711212
553.491943	1019.433350	23993.091797	10531.110352	41.402534
553.837341	1012.606750	23767.814453	10656.263672	42.380001
554.182800	1060.392700	23617.630859	10503.803711	41.864216
554.528015	971.647400	23305.884766	10214.812500	41.385628
554.873352	1049.015137	23101.087891	10169.302734	41.357960
555.218628	1028.535400	22682.390625	10144.271484	42.097523
555.563721	1055.841675	22240.939453	9839.351563	41.460793
555.908875	1042.188477	22040.695313	9768.810547	41.558296
556.254028	1058.117188	21446.783203	9548.084961	41.640625
556.599121	1060.392700	21355.763672	9470.717773	41.439621
556.944031	1053.566162	21205.578125	9525.330078	42.039295
557.289063	1126.382813	20902.933594	9254.542969	41.099987
557.633972	1074.045776	21037.189453	9104.358398	40.225689
557.978882	1060.392700	20727.718750	9124.838867	41.004284
558.323792	1137.760376	20529.748047	9047.470703	40.788548
558.668518	1110.454102	20140.634766	9095.256836	41.958630
559.013306	1087.698975	20479.687500	8892.735352	40.248768
559.358032	1124.107300	19967.695313	8769.857422	40.574810
559.702637	1085.423462	20211.175781	8885.909180	40.785252
560.047363	1008.055725	20322.675781	8874.531250	40.728092
560.391846	1044.463989	20072.369141	8847.224609	41.006939
560.736450	1101.352051	20179.318359	8794.887695	40.326813
561.080933	1089.974487	19878.949219	8640.152344	40.184086
561.425354	1089.974487	20532.023438	8910.939453	40.227062
561.769775	1092.250000	20454.656250	8831.295898	39.969444
562.114136	1026.259888	20689.035156	8849.500000	39.787060
562.458496	1046.739624	20798.259766	8881.357422	39.665897
562.802673	1058.117188	20650.351563	8890.459961	39.976772
563.146912	1094.525513	20354.533203	8726.622070	39.626656
563.491150	1046.739624	20263.513672	8763.030273	40.153934
563.835266	1049.015137	20231.656250	8519.549805	38.944244
564.179443	1080.872437	20290.818359	8569.611328	38.983654
564.523438	1096.801025	20038.236328	8783.510742	40.581455
564.867493	1049.015137	20190.695313	8633.326172	39.621971
565.211426	1067.219238	20664.003906	8749.377930	39.201118
565.555359	1064.943726	20982.578125	8813.091797	38.900944
565.899231	1060.392700	21453.609375	9072.500977	39.288105
566.243042	1128.658325	21751.703125	9161.247070	38.949577
566.586914	1055.841675	22418.431641	9534.432617	39.688965
566.930603	1069.494751	23139.771484	9575.391602	38.540054
567.274292	1105.903076	22932.699219	9589.044922	38.865719
567.617981	1162.791138	22978.208984	9477.543945	38.114113
567.961609	1074.045776	22209.083984	9475.268555	39.750210
568.305237	1060.392700	21926.917969	9022.440430	38.157036
568.648682	1096.801025	21635.652344	9088.429688	38.909813
568.992188	1042.188477	21128.210938	8749.377930	38.370907
569.335632	1103.627563	21289.773438	8808.541016	38.169315
569.679016	1067.219238	21207.853516	8756.204102	38.176476
570.022461	1074.045776	21098.628906	8772.132813	38.443180
570.365662	1103.627563	21114.556641	8599.193359	37.457359
570.708984	1085.423462	20937.066406	8744.826172	38.583218
571.052185	1155.964600	21298.875000	8606.019531	36.985989
571.395386	1042.188477	21376.242188	8744.826172	37.880482
571.738525	1069.494751	22161.296875	8974.654297	37.479771
572.081604	1069.494751	22507.175781	9095.256836	37.437641
572.424683	1092.250000	22880.361328	9188.552734	37.159267
572.767578	1110.454102	23192.107422	9379.696289	37.448475
573.110596	980.749451	22955.453125	9104.358398	36.968002
573.453552	1119.556274	23005.515625	9063.399414	36.296528
573.796387	1060.392700	22577.716797	8995.133789	36.876060
574.139282	1094.525513	22602.748047	9033.817383	36.912823
574.481995	1019.433350	22004.287109	8940.521484	37.746693
574.824768	980.749451	22031.591797	8758.479492	36.947357
575.167480	1017.157776	22243.216797	8806.265625	36.695969
575.510132	1074.045776	21806.316406	8542.304688	36.022385
575.852722	1039.912964	21851.826172	8667.458984	36.649902
576.195251	1039.912964	21751.703125	8544.581055	36.233795
576.537842	1039.912964	21378.517578	8483.141602	36.596554
576.880188	1092.250000	20907.484375	8428.529297	37.023430
577.222717	1049.015137	20268.064453	8078.098633	36.573524
577.565063	1044.463989	20058.716797	7918.812500	36.153664
577.907410	1092.250000	19883.500000	7727.668457	35.311214
578.249756	1085.423462	19228.150391	7531.973633	35.532421
578.591919	1053.566162	19219.048828	7318.074707	34.485783
578.934204	1069.494751	18461.300781	7163.339355	35.038593
579.276306	1119.556274	18540.943359	6938.062988	33.398643
579.618469	1001.229126	17869.664063	6915.307617	35.060032
579.960571	1071.770264	17610.255859	6867.521973	35.044029
580.302551	1053.566162	17432.765625	6890.276855	35.634899
580.644531	1130.933838	17309.886719	6908.480957	35.710262
580.986511	1053.566162	17364.500000	6587.632813	33.928570
581.328369	1035.361938	17171.080078	6678.653320	34.973911
581.670227	1101.352051	17143.773438	6630.867676	34.468086
582.012024	1101.352051	16706.873047	6339.601074	33.566639
582.353821	1115.005249	16665.914063	6473.856445	34.460049
582.695496	1019.433350	16583.996094	6560.326660	35.599419
583.037231	1110.454102	16606.750000	6341.876465	33.759178
583.378845	1076.321289	16540.759766	6264.508789	33.549149
583.720398	989.851563	16306.381836	6335.049805	34.898232
584.062012	1062.668213	16304.106445	6162.110352	33.457748
584.403442	1078.596802	16602.199219	6030.129883	31.896805
584.744934	1019.433350	16310.933594	6244.029297	34.166664
585.086365	1071.770264	16215.361328	6221.273926	34.004509
585.427734	1130.933838	15933.196289	6007.375000	32.943893
585.768982	1115.005249	15933.196289	5948.211426	32.616707
586.110291	1153.689087	15910.441406	6027.854492	33.030071
586.451599	1005.780212	15994.635742	6182.589844	34.537724
586.792725	1117.280762	15908.166016	6002.823730	33.030769
587.133850	1053.566162	15853.553711	5859.465820	32.472321
587.474915	1103.627563	15914.992188	5877.670410	32.232296
587.815979	1099.076538	15967.329102	6036.956543	33.210896
588.157043	1055.841675	16288.177734	5879.945801	31.670153
588.497925	1146.862427	16358.718750	5825.333008	30.755423
588.838867	1078.596802	16156.197266	5891.323242	31.919712
589.179749	1108.178589	16465.667969	6021.027832	31.989923
589.520569	1055.841675	16404.228516	5952.762207	31.905115
589.861450	1112.729614	16820.650391	5902.701172	30.493990
590.202087	1087.698975	16579.445313	5875.394531	30.904814
590.542847	1080.872437	16649.986328	6048.334473	31.905874
590.883484	1053.566162	16936.701172	5854.915039	30.229225
591.224121	1085.423462	16627.230469	6005.099609	31.654469
591.564636	1128.658325	16479.322266	5709.281738	29.839905
591.905151	1067.219238	16206.258789	5652.393555	30.287090
592.245667	1101.352051	16219.912109	5670.597656	30.222755
592.585999	1117.280762	16060.625977	5568.199219	29.785288
592.926453	1008.055725	15978.707031	5461.250000	29.746162
593.266724	1110.454102	16395.126953	5631.914063	29.581659
593.607056	1039.912964	16215.361328	5722.935059	30.859200
593.947388	1092.250000	15965.053711	5415.739746	29.069769
594.287476	998.953613	16310.933594	5465.800781	29.172237
594.627686	1003.504700	16488.423828	5545.444336	29.331373
594.967773	1069.494751	16659.087891	5529.515625	28.608965
595.307861	1010.331238	16734.179688	5556.821777	28.914618
595.647888	1112.729614	16918.498047	5677.424316	28.879930
595.987854	985.300537	17132.396484	5620.536621	28.706316
596.327820	1049.015137	17510.132813	5752.516602	28.573404
596.667725	1051.290649	18051.707031	5659.220215	27.104805
597.007568	1076.321289	18513.636719	5891.323242	27.613205
597.347351	1101.352051	19159.884766	6187.141113	28.162802
597.687073	1099.076538	19494.386719	6050.609863	26.917366
598.026794	1119.556274	19023.353516	6066.538574	27.630913
598.366455	1064.943726	18766.220703	5866.292480	27.124306
598.706116	1099.076538	18117.697266	5825.333008	27.771090
599.045654	1012.606750	17769.541016	5725.210449	28.123304
599.385193	1049.015137	17109.640625	5340.647461	26.721453
599.724731	987.576050	16552.138672	5151.779297	26.754387
600.064087	1067.219238	16185.779297	4992.492676	25.963274
600.403564	1058.117188	15742.052734	4960.635254	26.576786
600.742920	1019.433350	15503.123047	5092.615723	28.122547
601.082153	1023.984375	15664.685547	4851.410156	26.142366
601.421387	964.820801	15118.560547	4837.757324	27.363344
601.760620	1019.433350	15261.917969	4933.329102	27.480429
602.099854	1108.178589	15537.255859	4912.849609	26.368082
602.438843	1083.147949	15377.969727	4774.042480	25.819799
602.778015	1062.668213	15705.644531	4758.113770	25.236984
603.117065	1014.882263	16342.790039	4849.134766	25.014845
603.456055	1051.290649	16586.271484	5006.145996	25.457743
603.794983	1087.698975	17064.130859	5129.023926	25.295542
604.133850	1055.841675	17767.265625	5265.555176	25.190632
604.472778	1076.321289	18063.083984	5427.117188	25.612862
604.811584	1092.250000	18832.210938	5497.658203	24.833246
605.150330	1037.637451	19125.751953	5456.698730	24.430746
605.489075	1023.984375	19621.816406	5458.974609	23.846813
605.827698	1126.382813	19665.050781	5602.332031	24.143856
606.166382	1053.566162	18898.201172	5402.086426	24.368784
606.504883	1080.872437	18415.789063	5338.371582	24.560251
606.843445	1076.321289	17844.634766	5117.646484	24.100965
607.181946	971.647400	17259.826172	4933.329102	24.322435
607.520386	1019.433350	16524.832031	4983.390625	25.565014
607.858826	1008.055725	16258.595703	4689.848145	24.142046
608.197083	1053.566162	16203.983398	4708.052734	24.121359
608.535461	1071.770264	15494.021484	4541.939453	24.061218
608.873718	1046.739624	16017.390625	4701.226074	24.411005
609.211914	1071.770264	16108.412109	4587.449707	23.380749
609.550171	1078.596802	16954.906250	4764.940430	23.219147
609.888245	1094.525513	17064.130859	4710.328125	22.641779
610.226318	1103.627563	17516.958984	4880.992188	23.014004
610.564392	1030.810913	17237.070313	4946.982422	24.164560
610.902344	1078.596802	17130.121094	4885.542969	23.717039
611.240295	1121.831787	17182.457031	4812.726563	22.981016
611.578247	1103.627563	16754.660156	4685.297363	22.884560
611.916138	1135.484863	16320.035156	4532.837402	22.373745
612.253845	1049.015137	15530.429688	4421.336914	23.287241
612.591675	1103.627563	15441.684570	4371.275391	22.790033
612.929382	1037.637451	15009.334961	4405.408203	24.104235
613.267090	1001.229126	14262.964844	4107.314941	23.421413
613.604736	1133.209351	14442.730469	4098.212891	22.277311
613.942261	1042.188477	14265.240234	4077.733398	22.956463
614.279785	946.616638	14226.555664	3886.589600	22.138451
614.617310	978.473938	14064.994141	4100.488281	23.856718
614.954712	1008.055725	13730.492188	4032.222900	23.770346
615.292175	1044.463989	14003.554688	3984.437012	22.686569
615.629517	1126.382813	13571.206055	3950.304199	22.691534
615.966797	1089.974487	13543.899414	3800.119629	21.761374
616.304138	1076.321289	13409.644531	3752.333740	21.697416
616.641296	1064.943726	13719.115234	3809.221924	21.686749
616.978516	1033.086426	13325.450195	3909.344727	23.398741
617.315552	1085.423462	13637.196289	3907.069336	22.480061
617.652771	1121.831787	13418.746094	3897.967041	22.575869
617.989685	1017.157776	13628.093750	3882.038574	22.717434
618.326721	1108.178589	13477.910156	3777.364502	21.578367
618.663696	1092.250000	13568.930664	3784.191162	21.575781
619.000549	1121.831787	13816.961914	3806.946289	21.150745
619.337463	1074.045776	13587.134766	3788.742188	21.694853
619.674194	1076.321289	13578.032227	3893.416016	22.533674
620.010986	1087.698975	13457.429688	3834.252441	22.203827
620.347778	1076.321289	13430.124023	3709.098877	21.311476
620.684387	1101.352051	13434.674805	3745.507324	21.439116
621.020996	1030.810913	13248.082031	3711.374512	21.940771
621.357605	1078.596802	13150.234375	3756.884766	22.186617
621.694214	1058.117188	13145.683594	3699.996826	21.856174
622.030579	1080.872437	13015.978516	3747.782715	22.345089
622.367065	1012.606750	13086.520508	3681.792725	22.107048
622.703430	1067.219238	13047.835938	3649.935303	21.557455
623.039795	1026.259888	12902.203125	3740.956299	22.858784
623.376160	1030.810913	12890.825195	3690.894775	22.429010
623.712402	1178.719727	12827.110352	3620.353516	20.961126
624.048645	1099.076538	12799.804688	3561.189941	21.042393
624.384766	1105.903076	12813.458008	3565.741211	21.010691
624.720886	1042.188477	12918.131836	3590.771729	21.460049
625.057007	1067.219238	12918.131836	3693.170166	22.158218
625.392944	1078.596802	13152.509766	3711.374512	21.805506
625.729004	1083.147949	13116.101563	3659.037354	21.406960
626.064941	1019.433350	13461.981445	3725.027588	21.744696
626.400818	1083.147949	13284.490234	3736.405273	21.745619
626.736633	1099.076538	13919.360352	3820.599365	21.228258
627.072449	1092.250000	13935.289063	3877.487549	21.686749
627.408264	1028.535400	13951.217773	3813.772949	21.553091
627.743896	998.953613	14426.801758	3957.130615	22.030165
628.079590	1021.708862	14181.045898	3866.109863	21.615078
628.415161	1051.290649	14404.046875	3907.069336	21.387186
628.750793	1037.637451	14014.932617	3690.894775	20.445381
629.086365	1105.903076	13707.737305	3684.068115	20.458649
629.421753	1064.943726	13336.827148	3777.364502	22.102726
629.757263	1060.392700	13154.786133	3643.108887	21.354658
630.092651	1008.055725	13097.897461	3492.924316	20.553360
630.427917	1128.658325	12849.866211	3595.322754	21.044456
630.763184	1096.801025	12681.477539	3711.374512	22.569241
631.098511	1128.658325	12681.477539	3558.914551	21.036045
631.433716	1094.525513	12244.577148	3545.261475	21.979591
631.768799	1055.841675	12242.301758	3511.128662	21.948740
632.103943	1133.209351	12019.300781	3433.760986	21.132944
632.438965	1158.240112	12139.903320	3431.485352	20.700373
632.773987	1049.015137	11939.657227	3370.046387	21.312160
633.109070	1030.810913	11873.667969	3283.576416	20.776495
633.443848	1087.698975	11759.891602	3379.148438	21.471216
633.778870	1035.361938	11648.390625	3360.944336	21.912525
634.113708	1046.739624	11991.994141	3406.454590	21.559250
634.448425	951.167725	12080.740234	3335.913574	21.427111
634.783264	985.300537	12060.259766	3354.117676	21.388947
635.117859	1058.117188	11896.422852	3351.842041	21.163132
635.452576	980.749451	12012.474609	3333.637939	21.328381
635.787170	1053.566162	11627.911133	3331.362549	21.540781
636.121704	1085.423462	11705.279297	3201.657715	19.927149
636.456177	1130.933838	11404.910156	3249.443604	20.620153
636.790588	1117.280762	11391.256836	3197.106689	20.243631
637.125122	1080.872437	11275.206055	3231.239502	21.093748
637.459412	1019.433350	11036.276367	3253.994629	22.308041
637.793762	1135.484863	10883.816406	3044.646729	19.584497
638.128052	1067.219238	10963.458984	3083.330566	20.372498
638.462280	1028.535400	10842.856445	3206.208740	22.188730
638.796509	1026.259888	10656.263672	3101.534912	21.550095
639.130615	1067.219238	10603.926758	2990.034424	20.162254
639.464722	1060.392700	10496.977539	3147.045166	22.112368
639.798767	1094.525513	10628.958008	2914.942139	19.093079
640.132751	1071.770264	10590.273438	2967.279053	19.913939
640.466736	1001.229126	10565.243164	2933.146240	20.199858
640.800598	1037.637451	10458.293945	2962.728027	20.434782
641.134521	1076.321289	10214.812500	2896.738037	19.920321
641.468262	1067.219238	10449.191406	2960.452637	20.179482
641.802063	1046.739624	10030.496094	2892.187012	20.542046
642.135803	1099.076538	9953.127930	2828.472412	19.532253
642.469421	1046.739624	9830.250000	2867.156250	20.725388
642.803101	1033.086426	10121.516602	2846.676514	19.954933
643.136658	1083.147949	9918.995117	2860.329590	20.113312
643.470215	1087.698975	9705.096680	2899.013428	21.019276
643.803711	1042.188477	9652.758789	2819.370361	20.639538
644.137085	1067.219238	9889.413086	2769.308838	19.293270
644.470581	1053.566162	9800.667969	2714.696289	18.990635
644.803833	1087.698975	9463.890625	2798.890625	20.429234
645.137207	1092.250000	9816.596680	2796.614990	19.535732
645.470459	1094.525513	9614.075195	2721.522949	19.097223
645.803589	1074.045776	9593.595703	2889.911377	21.314102
646.136780	1128.658325	9834.800781	2798.890625	19.184526
646.469849	1083.147949	9579.942383	2880.809326	21.156935
646.802979	1110.454102	9757.433594	2873.982666	20.394735
647.135986	1089.974487	9868.933594	2767.033203	19.103161
647.468994	1105.903076	9914.444336	2876.258301	20.098166
647.801941	1055.841675	9793.841797	2878.533936	20.859375
648.134766	1105.903076	9873.484375	2839.849854	19.776798
648.467651	1026.259888	9930.373047	2833.023438	20.291336
648.800354	1058.117188	9953.127930	2823.921387	19.851625
649.133179	1058.117188	9841.627930	2885.360352	20.803108
649.465881	1021.708862	9750.606445	2858.054199	21.037540
649.798462	1124.107300	9616.350586	2823.921387	20.016079
650.131104	1049.015137	9666.412109	2739.727051	19.619753
650.463623	1071.770264	9641.381836	2810.268311	20.286777
650.796143	1064.943726	9689.167969	2839.849854	20.580471
651.128662	1042.188477	9641.381836	2846.676514	20.984386
651.461060	1055.841675	9680.065430	2828.472412	20.554090
651.793396	1035.361938	9766.535156	2885.360352	21.188429
652.125732	1046.739624	9693.718750	2967.279053	22.210524
652.458008	1019.433350	9698.269531	2842.125488	21.001574
652.790222	1074.045776	9796.117188	2721.522949	18.888599
653.122437	1080.872437	9680.065430	2755.655762	19.476051
653.454529	1062.668213	9627.728516	2846.676514	20.828905
653.786621	1010.331238	9707.372070	2908.115479	21.821033
654.118713	1069.494751	9516.227539	2823.921387	20.770477
654.450623	1062.668213	9504.850586	2769.308838	20.215633
654.782654	1062.668213	9536.708008	2641.879639	18.635874
655.114502	1071.770264	9472.993164	2671.461426	19.041170
655.446350	1130.933838	9309.155273	2673.737061	18.864777
655.778198	1062.668213	9350.115234	2748.829102	20.345963
656.109863	1094.525513	9106.633789	2714.696289	20.221529
656.441650	1021.708862	9158.971680	2687.390137	20.469799
656.773254	1021.708862	9067.950195	2753.380127	21.521494
657.104919	1110.454102	9172.624023	2691.941162	19.616146
657.436462	1101.352051	9252.267578	2742.002686	20.128422
657.767944	1012.606750	9238.614258	2805.717041	21.798063
658.099548	1096.801025	9443.411133	2660.083740	18.729551
658.430908	1067.219238	9798.392578	2778.410889	19.598644
658.762268	1030.810913	9793.841797	2983.207764	22.279926
659.093628	1064.943726	10062.352539	2962.728027	21.092564
659.424927	1094.525513	10335.415039	2935.421875	19.921204
659.756226	1049.015137	10726.804688	3071.953125	20.902893
660.087341	992.127075	10995.316406	3197.106689	22.042765
660.418518	1105.903076	11077.235352	3060.575439	19.602921
660.749573	1144.586914	10704.049805	3096.983887	20.423710
661.080627	1124.107300	10810.999023	3194.831299	21.376558
661.411621	1067.219238	10681.294922	2946.799316	19.550293
661.742554	1124.107300	10344.517578	3044.646729	20.829220
662.073547	1135.484863	10021.393555	2876.258301	19.590271
662.404297	1096.801025	10028.219727	2974.105713	21.019110
662.735229	1080.872437	9645.932617	2833.023438	20.456961
663.065979	1055.841675	9577.666992	2823.921387	20.747665
663.396667	1028.535400	9281.849609	2807.992676	21.560516
663.727417	1099.076538	9067.950195	2739.727051	20.588236
664.057922	1071.770264	9052.021484	2798.890625	21.642431
664.388611	1071.770264	8869.980469	2719.247314	21.126348
664.719116	1078.596802	8922.317383	2703.318604	20.713661
665.049622	1062.668213	8535.478516	2685.114502	21.711327
665.380005	1076.321289	8576.437500	2703.318604	21.692961
665.710388	1049.015137	8644.703125	2726.073975	22.079090
666.040771	1053.566162	8626.499023	2655.532715	21.153847
666.371033	1042.188477	8569.611328	2653.257324	21.402662
666.701294	1046.739624	8360.263672	2735.176025	23.086496
667.031555	1017.157776	8462.662109	2703.318604	22.646698
667.361633	1108.178589	8587.815430	2660.083740	20.748404
667.691772	1099.076538	8464.937500	2623.675537	20.698177
668.021790	1067.219238	8453.559570	2671.461426	21.719040
668.351807	1003.504700	8494.519531	2614.573486	21.506683
668.681763	1037.637451	8360.263672	2676.012451	22.374146
669.011719	1083.147949	8371.640625	2719.247314	22.447706
669.341614	1028.535400	8451.284180	2728.349365	22.900061
669.671387	1044.463989	8567.335938	2691.941162	21.899578
670.001221	1055.841675	8535.478516	2744.278076	22.573776
670.330933	1039.912964	8317.028320	2714.696289	23.014385
670.660583	983.024963	8357.988281	2726.073975	23.634682
670.990173	1023.984375	8235.109375	2703.318604	23.288103
671.319763	1026.259888	8435.355469	2630.501953	21.652332
671.649292	1085.423462	8180.497070	2714.696289	22.963438
671.978821	1064.943726	8244.211914	2639.604248	21.933441
672.308289	1080.872437	8230.558594	2653.257324	21.992363
672.637695	1037.637451	8273.793945	2553.134277	20.943396
672.966980	1064.943726	8096.303223	2641.879639	22.427185
673.296326	1062.668213	8146.364258	2653.257324	22.454226
673.625610	1092.250000	7943.843262	2562.236328	21.454664
673.954773	1137.760376	8098.578613	2755.655762	23.242891
674.283936	1060.392700	7946.118652	2600.920166	22.372766
674.613037	1089.974487	7948.394043	2676.012451	23.125416
674.942078	1067.219238	7798.209961	2742.002686	24.881678
675.271118	1044.463989	7882.404297	2687.390137	24.026623
675.600098	1124.107300	7682.158203	2539.481201	21.582235
675.928955	1046.739624	7884.679688	2694.216553	24.093176
676.257813	1087.698975	7600.239258	2682.839111	24.493364
676.586670	1119.556274	7864.199707	2682.839111	23.178139
676.915466	1142.311401	7709.464355	2610.022461	22.349276
677.244141	1110.454102	7793.658691	2578.165039	21.961185
677.572876	1067.219238	7686.709473	2580.440674	22.860090
677.901489	1030.810913	7743.597168	2735.176025	25.389832
678.230042	1071.770264	7770.903320	2569.062988	22.350546
678.558594	1117.280762	7759.525879	2630.501953	22.781773
678.887085	1049.015137	7850.546875	2767.033203	25.259281
679.215515	1035.361938	7841.444824	2660.083740	23.871613
679.543945	1003.504700	8039.415039	2716.971924	24.353172
679.872253	1083.147949	8189.599121	2673.737061	22.382326
680.200562	1101.352051	8362.539063	2755.655762	22.782827
680.528809	1076.321289	8114.507324	2789.788574	24.345297
680.856995	1058.117188	8619.672852	2858.054199	23.803793
681.185120	1103.627563	8521.825195	2894.462402	24.141104
681.513306	1055.841675	8569.611328	2896.738037	24.500303
681.841309	1087.698975	8565.060547	2896.738037	24.193548
682.169373	1108.178589	8403.498047	2748.829102	22.489084
682.497314	1074.045776	8207.803711	2803.441650	24.242424
682.825134	1051.290649	8196.425781	2846.676514	25.127388
683.153076	983.024963	8339.784180	2880.809326	25.796473
683.480896	1080.872437	8178.221680	2748.829102	23.501122
683.808655	1049.015137	8187.323730	2730.625000	23.557539
684.136414	1044.463989	8082.649902	2696.492188	23.472357
684.464050	1135.484863	7786.832031	2760.206787	24.426960
684.791626	1112.729614	7780.005859	2707.869873	23.924915
685.119263	1085.423462	7543.351563	2687.390137	24.806202
685.446838	1083.147949	7468.259277	2680.563477	25.017818
685.774292	1039.912964	7431.851074	2664.634766	25.418297
686.101685	1003.504700	7527.422852	2623.675537	24.834324
686.429077	1078.596802	7502.392090	2707.869873	25.363091
686.756348	1069.494751	7293.043945	2755.655762	27.093237
687.083679	1033.086426	7233.880859	2676.012451	26.495413
687.410950	1080.872437	7497.840820	2648.706299	24.432627
687.738159	1151.413574	7327.176758	2559.960938	22.807665
688.065308	1126.382813	7570.657715	2657.808350	23.764126
688.392395	1115.005249	7527.422852	2662.359375	24.130589
688.719421	1089.974487	7531.973633	2655.532715	24.302366
689.046448	1085.423462	7459.157227	2762.482178	26.312029
689.373413	1060.392700	7475.085938	2705.594238	25.647392
689.700317	1055.841675	7324.901367	2698.767578	26.206896
690.027100	1003.504700	7302.146484	2671.461426	26.481215
690.353943	1064.943726	7172.441406	2655.532715	26.043219
690.680725	1008.055725	7006.328613	2559.960938	25.872536
691.007446	1051.290649	6979.022461	2546.307861	25.220730
691.334106	1026.259888	6812.909180	2534.930176	26.071569
691.660645	1149.138062	6662.725098	2596.369141	26.248449
691.987244	1001.229126	6662.725098	2519.001465	26.808680
692.313721	1044.463989	6551.224609	2530.379150	26.983471
692.640259	1096.801025	6694.582031	2459.837891	24.349592
692.966675	1137.760376	6658.173828	2396.123291	22.794722
693.293030	1089.974487	6535.295898	2409.776611	24.237360
693.619324	1037.637451	6548.948730	2298.276123	22.873661
693.945618	1099.076538	6405.590820	2405.225586	24.614069
694.271851	1046.739624	6419.244141	2464.388916	26.387121
694.598083	1117.280762	6382.835938	2500.797363	26.274847
694.924194	1051.290649	6341.876465	2448.460449	26.408602
695.250244	1051.290649	6280.437500	2423.429688	26.240208
695.576294	1001.229126	6289.539551	2437.082764	27.151463
695.902283	1060.392700	6216.722656	2341.510986	24.845545
696.228210	1039.912964	6376.009277	2455.286865	26.524521
696.554138	1058.117188	6339.601074	2409.776611	25.592419
696.879944	1101.352051	6360.080566	2505.348389	26.698399
697.205750	1128.658325	6451.101563	2562.236328	26.934584
697.531433	1033.086426	6517.091797	2532.654541	27.344395
697.857178	1080.872437	6710.510742	2605.471436	27.081652
698.182739	1115.005249	6771.949707	2623.675537	26.669350
698.508423	1078.596802	7233.880859	2584.991699	24.473198
698.833984	1030.810913	7274.839844	2776.135498	27.951899
699.159485	1099.076538	7616.167969	2858.054199	26.990227
699.484924	1087.698975	8057.619141	2965.003662	26.934380
699.810303	1046.739624	8064.445801	2837.574463	25.518806
700.135681	1046.739624	8062.170410	2935.421875	26.921829
700.460999	1051.290649	8028.037598	2937.697266	27.038485
700.786255	1037.637451	7682.158203	2924.044189	28.390411
701.111450	1105.903076	7645.750000	2753.380127	25.191372
701.436646	1067.219238	7363.585449	2730.625000	26.418505
701.761719	1085.423462	7067.767578	2607.746826	25.446938
702.086792	1108.178589	6676.377930	2596.369141	26.726604
702.411865	1105.903076	6735.541504	2528.103516	25.262730
702.736816	1026.259888	6371.458008	2532.654541	28.182203
703.061646	1171.893188	6196.243164	2546.307861	27.355074
703.386536	1037.637451	6118.875488	2466.664551	28.123600
703.711365	1019.433350	5916.354004	2334.684326	26.858734
704.036194	1074.045776	6023.303711	2334.684326	25.471264
704.360901	1124.107300	5818.506836	2204.979736	23.024723
704.685547	1058.117188	5752.516602	2204.979736	24.430443
705.010132	1035.361938	5725.210449	2325.582275	27.510916
705.334717	1035.361938	5520.413574	2409.776611	30.644344
705.659302	1119.556274	5586.403809	2341.510986	27.356087
705.983765	1099.076538	5615.985352	2261.867676	25.743074
706.308228	1033.086426	5638.740723	2282.347412	27.124506
706.632568	1019.433350	5411.188477	2211.806152	27.150259
706.956909	1060.392700	5436.219238	2250.489990	27.197084
707.281189	1071.770264	5486.280762	2204.979736	25.670103
707.605408	1051.290649	5565.923828	2175.397949	24.899195
707.929626	1162.791138	5600.056641	2193.602051	23.230768
708.253784	1064.943726	5524.964355	2291.449463	27.500002
708.577820	1058.117188	5625.087402	2193.602051	24.862980
708.901855	1055.841675	5470.352051	2214.081787	26.237114
709.225830	1037.637451	5586.403809	2189.051025	25.312654
709.549805	1099.076538	5575.025879	2243.663574	25.571939
709.873718	1071.770264	5429.392578	2248.214600	26.997393
710.197510	1055.841675	5770.720703	2311.929199	26.640928
710.521362	1051.290649	5595.505859	2289.173828	27.240856
710.845093	1064.943726	5679.699707	2350.613037	27.859964
711.168701	998.953613	5775.271973	2348.337402	28.251547
711.492432	1074.045776	5914.078613	2409.776611	27.597557
711.816040	1083.147949	6116.600098	2421.154053	26.582275
712.139587	1069.494751	6023.303711	2482.593262	28.525494
712.463074	1019.433350	6073.365234	2396.123291	27.239979
712.786499	1087.698975	6061.987305	2468.940186	27.767616
713.109924	1076.321289	5898.149902	2443.909424	28.362438
713.433350	1019.433350	5943.660156	2432.531738	28.696859
713.756592	1135.484863	5811.680176	2280.071777	24.476885
714.079834	996.678101	5836.710938	2368.817139	28.349789
714.403015	1033.086426	5704.730469	2218.632813	25.377499
714.726196	1162.791138	5695.628418	2252.765625	24.046185
715.049255	1119.556274	5636.464844	2307.378174	26.297230
715.372375	1074.045776	5593.229980	2291.449463	26.938572
715.695435	1115.005249	5577.301270	2384.745850	28.454872
716.018311	1096.801025	5643.291504	2332.408936	27.177181
716.341248	1053.566162	5634.189453	2291.449463	27.024343
716.664063	1099.076538	5556.821777	2245.938965	25.727411
716.987000	1035.361938	5600.056641	2230.010498	26.171488
717.309692	1028.535400	5458.974609	2305.102539	28.813555
717.632385	1012.606750	5631.914063	2273.245361	27.290644
717.955078	1121.831787	5411.188477	2286.898438	27.161806
718.277649	1092.250000	5379.331055	2170.846924	25.159239
718.600220	1103.627563	5192.738281	2063.897461	23.483587
718.922791	1012.606750	5210.942871	2286.898438	30.352306
719.245300	1046.739624	5001.594727	2173.122314	28.481010
719.567688	1039.912964	5081.237793	2152.642578	27.533785
719.890015	1035.361938	4833.206055	2027.489014	26.123426
720.212341	1044.463989	4853.686035	2020.662476	25.627239
720.534607	1092.250000	4735.358887	2116.234375	28.107433
720.856873	1001.229126	4842.308105	2045.693237	27.191944
721.179016	1051.290649	4783.144531	2032.040039	26.280487
721.501160	1062.668213	4703.501465	2016.111450	26.187500
721.823242	1105.903076	4626.133789	1922.815063	23.206205
722.145264	1044.463989	4592.000977	2004.733887	27.068636
722.467224	1112.729614	4523.735352	1984.254150	25.550367
722.789185	1112.729614	4546.490723	1991.080688	25.579853
723.111023	1096.801025	4489.602539	1961.498901	25.486250
723.432861	1067.219238	4635.235840	1956.947876	24.936224
723.754578	1028.535400	4439.541016	1975.152100	27.751837
724.076294	1117.280762	4432.714355	1897.784302	23.541523
724.397949	1071.770264	4460.020996	2057.070801	29.079918
724.719666	1055.841675	4478.225098	2009.284912	27.859043
725.041260	1051.290649	4380.377441	1915.988525	25.974026
725.362732	1042.188477	4421.336914	1877.304688	24.713806
725.684265	1033.086426	4566.970215	1934.192627	25.499033
726.005676	1035.361938	4437.265625	2088.927979	30.969894
726.327087	1058.117188	4596.552246	1961.498901	25.530544
726.648438	1037.637451	4512.357910	2000.182739	27.701374
726.969666	994.402588	4471.398438	1993.356201	28.730366
727.290894	1099.076538	4416.785645	1947.845825	25.582994
727.612061	1110.454102	4557.868164	2016.111450	26.270628
727.933228	1112.729614	4648.889160	1963.774414	24.066923
728.254395	1089.974487	4562.419434	2038.866699	27.326344
728.575378	1030.810913	4860.512207	2022.937988	25.906122
728.896301	1108.178589	4837.757324	2061.621826	25.564369
729.217285	1087.698975	4803.624512	1991.080688	24.311083
729.538147	1101.352051	4819.553223	2061.621826	25.826193
729.858948	1064.943726	4926.502441	2041.142212	25.279909
730.179810	1037.637451	4906.022949	1961.498901	23.882353
730.500549	1074.045776	4721.705566	1997.907227	25.327513
730.821228	1058.117188	4721.705566	2027.489014	26.459627
731.141846	1108.178589	4687.572754	2063.897461	26.700577
731.462402	1096.801025	4764.940430	2029.764526	25.434244
731.782898	1062.668213	4824.104004	2109.407715	27.828190
732.103455	1094.525513	4926.502441	2127.612061	26.959623
732.423889	1085.423462	4871.890137	2027.489014	24.879805
732.744263	1064.943726	4896.920898	2063.897461	26.068886
733.064636	1076.321289	4919.675781	2070.723877	25.873299
733.384888	1021.708862	4842.308105	2047.968750	26.861229
733.705200	1080.872437	4803.624512	1934.192627	22.921759
734.025330	992.127075	4874.165527	1972.876587	25.263775
734.345520	1083.147949	4719.430176	2120.785400	28.535669
734.665527	1069.494751	4817.277344	2093.479248	27.322409
734.985596	1069.494751	4601.103027	2098.030273	29.123714
735.305542	1071.770264	4592.000977	2002.458252	26.438267
735.625549	1146.862427	4596.552246	1972.876587	23.944592
735.945435	1108.178589	4416.785645	1991.080688	26.685011
736.265259	1014.882263	4428.163574	1875.029175	25.200001
736.585083	1064.943726	4487.327148	1931.917114	25.332445
736.904785	1119.556274	4373.550781	2002.458252	27.132866
737.224426	1096.801025	4369.000000	1925.090576	25.312933
737.544128	1128.658325	4400.857422	1797.661377	20.445059
737.863708	1076.321289	4257.499512	1931.917114	26.895563
738.183289	1051.290649	4462.296387	1979.703125	27.218143
738.502808	1062.668213	4462.296387	1995.631714	27.443104
738.822205	1021.708862	4419.061523	2013.835938	29.202948
739.141541	1062.668213	4384.928711	1911.437500	25.547945
739.460938	1033.086426	4621.582520	2009.284912	27.203554
739.780212	1089.974487	4548.766113	1988.805176	25.986841
740.099426	1115.005249	4578.347656	1929.641602	23.521683
740.418640	1069.494751	4562.419434	1986.529663	26.254070
740.737793	989.851563	4494.153809	1934.192627	26.948048
741.056885	1021.708862	4380.377441	1966.049927	28.116531
741.375977	1035.361938	4444.092285	1911.437500	25.700933
741.694946	1030.810913	4330.315918	1906.886475	26.551727
742.013855	1115.005249	4357.622559	1943.294800	25.543859
742.332703	1087.698975	4259.774902	1975.152100	27.977045
742.651550	1023.984375	4200.611328	1931.917114	28.581661
742.970398	1049.015137	4123.243652	1947.845825	29.237602
743.289124	1085.423462	4291.632324	1870.478149	24.485449
743.607788	1067.219238	4268.876953	1834.069824	23.951674
743.926453	1062.668213	4173.305176	1836.345337	24.871984
744.245056	1051.290649	4018.569824	1952.396851	30.368095
744.563599	1021.708862	3963.957275	1897.784302	29.775711
744.882141	1074.045776	3959.406250	1945.570313	30.205050
745.200500	1028.535400	3954.855225	1868.202637	28.693624
745.518860	1083.147949	4027.671875	1861.375977	26.429672
745.837219	1115.005249	3897.967041	1843.171875	26.165167
746.155518	1133.209351	4009.467773	1806.763550	23.417723
746.473755	1058.117188	3850.181152	1952.396851	32.029339
746.791992	1005.780212	3929.824463	1802.212524	27.237356
747.110107	1019.433350	3913.895752	1877.304688	29.638365
747.428162	1078.596802	3979.885986	1947.845825	29.960787
747.746216	1039.912964	3761.435791	1763.528564	26.588627
748.064148	1126.382813	3825.150391	1811.314575	25.379427
748.382080	1076.321289	3816.048340	1849.998413	28.239204
748.700073	1028.535400	3902.518066	1745.324463	24.940619
749.017822	1151.413574	3975.334961	1815.865601	23.529409
749.335632	1069.494751	4004.916504	1911.437500	28.682173
749.653320	1055.841675	4009.467773	1870.478149	27.580894
749.971008	1083.147949	3943.477539	1815.865601	25.616547
750.288696	1064.943726	4032.222900	1918.264038	28.757668
750.606262	1010.331238	3859.283203	1790.834839	27.396166
750.923828	1033.086426	3938.926514	1856.824951	28.347689
751.241272	1064.943726	3925.273438	1909.161987	29.514719
751.558716	1037.637451	3902.518066	1820.416626	27.323275
751.876038	1053.566162	3750.058350	1845.447388	29.367088
752.193481	1087.698975	3813.772949	1856.824951	28.213686
752.510681	1112.729614	3854.732178	1806.763550	25.311209
752.827942	1060.392700	3779.640137	1849.998413	29.037655
753.145081	1039.912964	3813.772949	1863.651489	29.696472
753.462219	1046.739624	3763.711426	1888.682251	30.988274
753.779297	1042.188477	3877.487549	1875.029175	29.373999
754.096375	1078.596802	3904.793701	1854.549438	27.455719
754.413330	1046.739624	3822.875000	1806.763550	27.377050
754.730286	1108.178589	3684.068115	1838.620850	28.356894
755.047119	1010.331238	3791.017578	1829.518677	29.459902
755.363892	1058.117188	3768.262451	1881.855713	30.394627
755.680725	989.851563	3791.017578	1754.426514	27.294882
755.997498	1135.484863	3704.547852	1847.722900	27.723650
756.314148	1112.729614	3734.129639	1822.692139	27.083336
756.630737	1026.259888	3690.894775	1784.008301	28.437233
756.947327	1062.668213	3595.322754	1788.559326	28.661276
757.263855	1074.045776	3727.302979	1752.151001	25.557461
757.580261	1089.974487	3565.741211	1774.906250	27.665442
757.896729	1101.352051	3674.966064	1829.518677	28.293545
758.213074	1017.157776	3661.312988	1733.946899	27.108435
758.529419	1069.494751	3702.272461	1781.732788	27.052721
758.845642	1069.494751	3784.191162	1774.906250	25.984915
759.161865	1051.290649	3850.181152	1758.977539	25.284550
759.478149	1126.382813	3922.997803	1813.590088	24.572824
759.794189	1083.147949	3795.568604	1893.233276	29.865770
760.110229	1069.494751	3793.293213	1870.478149	29.406855
760.426270	1094.525513	3838.803711	1820.416626	26.451075
760.742249	1078.596802	3788.742188	1836.345337	27.959700
761.058105	1042.188477	3763.711426	1929.641602	32.608696
761.374023	1096.801025	3834.252441	1911.437500	29.758938
761.689819	1019.433350	3791.017578	1925.090576	32.676517
762.005554	1094.525513	3861.558838	2020.662476	33.470394
762.321289	1003.504700	3822.875000	1790.834839	27.925743
762.636902	1155.964600	3913.895752	1802.212524	23.432344
762.952515	1117.280762	3973.059326	1870.478149	26.374502
763.268127	1101.352051	3963.957275	1950.121338	29.650238
763.583618	1087.698975	4057.253662	1979.703125	30.038313
763.899048	1044.463989	4655.715332	2125.336426	29.930689
764.214478	937.514587	5035.727539	2311.929199	33.536922
764.529785	1030.810913	5395.259766	2348.337402	30.187695
764.845093	1071.770264	5493.107422	2371.092773	29.387548
765.160400	1064.943726	5463.525391	2427.980713	30.988104
765.475586	1110.454102	5367.953613	2500.797363	32.656334
765.790771	1092.250000	5167.707520	2250.489990	28.419876
766.105835	1087.698975	4969.737305	2275.520752	30.597889
766.420837	1099.076538	4692.124023	2152.642578	29.322353
766.735840	1078.596802	4642.062500	2047.968750	27.203066
767.050842	1046.739624	4359.897949	1995.631714	28.640108
767.365662	989.851563	4339.417969	2075.274902	32.404892
767.680542	1085.423462	4066.355713	1961.498901	29.389313
767.995300	1124.107300	4086.835449	1927.366089	27.112133
768.309998	1135.484863	4000.365479	1843.171875	24.702147
768.624817	1083.147949	3922.997803	1749.875488	23.477564
768.939392	1046.739624	3784.191162	1813.590088	28.013296
769.254028	1112.729614	3795.568604	1799.937012	25.614933
769.568481	1062.668213	3795.568604	1838.620850	28.393009
769.882935	1023.984375	3659.037354	1809.039063	29.792747
770.197388	1064.943726	3779.640137	1763.528564	25.733444
770.511841	1058.117188	3517.955078	1856.824951	32.469936
770.826172	1053.566162	3618.078125	1715.742676	25.820761
771.140442	1067.219238	3383.699463	1809.039063	32.023579
771.454651	1101.352051	3545.261475	1733.946899	25.884546
771.768860	1167.342163	3360.944336	1818.141113	29.668051
772.082886	1039.912964	3354.117676	1763.528564	31.268436
772.397034	1087.698975	3529.332764	1797.661377	29.077351
772.711060	1119.556274	3372.321777	1809.039063	30.606060
773.025024	1042.188477	3306.331787	1692.987427	28.743717
773.338928	1055.841675	3390.525879	1747.599976	29.629631
773.652771	1103.627563	3449.689453	1729.395752	26.673130
773.966614	1092.250000	3240.341553	1661.130127	26.483049
774.280457	1008.055725	3374.597412	1658.854614	27.499996
774.594116	1035.361938	3283.576416	1722.569214	30.566805
774.907776	1053.566162	3306.331787	1722.569214	29.696966
775.221375	1085.423462	3222.137451	1743.048950	30.777424
775.534912	1039.912964	3281.301025	1758.977539	32.081215
775.848450	1101.352051	3281.301025	1733.946899	29.018791
776.161926	1089.974487	3244.892578	1622.446289	24.709608
776.475342	1023.984375	3092.432861	1674.783325	31.463144
776.788696	1115.005249	3137.943115	1649.752563	26.434195
777.101990	1055.841675	3169.800537	1667.956787	28.955866
777.415283	1076.321289	3235.790527	1704.365112	29.083250
777.728516	1103.627563	2987.758789	1633.823975	28.140100
778.041626	1126.382813	3078.779541	1624.721802	25.524473
778.354736	1010.331238	3078.779541	1670.232300	31.903194
778.667725	1028.535400	3106.085938	1595.140137	27.272730
778.980774	1042.188477	3065.126465	1642.926025	29.696291
779.293640	1030.810913	3069.677490	1667.956787	31.250004
779.606567	1021.708862	2999.136475	1617.895264	30.149593
779.919434	1101.352051	3149.320801	1667.956787	27.666670
780.232239	1089.974487	3085.606201	1640.650513	27.594070
780.544983	1135.484863	3081.055176	1588.313477	23.274853
780.857666	1080.872437	3101.534912	1652.028076	28.265762
781.170227	1003.504700	3101.534912	1663.405762	31.453362
781.482849	1017.157776	3046.922363	1683.885376	32.847534
781.795410	1058.117188	3060.575439	1649.752563	29.545454
782.107910	1019.433350	2976.381104	1549.629639	27.093021
782.420288	1060.392700	2967.279053	1713.467163	34.248211
782.732666	1099.076538	2844.401123	1624.721802	30.117336
783.044983	1121.831787	2924.044189	1599.691162	26.515154
783.357300	1119.556274	2837.574463	1583.762451	27.019863
783.669495	1096.801025	2899.013428	1551.905151	25.252523
783.981689	1023.984375	2899.013428	1599.691162	30.703886
784.293762	1078.596802	2942.248291	1581.486938	26.984129
784.605835	1069.494751	2837.574463	1608.793213	30.501932
784.917908	1155.964600	2871.707275	1581.486938	24.801058
785.229858	1067.219238	2930.870850	1606.517700	28.937729
785.541748	1087.698975	2823.921387	1576.935913	28.178242
785.853577	1071.770264	2796.614990	1601.966675	30.738791
786.165405	1085.423462	2798.890625	1542.803101	26.693224
786.477173	1037.637451	2860.329590	1499.568237	25.343325
786.788879	1044.463989	2771.584229	1556.456177	29.644270
787.100525	1023.984375	2762.482178	1581.486938	32.068062
787.412109	1055.841675	2746.553711	1597.415649	32.032303
787.723694	1083.147949	2778.410889	1579.211426	29.261742
788.035156	1151.413574	2798.890625	1599.691162	27.209944
788.346558	1012.606750	2737.451416	1558.731689	31.662268
788.658081	1030.810913	2801.166016	1581.486938	31.105400
788.969360	1103.627563	2949.074951	1606.517700	27.250311
789.280640	1092.250000	3028.718262	1677.058838	30.199764
789.591919	1083.147949	3101.534912	1561.007324	23.675310
789.903076	1028.535400	3053.749023	1667.956787	31.573034
790.214172	1012.606750	3010.513916	1677.058838	33.257404
790.525269	1094.525513	2926.319824	1606.517700	27.950310
790.836365	1087.698975	2937.697266	1670.232300	31.488317
791.147339	1096.801025	3037.820313	1617.895264	26.846422
791.458191	971.647400	2887.635986	1633.823975	34.560570
791.769104	1055.841675	2844.401123	1588.313477	29.770987
792.079895	1051.290649	2855.778564	1558.731689	28.121056
792.390686	1069.494751	2821.645752	1567.833862	28.441563
792.701416	1080.872437	2714.696289	1551.905151	28.830080
793.012085	1085.423462	2691.941162	1508.670288	26.345606
793.322693	1026.259888	2655.532715	1606.517700	35.614529
793.633240	1058.117188	2591.818115	1551.905151	32.195843
793.943787	1046.739624	2616.848877	1579.211426	33.913040
794.254272	1080.872437	2616.848877	1438.129150	23.259258
794.564636	1083.147949	2519.001465	1463.159912	26.465929
794.875000	1064.943726	2519.001465	1504.119263	30.203445
795.185303	1101.352051	2582.716064	1510.945801	27.649771
795.495544	953.443237	2610.022461	1540.527588	35.439556
795.805786	1049.015137	2582.716064	1465.435425	27.151337
796.115906	1042.188477	2685.114502	1545.078613	30.609421
796.426025	1096.801025	2548.583252	1529.150024	29.780569
796.736023	1112.729614	2721.522949	1567.833862	28.288546
797.045959	1046.739624	2748.829102	1626.997314	34.090904
797.355896	1101.352051	2801.166016	1535.976563	25.568945
797.665833	1060.392700	2757.931152	1595.140137	31.501345
797.975708	1074.045776	2728.349365	1551.905151	28.885834
798.285461	1060.392700	2664.634766	1599.691162	33.617023
798.595154	1058.117188	2767.033203	1526.874512	27.430098
798.904846	1069.494751	2696.492188	1542.803101	29.090910
799.214478	1069.494751	2714.696289	1565.558350	30.152147
799.524109	1133.209351	2607.746826	1583.762451	30.555555
799.833557	1023.984375	2503.072998	1495.017212	31.846153
800.143005	1080.872437	2541.756836	1429.027100	23.831774
800.452393	1026.259888	2646.430664	1474.537476	27.668539
800.761780	1071.770264	2468.940186	1474.537476	28.827360
801.071106	1092.250000	2487.144287	1517.772339	30.505705
801.380371	1121.831787	2534.930176	1515.496826	27.858290
801.689575	1058.117188	2523.552490	1556.456177	34.006210
801.998718	1062.668213	2380.194824	1460.884399	30.224527
802.307800	1105.903076	2539.481201	1570.109375	32.380955
802.616882	1071.770264	2475.766602	1472.261963	28.525124
802.925903	1071.770264	2505.348389	1492.741699	29.365086
803.234863	1092.250000	2471.215576	1433.578125	24.752476
803.543701	1064.943726	2475.766602	1447.231201	27.096773
803.852539	1074.045776	2557.685303	1488.190552	27.914110
804.161316	1076.321289	2427.980713	1506.394775	31.818184
804.470032	1046.739624	2459.837891	1513.221313	33.011269
804.778809	1053.566162	2425.705078	1444.955688	28.524046
805.087341	1069.494751	2455.286865	1410.822876	24.630543
805.395935	1117.280762	2459.837891	1495.017212	28.135595
805.704468	1151.413574	2400.674561	1426.751587	22.040071
806.012939	1046.739624	2473.491211	1485.915039	30.781490
806.321350	1099.076538	2441.633789	1442.680176	25.593220
806.629761	1037.637451	2475.766602	1456.333252	29.113922
806.938049	1019.433350	2430.256104	1479.088501	32.580647
807.246277	1069.494751	2553.134277	1554.180664	32.668713
807.554504	1023.984375	2466.664551	1558.731689	37.066242
807.862671	1014.882263	2491.695313	1497.292725	32.665642
808.170715	1080.872437	2516.726074	1483.639526	28.050707
808.478821	1092.250000	2557.685303	1592.864502	34.161488
808.786804	1042.188477	2448.460449	1456.333252	29.449835
809.094727	1035.361938	2430.256104	1444.955688	29.363787
809.402649	1128.658325	2316.480225	1435.853638	25.862068
809.710510	1005.780212	2412.052002	1410.822876	28.802589
810.018311	1069.494751	2382.470215	1467.710938	30.329294
810.326050	1112.729614	2339.235352	1488.190552	30.612246
810.633667	1023.984375	2446.184814	1495.017212	33.120003
810.941345	1119.556274	2330.133301	1378.965576	21.428566
811.248901	1105.903076	2336.959961	1458.608887	28.650650
811.556396	1096.801025	2334.684326	1501.843750	32.720589
811.863892	1128.658325	2339.235352	1495.017212	30.263163
812.171326	1080.872437	2293.724854	1426.751587	28.517826
812.478699	1023.984375	2321.031250	1399.445313	28.947369
812.786011	1078.596802	2223.183838	1410.822876	29.025846
813.093262	1137.760376	2225.459229	1315.250977	16.317991
813.400391	1101.352051	2307.378174	1506.394775	33.584904
813.707642	1044.463989	2259.592041	1424.476074	31.273418
814.014709	1055.841675	2289.173828	1449.506714	31.918818
814.321716	1026.259888	2220.908203	1447.231201	35.238094
814.628723	1060.392700	2211.806152	1367.588013	26.679844
814.935669	994.402588	2232.285889	1394.894287	32.352943
815.242554	1083.147949	2259.592041	1469.986450	32.882011
815.549438	1010.331238	2234.561523	1388.067749	30.855022
815.856201	1058.117188	2275.520752	1408.547363	28.785046
816.162964	1067.219238	2377.919189	1472.261963	30.902781
816.469604	1030.810913	2214.081787	1510.945801	40.576920
816.776184	1101.352051	2243.663574	1465.435425	31.872511
817.082825	1074.045776	2261.867676	1415.373901	28.735632
817.389343	1130.933838	2282.347412	1501.843750	32.213440
817.695801	1062.668213	2318.755615	1476.812988	32.971016
818.002197	1076.321289	2239.112549	1501.843750	36.594913
818.308533	987.576050	2377.919189	1469.986450	34.697220
818.614868	1074.045776	2275.520752	1520.047852	37.121212
818.921143	1051.290649	2318.755615	1403.996338	27.827648
819.227356	1044.463989	2339.235352	1488.190552	34.270649
819.533447	1014.882263	2309.653564	1442.680176	33.040424
819.839539	1003.504700	2462.113525	1474.537476	32.293289
820.145569	1035.361938	2402.949951	1481.364014	32.612312
820.451538	1062.668213	2598.644775	1504.119263	28.740742
820.757568	1046.739624	2732.900391	1524.598877	28.340076
821.063416	1049.015137	2833.023438	1565.558350	28.954081
821.369263	1096.801025	3003.687500	1617.895264	27.326967
821.675049	1037.637451	3124.290039	1690.711914	31.297709
821.980713	1094.525513	3274.474365	1779.457275	31.419626
822.286438	1103.627563	3547.536865	1897.784302	32.495346
822.592102	1060.392700	4412.234863	2202.704102	34.080105
822.897583	1010.331238	6583.081543	2853.503174	33.074726
823.203125	1064.943726	9411.553711	3722.751953	31.842964
823.508545	1071.770264	11343.471680	4444.092285	32.831192
823.813965	1062.668213	12048.882813	4612.480469	32.311512
824.119263	1128.658325	10826.927734	4073.182129	30.361334
824.424622	1087.698975	9454.789063	3670.415039	30.867556
824.729858	1060.392700	7984.802734	3317.709229	32.599403
825.035095	1105.903076	6967.644531	2990.034424	32.142860
825.340149	1080.872437	6102.946777	2669.185791	31.626640
825.645264	1103.627563	5431.667969	2453.011475	31.177710
825.950256	1087.698975	5017.523438	2398.398926	33.352634
826.255310	1026.259888	4739.909668	2307.378174	34.497551
826.560242	1010.331238	4357.622559	2170.846924	34.670292
826.865112	1060.392700	4171.029785	2136.714111	34.601315
827.169922	1017.157776	4109.590332	1981.978638	31.199413
827.474670	1087.698975	4189.233887	2123.060791	33.382240
827.779419	1060.392700	4703.501465	2248.214600	32.604622
828.084045	1051.290649	5311.065430	2468.940186	33.279915
828.388672	1055.841675	5854.915039	2594.093750	32.053108
828.693176	1096.801025	5679.699707	2573.614014	32.224430
828.997681	1092.250000	5154.054688	2393.847900	32.044819
829.302124	1055.841675	4539.664063	2111.683350	30.306990
829.606567	1039.912964	4093.661865	1984.254150	30.923994
829.910828	1085.423462	3706.823486	1895.508789	30.902775
830.215149	1124.107300	3365.495361	1827.243164	31.370552
830.519348	1053.566162	3238.066162	1795.385864	33.958328
830.823547	1080.872437	2958.177002	1592.864502	27.272722
831.127686	1060.392700	2883.084961	1620.170776	30.711607
831.431763	1130.933838	2664.634766	1656.579102	34.272995
831.735779	1033.086426	2580.440674	1549.629639	33.382351
832.039734	1119.556274	2443.909424	1483.639526	27.491402
832.343628	1037.637451	2302.827148	1497.292725	36.330936
832.647461	1030.810913	2423.429688	1495.017212	33.333336
832.951233	1078.596802	2377.919189	1458.608887	29.246944
833.255127	1094.525513	2339.235352	1476.812988	30.712980
833.558777	1099.076538	2530.379150	1526.874512	29.888716
833.862366	1028.535400	2680.563477	1533.701050	30.578514
834.165955	1023.984375	2776.135498	1624.721802	34.285709
834.469482	1115.005249	3315.433838	1820.416626	32.057907
834.773010	1115.005249	3825.150391	1936.468262	30.310667
835.076416	1110.454102	3936.650879	1966.049927	30.273752
835.379822	1117.280762	4118.692871	1991.080688	29.112961
835.683105	1092.250000	3761.435791	1981.978638	33.333336
835.986389	1119.556274	3413.281250	1831.794189	31.051580
836.289612	1060.392700	3244.892578	1733.946899	30.833334
836.592773	1092.250000	2949.074951	1695.262939	32.475487
836.895874	1115.005249	2817.094727	1654.303589	31.684488
837.198914	1187.821899	2650.981689	1595.140137	27.838261
837.501892	1094.525513	2555.409912	1524.598877	29.439247
837.804871	1101.352051	2496.246338	1465.435425	26.101145
838.107666	1033.086426	2402.949951	1495.017212	33.720936
838.410583	1044.463989	2202.704102	1422.200562	32.612976
838.713379	1042.188477	2195.877686	1394.894287	30.571995
839.016052	1035.361938	2093.479248	1331.179688	27.956989
839.318787	960.269775	2066.172852	1301.597900	30.864199
839.621338	1069.494751	1991.080688	1342.557251	29.629629
839.923889	1023.984375	1913.713013	1294.771362	30.434784
840.226440	1087.698975	2038.866699	1301.597900	22.488035
840.528931	1035.361938	2059.346436	1344.832764	30.222218
840.831299	1069.494751	2168.571289	1378.965576	28.157351
841.133606	1069.494751	2214.081787	1447.231201	33.001987
841.435913	1074.045776	2289.173828	1472.261963	32.771542
841.738220	1083.147949	2198.153076	1426.751587	30.816328
842.040405	1026.259888	2209.530762	1410.822876	32.499996
842.342529	1053.566162	2025.213501	1385.792114	34.192032
842.644592	1080.872437	2007.009399	1490.466064	44.226032
842.946594	1008.055725	2013.835938	1392.618774	38.235298
843.248596	1012.606750	2027.489014	1303.873413	28.699553
843.550598	1028.535400	1947.845825	1319.802124	31.683174
843.852478	1064.943726	1979.703125	1369.863525	33.333332
844.154236	1092.250000	1854.549438	1344.832764	33.134323
844.455994	1028.535400	1799.937012	1267.465088	30.973450
844.757690	1115.005249	1795.385864	1294.771362	26.421404
845.059326	1096.801025	1836.345337	1287.944824	25.846159
845.360962	1080.872437	1722.569214	1240.158813	24.822685
845.662476	1083.147949	1738.497925	1253.812012	26.041668
845.963989	1130.933838	1681.609863	1242.434326	20.247929
846.265381	1119.556274	1722.569214	1287.944824	27.924534
846.566772	1060.392700	1640.650513	1160.515625	17.254904
846.868042	1012.606750	1622.446289	1269.740601	42.164181
847.169373	1039.912964	1695.262939	1235.607788	29.861116
847.470581	1074.045776	1613.344238	1303.873413	42.616039
847.771729	1096.801025	1711.191650	1235.607788	22.592590
848.072815	1115.005249	1690.711914	1176.444214	10.671922
848.373901	1058.117188	1601.966675	1212.852539	28.451870
848.674866	1126.382813	1604.242188	1180.995239	11.428556
848.975891	1058.117188	1672.507813	1196.923950	22.592590
849.276794	1074.045776	1654.303589	1185.546387	19.215702
849.577637	1046.739624	1570.109375	1212.852539	31.739113
849.878357	1060.392700	1617.895264	1262.914063	36.326534
850.179077	1080.872437	1611.068726	1137.760376	10.729600
850.479736	989.851563	1574.660400	1244.709839	43.579758
850.780396	1074.045776	1658.854614	1249.260864	29.961088
851.080994	983.024963	1515.496826	1180.995239	37.179482
851.381470	989.851563	1492.741699	1246.985352	51.131207
851.681946	1046.739624	1649.752563	1142.311401	15.849043
851.982361	987.576050	1601.966675	1121.831787	21.851852
852.282715	1080.872437	1626.997314	1190.097412	20.000000
852.583008	1053.566162	1654.303589	1128.658325	12.499997
852.883240	1069.494751	1631.548462	1103.627563	6.072874
853.183411	1051.290649	1508.670288	1185.546387	29.353239
853.483521	1051.290649	1551.905151	1187.821899	27.272732
853.783630	1076.321289	1554.180664	1206.026001	27.142862
854.083679	1080.872437	1522.323364	1174.168701	21.134007
854.383667	1078.596802	1504.119263	1226.505737	34.759373
854.683533	1089.974487	1604.242188	1219.679199	25.221245
854.983337	1096.801025	1565.558350	1176.444214	16.990282
855.283203	1049.015137	1590.588989	1133.209351	15.546211
855.582886	1062.668213	1556.456177	1203.750488	28.571428
855.882629	1089.974487	1481.364014	1169.617676	20.348829
856.182312	1094.525513	1506.394775	1237.883301	34.806625
856.481873	1046.739624	1576.935913	1215.128052	31.759640
856.781372	1105.903076	1661.130127	1174.168701	12.295083
857.080872	971.647400	1538.252075	1199.199463	40.160641
857.380310	1058.117188	1595.140137	1244.709839	34.745750
857.679688	1099.076538	1567.833862	1158.240112	12.621366
857.979004	1074.045776	1551.905151	1265.189575	40.000011
858.278259	989.851563	1492.741699	1153.689087	32.579189
858.577454	1035.361938	1479.088501	1201.474976	37.435902
858.876648	1080.872437	1576.935913	1174.168701	18.807323
859.175720	1064.943726	1517.772339	1272.016113	45.728645
859.474792	1019.433350	1535.976563	1135.484863	22.466951
859.773743	1042.188477	1540.527588	1192.372925	30.136997
860.072693	1055.841675	1458.608887	1158.240112	25.423727
860.371521	1105.903076	1549.629639	1167.342163	13.846159
860.670349	1080.872437	1574.660400	1144.586914	12.903206
860.969116	1046.739624	1572.384888	1149.138062	19.480522
861.267883	1094.525513	1510.945801	1180.995239	20.765013
861.566589	1074.045776	1526.874512	1203.750488	28.643215
861.865112	1105.903076	1415.373901	1121.831787	5.147080
862.163635	1092.250000	1510.945801	1185.546387	22.282618
862.462158	1030.810913	1522.323364	1146.862427	23.611103
862.760620	1042.188477	1606.517700	1256.087524	37.903236
863.059021	1035.361938	1526.874512	1167.342163	26.851851
863.357361	1110.454102	1463.159912	1178.719727	19.354834
863.655640	1039.912964	1581.486938	1192.372925	28.151272
863.953857	1124.107300	1469.986450	1142.311401	5.263139
864.251953	1067.219238	1631.548462	1162.791138	16.935486
864.550110	1092.250000	1467.710938	1165.066650	19.393934
864.848206	1067.219238	1488.190552	1160.515625	22.162172
865.146179	1108.178589	1574.660400	1210.577026	21.951218
865.444092	1044.463989	1542.803101	1153.689087	21.917826
865.741943	1042.188477	1451.782227	1276.567139	57.222225
866.039795	1014.882263	1426.751587	1101.352051	20.994471
866.337646	1064.943726	1522.323364	1158.240112	20.398020
866.635376	1083.147949	1515.496826	1217.403687	31.052639
866.933044	1019.433350	1535.976563	1203.750488	35.682812
867.230652	1140.035889	1510.945801	1201.474976	16.564423
867.528198	1067.219238	1531.425537	1215.128052	31.862734
867.825745	1089.974487	1495.017212	1203.750488	28.089876
868.123230	1087.698975	1522.323364	1174.168701	19.895277
868.420593	1089.974487	1513.221313	1160.515625	16.666666
868.717896	1003.504700	1554.180664	1165.066650	29.338842
869.015198	1010.331238	1538.252075	1144.586914	25.431025
869.312439	1069.494751	1529.150024	1212.852539	31.188108
869.609619	1105.903076	1474.537476	1240.158813	36.419754
869.906738	1099.076538	1565.558350	1183.270874	18.048794
870.203796	1099.076538	1554.180664	1185.546387	19.000013
870.500854	1078.596802	1588.313477	1219.679199	27.678593
870.797791	1089.974487	1563.282837	1187.821899	20.673080
871.094666	1128.658325	1531.425537	1080.872437	-11.864394
871.391602	1051.290649	1458.608887	1180.995239	31.843552
871.688293	1094.525513	1538.252075	1180.995239	19.487165
871.985107	1108.178589	1454.057739	1151.413574	12.500027
872.281738	1140.035889	1472.261963	1174.168701	10.273972
872.578369	1014.882263	1485.915039	1219.679199	43.478279
872.874939	1083.147949	1456.333252	1162.791138	21.341459
873.171509	1085.423462	1545.078613	1196.923950	24.257421
873.467957	1051.290649	1497.292725	1165.066650	25.510195
873.764343	1103.627563	1495.017212	1176.444214	18.604645
874.060669	1037.637451	1538.252075	1153.689087	23.181831
874.356995	1049.015137	1522.323364	1146.862427	20.673059
874.653198	992.127075	1501.843750	1240.158813	48.660706
874.949463	1128.658325	1526.874512	1192.372925	16.000002
875.245544	1103.627563	1520.047852	1249.260864	34.972672
875.541626	1035.361938	1517.772339	1133.209351	20.283024
875.837646	1094.525513	1490.466064	1187.821899	23.563231
876.133606	1089.974487	1599.691162	1226.505737	26.785713
876.429565	1080.872437	1533.701050	1215.128052	29.648218
876.725403	1101.352051	1515.496826	1149.138062	11.538480
877.021179	1049.015137	1520.047852	1151.413574	21.739136
877.316956	1062.668213	1485.915039	1155.964600	22.043020
877.612610	1069.494751	1529.150024	1126.382813	12.376245
877.908203	1151.413574	1483.639526	1251.536499	30.136997
878.203857	1037.637451	1535.976563	1190.097412	30.593616
878.499390	1060.392700	1481.364014	1210.577026	35.675667
878.794800	1042.188477	1513.221313	1192.372925	31.884071
879.090271	1026.259888	1561.007324	1162.791138	25.531914
879.385559	1037.637451	1626.997314	1217.403687	30.501947
879.680847	1046.739624	1595.140137	1208.301514	29.460566
879.976196	1076.321289	1636.099487	1217.403687	25.203268
880.271301	1094.525513	1608.793213	1244.709839	29.203531
880.566467	1080.872437	1736.222412	1233.332275	23.263882
880.861572	1062.668213	1849.998413	1283.393677	28.034676
881.156555	1067.219238	1954.672363	1403.996338	37.948719
881.451477	1017.157776	2236.836914	1451.782227	35.634327
881.746460	1078.596802	2978.656738	1663.405762	30.778448
882.041321	1080.872437	3652.210938	1956.947876	34.070797
882.336121	1083.147949	4519.184082	2314.204590	35.827816
882.630798	1067.219238	5158.605469	2355.164063	31.479424
882.925537	1039.912964	5361.126953	2416.603027	31.858873
883.220215	1103.627563	5151.779297	2423.429688	32.602585
883.514771	1060.392700	4464.571777	2168.571289	32.553474
883.809326	1105.903076	4189.233887	2113.958740	32.693726
884.103760	1049.015137	3866.109863	1961.498901	32.390949
884.398132	1044.463989	3572.567627	1952.396851	35.913593
884.692505	1055.841675	3401.903564	1922.815063	36.954411
884.986816	1092.250000	3206.208740	1809.039063	33.907429
885.281067	1051.290649	3065.126465	1670.232300	30.734465
885.575256	1158.240112	2814.819336	1688.436401	32.005489
885.869385	1019.433350	2662.359375	1488.190552	28.531851
886.163452	1062.668213	2434.807373	1510.945801	32.669979
886.457458	1076.321289	2200.428711	1449.506714	33.198376
886.751465	1069.494751	2082.101563	1406.271851	33.258427
887.045410	1142.311401	2002.458252	1335.730713	22.486778
887.339233	1155.964600	1870.478149	1287.944824	18.471340
887.632996	1062.668213	1872.753662	1237.883301	21.629211
887.926758	1089.974487	1765.804199	1262.914063	25.589224
888.220398	1130.933838	1731.671387	1249.260864	19.696959
888.514099	1080.872437	1670.232300	1240.158813	27.027014
888.807678	1105.903076	1595.140137	1244.709839	28.372087
889.101196	1055.841675	1606.517700	1253.812012	35.950420
889.394653	1078.596802	1606.517700	1194.648438	21.982769
889.688049	1087.698975	1563.282837	1162.791138	15.789468
889.981384	1039.912964	1531.425537	1235.607788	39.814816
890.274719	1119.556274	1504.119263	1162.791138	11.242596
890.567932	1085.423462	1545.078613	1269.740601	40.099003
>>>>>End Processed Spectral Data<<<<<
