Jaz Data File
++++++++++++++++++++++++++++++++++++
Date: Wed Feb 07 06:35:21 2024
User: jaz
Dark Spectrum Present: Yes
Reference Spectrum Present: Yes
Processed Spectrum Present: Yes
Spectrometers: JAZA3692
Integration Time (usec): 40000 (JAZA3692)
Spectra Averaged: 1 (JAZA3692)
Boxcar Smoothing: 0 (JAZA3692)
Correct for Electrical Dark: No (JAZA3692)
Strobe/Lamp Enabled: Yes (JAZA3692)
Correct for Detector Non-linearity: No (JAZA3692)
Correct for Stray Light: No (JAZA3692)
Number of Pixels in Processed Spectrum: 2048
>>>>>Begin Processed Spectral Data<<<<<
W	D	R	S	P
190.244385	0.000000	0.000000	0.000000	0.000000
190.627136	0.000000	0.000000	0.000000	0.000000
191.009842	1424.476074	1381.241089	1290.220337	310.525696
191.392532	1344.832764	1360.761475	1276.567139	-428.569672
191.775177	1369.863525	1378.965576	1276.567139	-1025.004028
192.157791	1410.822876	1438.129150	1351.659302	-216.666595
192.540390	1367.588013	1419.924927	1335.730713	-60.869656
192.922943	1408.547363	1406.271851	1360.761475	2100.005371
193.305481	1335.730713	1406.271851	1328.904175	-9.677386
193.687958	1381.241089	1431.302612	1356.210449	-49.999756
194.070419	1347.108276	1358.485962	1276.567139	-619.995483
194.452866	1447.231201	1442.680176	1360.761475	1900.005371
194.835251	1369.863525	1392.618774	1342.557251	-119.999893
195.217621	1367.588013	1344.832764	1376.690063	-39.999786
195.599960	1438.129150	1388.067749	1285.669312	304.545685
195.982254	1456.333252	1442.680176	1278.842651	1300.004517
196.364517	1490.466064	1365.312500	1319.802124	136.363632
196.746750	1449.506714	1429.027100	1328.904175	588.890686
197.128952	1390.343262	1353.934937	1338.006226	143.750183
197.511139	1444.955688	1456.333252	1340.281738	-920.003235
197.893280	1374.414551	1372.139038	1310.699951	2800.010742
198.275391	1399.445313	1340.281738	1385.792114	23.077034
198.657471	1410.822876	1392.618774	1303.873413	587.502014
199.039520	1394.894287	1431.302612	1367.588013	-75.000084
199.421539	1403.996338	1419.924927	1340.281738	-400.001526
199.803513	1435.853638	1440.404663	1310.699951	-2750.010742
200.185471	1406.271851	1381.241089	1351.659302	218.181732
200.567383	1385.792114	1429.027100	1317.526489	-157.894409
200.949265	1456.333252	1431.302612	1376.690063	318.182800
201.331131	1392.618774	1449.506714	1317.526489	-132.000366
201.712967	1378.965576	1401.720825	1317.526489	-269.999634
202.094742	1442.680176	1435.853638	1299.322388	2100.007080
202.476517	1401.720825	1458.608887	1344.832764	-100.000000
202.858231	1408.547363	1378.965576	1317.526489	307.692261
203.239944	1415.373901	1392.618774	1315.250977	440.001617
203.621582	1376.690063	1472.261963	1253.812012	-128.571320
204.003235	1331.179688	1367.588013	1331.179688	0.000000
204.384827	1328.904175	1444.955688	1344.832764	13.725447
204.766388	1369.863525	1438.129150	1276.567139	-136.666718
205.147934	1351.659302	1447.231201	1274.291626	-80.952324
205.529449	1392.618774	1433.578125	1331.179688	-150.000153
205.910904	1444.955688	1460.884399	1310.699951	-842.853760
206.292343	1360.761475	1476.812988	1262.914063	-84.313774
206.673767	1429.027100	1413.098389	1340.281738	557.140869
207.055115	1456.333252	1390.343262	1381.241089	113.793266
207.436462	1403.996338	1431.302612	1338.006226	-241.666473
207.817780	1431.302612	1390.343262	1331.179688	244.444611
208.199051	1358.485962	1463.159912	1326.628662	-30.434793
208.580307	1424.476074	1422.200562	1274.291626	6600.026855
208.961517	1388.067749	1454.057739	1262.914063	-189.655563
209.342712	1440.404663	1431.302612	1287.944824	1675.005371
209.723846	1390.343262	1463.159912	1369.863525	-28.125072
210.104965	1403.996338	1388.067749	1328.904175	471.430115
210.486069	1426.751587	1447.231201	1303.873413	-600.002380
210.867111	1383.516602	1456.333252	1315.250977	-93.750023
211.248123	1385.792114	1390.343262	1281.118164	-2299.946289
211.629120	1385.792114	1424.476074	1328.904175	-147.058212
212.010071	1456.333252	1474.537476	1365.312500	-499.997986
212.390991	1406.271851	1378.965576	1260.638550	533.332764
212.771881	1349.383789	1397.169800	1260.638550	-185.713852
213.152756	1401.720825	1438.129150	1338.006226	-175.000076
213.533569	1392.618774	1417.649414	1301.597900	-363.637817
213.914368	1331.179688	1429.027100	1283.393677	-48.837276
214.295135	1383.516602	1410.822876	1285.669312	-358.332611
214.675858	1433.578125	1458.608887	1312.975464	-481.817780
215.056549	1417.649414	1415.373901	1242.434326	7700.026855
215.437225	1365.312500	1431.302612	1360.761475	-6.896526
215.817841	1458.608887	1413.098389	1367.588013	199.999725
216.198441	1360.761475	1392.618774	1338.006226	-71.428680
216.579025	1356.210449	1378.965576	1322.077637	-150.000534
216.959549	1360.761475	1408.547363	1369.863525	19.047571
217.340057	1413.098389	1442.680176	1392.618774	-69.230484
217.720535	1378.965576	1360.761475	1219.679199	875.002686
218.100967	1419.924927	1415.373901	1331.179688	1950.005371
218.481369	1340.281738	1435.853638	1297.046875	-45.238049
218.861740	1401.720825	1458.608887	1358.485962	-75.999886
219.242065	1424.476074	1367.588013	1281.118164	251.999985
219.622391	1338.006226	1510.945801	1310.699951	-15.789489
220.002670	1358.485962	1447.231201	1285.669312	-82.051331
220.382919	1338.006226	1365.312500	1347.108276	33.333183
220.763123	1381.241089	1479.088501	1353.934937	-27.906872
221.143295	1378.965576	1358.485962	1283.393677	466.668457
221.523453	1363.036987	1399.445313	1372.139038	24.999916
221.903549	1406.271851	1485.915039	1347.108276	-74.285789
222.283630	1312.975464	1469.986450	1374.414551	39.130440
222.663696	1401.720825	1435.853638	1262.914063	-406.666656
223.043701	1376.690063	1385.792114	1294.771362	-900.002686
223.423676	1353.934937	1488.190552	1269.740601	-62.711967
223.803635	1381.241089	1472.261963	1253.812012	-139.999832
224.183548	1394.894287	1442.680176	1278.842651	-242.857544
224.563431	1438.129150	1431.302612	1297.046875	2066.673828
224.943283	1419.924927	1451.782227	1367.588013	-164.285461
225.323105	1388.067749	1372.139038	1274.291626	714.283325
225.702881	1442.680176	1449.506714	1312.975464	-1900.007202
226.082642	1326.628662	1465.435425	1272.016113	-39.344299
226.462357	1374.414551	1458.608887	1281.118164	-110.810760
226.842041	1303.873413	1451.782227	1322.077637	12.307734
227.221695	1326.628662	1467.710938	1308.424438	-12.903268
227.601318	1388.067749	1417.649414	1333.455200	-184.616211
227.980911	1419.924927	1488.190552	1324.353149	-139.999863
228.360474	1397.169800	1510.945801	1333.455200	-56.000034
228.739990	1374.414551	1508.670288	1283.393677	-67.796638
229.119476	1372.139038	1504.119263	1344.832764	-20.689671
229.498932	1403.996338	1604.242188	1331.179688	-36.363625
229.878372	1460.884399	1599.691162	1319.802124	-101.639336
230.257736	1358.485962	1702.089600	1317.526489	-11.920559
230.637115	1465.435425	1679.334351	1258.363037	-96.808525
231.016449	1456.333252	1658.854614	1249.260864	-102.247185
231.395737	1363.036987	1599.691162	1306.148926	-24.038479
231.774994	1419.924927	1561.007324	1290.220337	-91.935349
232.154221	1449.506714	1608.793213	1349.383789	-62.857132
232.533417	1406.271851	1583.762451	1374.414551	-17.948725
232.912582	1401.720825	1567.833862	1308.424438	-56.164398
233.291702	1338.006226	1581.486938	1297.046875	-16.822420
233.670792	1374.414551	1611.068726	1322.077637	-22.115356
234.049866	1419.924927	1615.619751	1349.383789	-36.046501
234.428894	1413.098389	1604.242188	1312.975464	-52.380943
234.807892	1351.659302	1495.017212	1278.842651	-50.793606
235.186874	1285.669312	1524.598877	1342.557251	23.809502
235.565781	1460.884399	1601.966675	1269.740601	-135.483917
235.944687	1383.516602	1601.966675	1349.383789	-15.624995
236.323547	1397.169800	1622.446289	1294.771362	-45.454559
236.702377	1383.516602	1665.681274	1301.597900	-29.032232
237.081177	1381.241089	1581.486938	1331.179688	-24.999969
237.459946	1372.139038	1706.640625	1283.393677	-26.530624
237.838669	1422.200562	1615.619751	1319.802124	-52.941200
238.217361	1381.241089	1608.793213	1344.832764	-15.999993
238.596039	1363.036987	1670.232300	1237.883301	-40.740753
238.974670	1385.792114	1622.446289	1342.557251	-18.269217
239.353271	1344.832764	1674.783325	1297.046875	-14.482742
239.731842	1347.108276	1611.068726	1335.730713	-4.310329
240.110367	1383.516602	1704.365112	1349.383789	-10.638295
240.488876	1356.210449	1722.569214	1328.904175	-7.453424
240.867340	1458.608887	1806.763550	1308.424438	-43.137280
241.245789	1401.720825	1818.141113	1376.690063	-6.010937
241.624176	1456.333252	1804.488037	1333.455200	-35.294086
242.002548	1394.894287	1904.610962	1328.904175	-12.946430
242.380890	1415.373901	1902.335449	1342.557251	-14.953265
242.759186	1356.210449	1943.294800	1308.424438	-8.139547
243.137451	1356.210449	2029.764526	1378.965576	3.378367
243.515686	1331.179688	2123.060791	1415.373901	10.632178
243.893890	1310.699951	2204.979736	1347.108276	4.071246
244.272049	1495.017212	2209.530762	1349.383789	-20.382177
244.650192	1447.231201	2054.795166	1324.353149	-20.224710
245.028290	1426.751587	2029.764526	1312.975464	-18.867941
245.406357	1403.996338	1925.090576	1301.597900	-19.650656
245.784393	1394.894287	1904.610962	1228.781250	-32.589287
246.162384	1388.067749	1925.090576	1324.353149	-11.864411
246.540359	1385.792114	2029.764526	1406.271851	3.180219
246.918289	1403.996338	2134.438477	1415.373901	1.557627
247.296204	1378.965576	2218.632813	1429.027100	5.962067
247.674057	1394.894287	2473.491211	1388.067749	-0.632909
248.051895	1383.516602	2769.308838	1422.200562	2.791469
248.429703	1376.690063	2805.717041	1458.608887	5.732490
248.807465	1315.250977	2810.268311	1467.710938	10.197872
249.185196	1392.618774	2582.716064	1472.261963	6.692158
249.562897	1340.281738	2416.603027	1476.812988	12.684990
249.940567	1367.588013	2341.510986	1426.751587	6.074769
250.318192	1419.924927	2214.081787	1417.649414	-0.286532
250.695801	1399.445313	2157.193604	1374.414551	-3.303308
251.073349	1449.506714	2066.172852	1415.373901	-5.535056
251.450882	1392.618774	1972.876587	1442.680176	8.627441
251.828400	1406.271851	2020.662476	1458.608887	8.518528
252.205872	1358.485962	2107.132324	1358.485962	0.000000
252.583313	1378.965576	2118.509766	1408.547363	4.000003
252.960693	1381.241089	2164.020264	1397.169800	2.034892
253.338074	1374.414551	2234.561523	1367.588013	-0.793648
253.715408	1415.373901	2216.357178	1458.608887	5.397739
254.092682	1360.761475	2091.203613	1353.934937	-0.934576
254.469955	1390.343262	2093.479248	1369.863525	-2.912628
254.847198	1369.863525	2000.182739	1347.108276	-3.610115
255.224365	1422.200562	1991.080688	1397.169800	-4.400006
255.601563	1408.547363	1950.121338	1381.241089	-5.042021
255.978683	1413.098389	2047.968750	1417.649414	0.716843
256.355743	1424.476074	1961.498901	1415.373901	-1.694932
256.732819	1390.343262	2043.417725	1397.169800	1.045292
257.109894	1349.383789	2043.417725	1374.414551	3.606562
257.486877	1415.373901	2004.733887	1299.322388	-19.691109
257.863831	1426.751587	2009.284912	1438.129150	1.953118
258.240753	1422.200562	2150.367188	1390.343262	-4.375001
258.617645	1374.414551	2273.245361	1456.333252	9.113917
258.994507	1444.955688	2316.480225	1410.822876	-3.916449
259.371307	1349.383789	2423.429688	1401.720825	4.872886
259.748108	1372.139038	2491.695313	1397.169800	2.235775
260.124878	1394.894287	2764.757813	1392.618774	-0.166112
260.501617	1347.108276	3053.749023	1408.547363	3.600001
260.878296	1390.343262	3258.545898	1488.190552	5.237509
261.254944	1394.894287	3358.668701	1524.598877	6.604862
261.631561	1415.373901	3358.668701	1513.221313	5.035130
262.008179	1372.139038	2833.023438	1467.710938	6.542058
262.384735	1388.067749	2760.206787	1383.516602	-0.331683
262.761261	1422.200562	2512.175049	1463.159912	3.757827
263.137695	1406.271851	2389.296875	1374.414551	-3.240741
263.514191	1369.863525	2512.175049	1406.271851	3.187250
263.890594	1390.343262	2446.184814	1333.455200	-5.387936
264.267029	1397.169800	2352.888428	1401.720825	0.476189
264.643341	1306.148926	2468.940186	1394.894287	7.632097
265.019653	1331.179688	2371.092773	1431.302612	9.628009
265.395935	1397.169800	2255.041016	1426.751587	3.448278
265.772217	1392.618774	2248.214600	1365.312500	-3.191492
266.148407	1410.822876	2357.439453	1369.863525	-4.326921
266.524597	1378.965576	2423.429688	1456.333252	7.407404
266.900726	1347.108276	2375.643799	1340.281738	-0.663714
267.276855	1326.628662	2600.920166	1413.098389	6.785710
267.652924	1340.281738	2646.430664	1456.333252	8.885014
268.028992	1376.690063	2755.655762	1429.027100	3.795383
268.404999	1403.996338	2691.941162	1442.680176	3.003532
268.781006	1417.649414	2673.737061	1472.261963	4.347829
269.156921	1381.241089	2594.093750	1419.924927	3.189492
269.532837	1383.516602	2657.808350	1429.027100	3.571435
269.908661	1338.006226	2671.461426	1415.373901	5.802045
270.284546	1290.220337	2589.542725	1433.578125	11.033273
270.660339	1410.822876	2534.930176	1429.027100	1.619438
271.036133	1303.873413	2685.114502	1390.343262	6.260301
271.411835	1347.108276	2833.023438	1406.271851	3.981625
271.787537	1351.659302	2939.972900	1392.618774	2.578803
272.163239	1444.955688	3160.698486	1372.139038	-4.244030
272.538849	1401.720825	3340.464600	1506.394775	5.399061
272.914459	1340.281738	3217.586426	1458.608887	6.303034
273.290070	1344.832764	3206.208740	1454.057739	5.867970
273.665588	1338.006226	3024.167236	1435.853638	5.802969
274.041046	1390.343262	3005.962891	1440.404663	3.098588
274.416565	1392.618774	3049.197754	1378.965576	-0.824180
274.791962	1419.924927	3021.891602	1429.027100	0.568187
275.167389	1351.659302	2812.543701	1456.333252	7.165108
275.542755	1426.751587	2789.788574	1406.271851	-1.502508
275.918060	1467.710938	2835.298828	1403.996338	-4.658904
276.293365	1472.261963	2862.605225	1447.231201	-1.800330
276.668640	1419.924927	2899.013428	1394.894287	-1.692302
277.043854	1326.628662	2978.656738	1442.680176	7.024791
277.419037	1365.312500	3010.513916	1372.139038	0.414936
277.794189	1306.148926	3030.993652	1406.271851	5.804750
278.169312	1417.649414	3012.789551	1413.098389	-0.285306
278.544373	1408.547363	3040.095703	1495.017212	5.299864
278.919464	1353.934937	2967.279053	1440.404663	5.359658
279.294464	1344.832764	2942.248291	1426.751587	5.128210
279.669464	1360.761475	2951.350586	1431.302612	4.434906
280.044403	1340.281738	2942.248291	1481.364014	8.806818
280.419312	1312.975464	3003.687500	1449.506714	8.075370
280.794189	1435.853638	3099.259277	1513.221313	4.651161
281.169037	1344.832764	3028.718262	1426.751587	4.864869
281.543854	1438.129150	3203.933350	1495.017212	3.221652
281.918671	1413.098389	3176.626953	1485.915039	4.129032
282.293365	1417.649414	3338.188965	1542.803101	6.516590
282.668091	1376.690063	3511.128662	1388.067749	0.533053
283.042786	1399.445313	3572.567627	1529.150024	5.968588
283.417419	1301.597900	3508.853027	1488.190552	8.453606
283.792053	1381.241089	3545.261475	1540.527588	7.360674
284.166595	1394.894287	3297.229736	1526.874512	6.937800
284.541138	1360.761475	3399.628174	1515.496826	7.589283
284.915619	1431.302612	3244.892578	1456.333252	1.380171
285.290100	1335.730713	3456.516113	1531.425537	9.227469
285.664520	1431.302612	3490.648926	1479.088501	2.320440
286.038940	1408.547363	3540.710449	1556.456177	6.937031
286.413300	1356.210449	3765.986816	1554.180664	8.215294
286.787628	1394.894287	3884.313965	1576.935913	7.312613
287.161896	1333.455200	3868.385254	1613.344238	11.041292
287.536194	1344.832764	3836.528076	1517.772339	6.940639
287.910400	1308.424438	3754.609375	1549.629639	9.860464
288.284607	1372.139038	3606.700439	1613.344238	10.794296
288.658752	1385.792114	3497.475586	1608.793213	10.560347
289.032867	1378.965576	3376.872803	1597.415649	10.933945
289.406921	1342.557251	3486.097900	1656.579102	14.649681
289.781006	1415.373901	3481.546875	1611.068726	9.471368
290.154999	1454.057739	3549.812500	1606.517700	7.274704
290.529022	1422.200562	3620.353516	1652.028076	10.455483
290.902954	1438.129150	3756.884766	1615.619751	7.654562
291.276825	1317.526489	3884.313965	1670.232300	13.741138
291.650757	1363.036987	3973.059326	1770.355225	15.605928
292.024597	1403.996338	3913.895752	1781.732788	15.049864
292.398407	1397.169800	3831.977051	1749.875488	14.485981
292.772156	1399.445313	3802.395264	1708.916138	12.878788
293.145905	1388.067749	3561.189941	1724.844727	15.497379
293.519592	1349.383789	3577.118652	1647.477051	13.381002
293.893280	1406.271851	3611.251465	1736.222412	14.963883
294.266907	1397.169800	3763.711426	1674.783325	11.730769
294.640533	1410.822876	3759.160400	1790.834839	16.182171
295.014069	1344.832764	3957.130615	1790.834839	17.073172
295.387604	1454.057739	4148.274414	1786.283813	12.331081
295.761078	1392.618774	4173.305176	1827.243164	15.630111
296.134552	1467.710938	4098.212891	1872.753662	15.397925
296.507996	1333.455200	4123.243652	1806.763550	16.965742
296.881378	1408.547363	4114.141602	1881.855713	17.493692
297.254730	1403.996338	4398.581543	1913.713013	17.021278
297.628021	1403.996338	4603.378418	1945.570313	16.927456
298.001282	1367.588013	4808.175293	1929.641602	16.335978
298.374573	1390.343262	4683.021973	2036.591064	19.626810
298.747803	1458.608887	4566.970215	1902.335449	14.275257
299.121002	1383.516602	4371.275391	1956.947876	19.192690
299.494141	1376.690063	4202.886719	1875.029175	17.632853
299.867188	1385.792114	4150.549805	1941.019287	20.082308
300.240265	1417.649414	4014.018799	1843.171875	16.389133
300.613312	1331.179688	3847.905762	1802.212524	18.716095
300.986328	1322.077637	3847.905762	1838.620850	20.450449
301.359314	1372.139038	3841.079102	1777.181763	16.405531
301.732239	1422.200562	3804.670898	1761.253052	14.231133
302.105103	1378.965576	3895.691650	1786.283813	16.184448
302.477997	1365.312500	3879.762939	1777.181763	16.380091
302.850830	1438.129150	3998.090088	1818.141113	14.844444
303.223602	1422.200562	3809.221924	1720.293701	12.488079
303.596375	1319.802124	3804.670898	1865.927002	21.978018
303.969116	1438.129150	3643.108887	1777.181763	15.376677
304.341766	1417.649414	3606.700439	1738.497925	14.656968
304.714478	1383.516602	3722.751953	1774.906250	16.731522
305.087067	1378.965576	3645.384277	1688.436401	13.654618
305.459656	1383.516602	3752.333740	1797.661377	17.483189
305.832214	1347.108276	3581.669678	1758.977539	18.431770
306.204681	1335.730713	3604.425049	1847.722900	22.567703
306.577148	1358.485962	3663.588379	1781.732788	18.361301
306.949646	1335.730713	3711.374512	1779.457275	18.678160
307.322021	1419.924927	3709.098877	1731.671387	13.618296
307.694397	1424.476074	3597.598389	1772.630737	16.020943
308.066742	1365.312500	3750.058350	1747.599976	16.030533
308.439026	1356.210449	3775.089111	1749.875488	16.274691
308.811279	1374.414551	3841.079102	1770.355225	16.051662
309.183502	1356.210449	4041.324951	1813.590088	17.033897
309.555695	1460.884399	3975.334961	1788.559326	13.031671
309.927887	1335.730713	4014.018799	1852.273926	19.286320
310.299988	1381.241089	4125.519043	1888.682251	18.490881
310.672058	1440.404663	4164.203125	1861.375977	15.455304
311.044128	1308.424438	4136.896973	1815.865601	17.940466
311.416168	1399.445313	4161.927734	1904.610962	18.286655
311.788147	1392.618774	4209.713379	1875.029175	17.124393
312.160065	1410.822876	4166.478516	1806.763550	14.368292
312.531982	1312.975464	4093.661865	1877.304688	20.294601
312.903870	1338.006226	4011.743164	1813.590088	17.787235
313.275696	1431.302612	3825.150391	1749.875488	13.307984
313.647491	1438.129150	3875.211914	1781.732788	14.098973
314.019318	1419.924927	3984.437012	1774.906250	13.842060
314.391022	1388.067749	3850.181152	1784.008301	16.081329
314.762726	1342.557251	4050.427002	1881.855713	19.915968
315.134369	1347.108276	4061.804688	1729.395752	14.082146
315.505981	1308.424438	4105.039551	1811.314575	17.982100
315.877594	1415.373901	4148.274414	1834.069824	15.320570
316.249146	1351.659302	4136.896973	1845.447388	17.728758
316.620636	1435.853638	3959.406250	1847.722900	16.321009
316.992157	1340.281738	3886.589600	1756.702026	16.353886
317.363586	1292.495850	3756.884766	1743.048950	18.282549
317.735016	1399.445313	3786.466553	1733.946899	14.013348
318.106354	1378.965576	3704.547852	1722.569214	14.774951
318.477722	1415.373901	3695.445801	1829.518677	18.163673
318.849060	1381.241089	3877.487549	1729.395752	13.947126
319.220306	1417.649414	3866.109863	1747.599976	13.475838
319.591522	1358.485962	3929.824463	1743.048950	14.955751
319.962738	1492.741699	3909.344727	1815.865601	13.370996
320.333923	1372.139038	3941.202148	1786.283813	16.120461
320.705017	1390.343262	3902.518066	1713.467163	12.862318
321.076111	1369.863525	3904.793701	1731.671387	14.272893
321.447144	1369.863525	3734.129639	1695.262939	13.763231
321.818176	1331.179688	3674.966064	1706.640625	16.019419
322.189178	1376.690063	3661.312988	1686.160889	13.545815
322.560120	1344.832764	3645.384277	1749.875488	17.606331
322.931030	1265.189575	3857.007813	1724.844727	17.734852
323.301910	1310.699951	3913.895752	1749.875488	16.870630
323.672729	1401.720825	4177.855957	1754.426514	12.704917
324.043549	1358.485962	4207.437988	1811.314575	15.894567
324.414337	1376.690063	4516.908691	1809.039063	13.768117
324.785095	1342.557251	4671.644043	1895.508789	16.609705
325.155792	1353.934937	4437.265625	1829.518677	15.424352
325.526428	1403.996338	4557.868164	1852.273926	14.213564
325.897034	1394.894287	4353.071289	1843.171875	15.153846
326.267670	1381.241089	4480.500488	1838.620850	14.757712
326.638184	1385.792114	4430.438965	1872.753662	15.994023
327.008728	1353.934937	4421.336914	1834.069824	15.652820
327.379211	1403.996338	4564.694824	1893.233276	15.478760
327.749634	1356.210449	4384.928711	1827.243164	15.552213
328.120026	1424.476074	4307.561035	1845.447388	14.601418
328.490417	1338.006226	4189.233887	1736.222412	13.966482
328.860748	1410.822876	4159.651855	1768.079712	12.996692
329.231079	1417.649414	4084.559814	1777.181763	13.481231
329.601318	1335.730713	4020.845215	1777.181763	16.440680
329.971558	1381.241089	4200.611328	1840.896362	16.303474
330.341736	1385.792114	4105.039551	1845.447388	16.903767
330.711914	1363.036987	4282.530273	1911.437500	18.784100
331.082062	1429.027100	4296.183105	1772.630737	11.984128
331.452148	1385.792114	4243.846191	1777.181763	13.694269
331.822174	1381.241089	4150.549805	1765.804199	13.886611
332.192200	1385.792114	4357.622559	1768.079712	12.863708
332.562134	1397.169800	4419.061523	1745.324463	11.521084
332.932129	1410.822876	4346.244629	1793.110352	13.023255
333.302063	1347.108276	4500.979980	1845.447388	15.800869
333.671906	1401.720825	4635.235840	1779.457275	11.681913
334.041718	1358.485962	4626.133789	1847.722900	14.972143
334.411499	1390.343262	4708.052734	1877.304688	14.677639
334.781281	1390.343262	4662.541992	1936.468262	16.689848
335.151001	1360.761475	4719.430176	1786.283813	12.669375
335.520721	1360.761475	4662.541992	1854.549438	14.955202
335.890350	1381.241089	4537.388672	1774.906250	12.472965
336.259979	1322.077637	4642.062500	1881.855713	16.860863
336.629547	1324.353149	4617.031738	1774.906250	13.683482
336.999084	1349.383789	4553.316895	1829.518677	14.985796
337.368622	1367.588013	4562.419434	1824.967651	14.316236
337.738098	1392.618774	4712.603516	1758.977539	11.034953
338.107513	1415.373901	4607.929688	1913.713013	15.609410
338.476898	1424.476074	4664.817871	1877.304688	13.974717
338.846252	1447.231201	4607.929688	1941.019287	15.622752
339.215576	1397.169800	4710.328125	1877.304688	14.491758
339.584869	1376.690063	4671.644043	1865.927002	14.848065
339.954132	1444.955688	4701.226074	1875.029175	13.207548
340.323334	1474.537476	4612.480469	1797.661377	10.297317
340.692505	1403.996338	4455.469727	1840.896362	14.317675
341.061646	1385.792114	4464.571777	1870.478149	15.742797
341.430786	1358.485962	4537.388672	1815.865601	14.387972
341.799896	1369.863525	4548.766113	1904.610962	16.821762
342.168915	1344.832764	4623.858398	1884.131226	16.446913
342.537903	1431.302612	4796.797852	1890.957764	13.657876
342.906830	1374.414551	4958.359863	1938.743774	15.746034
343.275757	1401.720825	4910.573730	1879.580200	13.618677
343.644684	1372.139038	4826.379395	1909.161987	15.546775
344.013550	1365.312500	5001.594727	1915.988525	15.143929
344.382355	1367.588013	5238.249023	1888.682251	13.462667
344.751129	1385.792114	5276.932617	1997.907227	15.730994
345.119873	1426.751587	5486.280762	1954.672363	13.004482
345.488586	1392.618774	5670.597656	2022.937988	14.734042
345.857269	1360.761475	5854.915039	1993.356201	14.075949
346.225891	1403.996338	6025.579102	2007.009399	13.047760
346.594482	1392.618774	5959.588867	2047.968750	14.349775
346.963043	1419.924927	5879.945801	2070.723877	14.591836
347.331543	1426.751587	5604.607910	1981.978638	13.289759
347.700043	1397.169800	5415.739746	1984.254150	14.609285
348.068512	1378.965576	5217.769043	2016.111450	16.597511
348.436951	1419.924927	5190.462891	1897.784302	12.673506
348.805328	1406.271851	5115.370605	1900.059814	13.312883
349.173645	1358.485962	5129.023926	1890.957764	14.121905
349.541931	1454.057739	5106.268555	1938.743774	13.271030
349.910217	1374.414551	5283.759277	1997.907227	15.948777
350.278473	1381.241089	5361.126953	1963.774414	14.636936
350.646667	1392.618774	5497.658203	1941.019287	13.359201
351.014801	1413.098389	5424.841797	1954.672363	13.499716
351.382935	1392.618774	5422.565918	2086.652588	17.221909
351.751007	1312.975464	5563.648438	1941.019287	14.775163
352.119049	1365.312500	5436.219238	1975.152100	14.980436
352.487091	1324.353149	5465.800781	2007.009399	16.483517
352.855072	1369.863525	5618.260742	1977.427612	14.301018
353.222992	1381.241089	5552.270996	2036.591064	15.711946
353.590881	1326.628662	5707.006348	2100.305664	17.662334
353.958740	1422.200562	5779.822754	2082.101563	15.143603
354.326599	1340.281738	6116.600098	1984.254150	13.482611
354.694397	1408.547363	6084.742676	2059.346436	13.917277
355.062134	1397.169800	6282.712891	2072.999512	13.833257
355.429840	1378.965576	6284.988281	2136.714111	15.445272
355.797516	1358.485962	6335.049805	2113.958740	15.180611
356.165192	1319.802124	6635.418457	2152.642578	15.667807
356.532776	1385.792114	6794.705078	2193.602051	14.934793
356.900360	1472.261963	6924.409668	2120.785400	11.894826
357.267883	1388.067749	7033.634766	2134.438477	13.220474
357.635376	1449.506714	7393.166992	2286.898438	14.088822
358.002808	1322.077637	7848.271484	2373.368164	16.108786
358.370270	1440.404663	8116.782715	2355.164063	13.701432
358.737640	1328.904175	7977.976074	2389.296875	15.947981
359.105011	1356.210449	7968.874023	2307.378174	14.384033
359.472321	1290.220337	7520.596191	2248.214600	15.376187
359.839569	1374.414551	7290.768555	2336.959961	16.269234
360.206787	1367.588013	7361.309570	2223.183838	14.274867
360.574005	1392.618774	7616.167969	2264.143311	14.003657
360.941193	1353.934937	7943.843262	2400.674561	15.883979
361.308319	1408.547363	8519.549805	2407.500977	14.048000
361.675415	1374.414551	9079.328125	2600.920166	15.918487
362.042450	1449.506714	9639.106445	2550.858887	13.448181
362.409424	1353.934937	10053.250977	2607.746826	14.412764
362.776428	1433.578125	10248.945313	2673.737061	14.068149
363.143402	1360.761475	9905.341797	2655.532715	15.153129
363.510284	1433.578125	9184.001953	2653.257324	15.736936
363.877136	1322.077637	8508.171875	2480.317627	16.117796
364.243988	1385.792114	7818.689453	2355.164063	15.068978
364.610779	1390.343262	7638.923340	2366.541748	15.622725
364.977539	1440.404663	7454.605957	2270.969727	13.810064
365.344269	1438.129150	7217.952148	2266.418701	14.330708
365.710938	1381.241089	7327.176758	2207.255127	13.892078
366.077576	1287.944824	7054.114258	2195.877686	15.745858
366.444183	1358.485962	6903.930176	2088.927979	13.171929
366.810760	1374.414551	6851.593262	2184.500000	14.790195
367.177277	1460.884399	7072.318848	2132.163086	11.962693
367.543823	1424.476074	7026.808105	2259.592041	14.906577
367.910248	1265.189575	6990.399902	2161.744873	15.659779
368.276642	1310.699951	6851.593262	2214.081787	16.303902
368.643036	1294.771362	6844.766602	2168.571289	15.744157
369.009399	1397.169800	6535.295898	2184.500000	15.323295
369.375671	1351.659302	6521.642578	2070.723877	13.908450
369.741974	1394.894287	6482.958984	2175.397949	15.339893
370.108215	1399.445313	6505.713867	2248.214600	16.622105
370.474396	1383.516602	6467.030273	2225.459229	16.562218
370.840546	1328.904175	6646.796387	2091.203613	14.334617
371.206665	1333.455200	6787.878418	2138.989502	14.768459
371.572784	1385.792114	6835.664551	2182.224365	14.613777
371.938843	1442.680176	7013.155273	2275.520752	14.950979
372.304840	1392.618774	7040.461426	2211.806152	14.504430
372.670807	1347.108276	7097.349609	2223.183838	15.235457
373.036713	1306.148926	6990.399902	2168.571289	15.172137
373.402649	1394.894287	6819.735840	2132.163086	13.590605
373.768524	1424.476074	6958.542480	2286.898438	15.583881
374.134308	1447.231201	6822.011230	2116.234375	12.447080
374.500122	1360.761475	6999.501953	2170.846924	14.366426
374.865875	1349.383789	7145.135254	2225.459229	15.115822
375.231567	1417.649414	7010.879395	2193.602051	13.873069
375.597260	1415.373901	7256.635742	2186.775391	13.206077
375.962891	1383.516602	7211.125488	2280.071777	15.384615
376.328461	1394.894287	7511.494141	2296.000488	14.732143
376.694031	1401.720825	7714.015625	2220.908203	12.977648
377.059540	1413.098389	7946.118652	2348.337402	14.315568
377.425049	1435.853638	8241.936523	2414.327637	14.376463
377.790497	1429.027100	8437.630859	2375.643799	13.506495
378.155945	1403.996338	8769.857422	2512.175049	15.044795
378.521301	1290.220337	8772.132813	2448.460449	15.480536
378.886597	1326.628662	8592.366211	2487.144287	15.972442
379.251892	1369.863525	8096.303223	2366.541748	14.817323
379.617157	1374.414551	7873.301758	2280.071777	13.935574
379.982422	1358.485962	7650.300781	2234.561523	13.924051
380.347595	1301.597900	7465.983887	2293.724854	16.094498
380.712738	1363.036987	7336.279297	2284.622803	15.428570
381.077820	1406.271851	7568.382324	2296.000488	14.438700
381.442902	1385.792114	7347.656738	2286.898438	15.114505
381.807953	1388.067749	7575.208984	2305.102539	14.821624
382.172974	1449.506714	7611.617188	2307.378174	13.921716
382.537933	1356.210449	7618.443848	2298.276123	15.043605
382.902832	1342.557251	7440.953125	2243.663574	14.776120
383.267700	1347.108276	7745.873047	2225.459229	13.726883
383.632538	1392.618774	7800.485352	2284.622803	13.920452
383.997345	1349.383789	7971.149414	2341.510986	14.982820
384.362152	1317.526489	8132.711426	2387.021240	15.692821
384.726898	1413.098389	8194.150391	2364.266113	14.026847
385.091553	1422.200562	8403.498047	2314.204590	12.777053
385.456238	1374.414551	8237.385742	2398.398926	14.920424
385.820862	1378.965576	8055.343750	2514.450439	17.007498
386.185425	1347.108276	8360.263672	2348.337402	14.276443
386.549988	1360.761475	8328.406250	2309.653564	13.618549
386.914490	1388.067749	8373.916992	2277.796387	12.736156
387.278961	1308.424438	8385.293945	2402.949951	15.466238
387.643372	1422.200562	8483.141602	2391.572266	13.728648
388.007782	1365.312500	8580.989258	2407.500977	14.443392
388.372101	1324.353149	8551.407227	2371.092773	14.483627
388.736450	1390.343262	8460.386719	2384.745850	14.065014
389.100739	1417.649414	8464.937500	2359.715088	13.367776
389.464966	1378.965576	8398.947266	2384.745850	14.327393
389.829163	1344.832764	8328.406250	2284.622803	13.457151
390.193329	1472.261963	8537.753906	2311.929199	11.884059
390.557495	1413.098389	8408.049805	2250.489990	11.971372
390.921570	1397.169800	8676.560547	2302.827148	12.441390
391.285614	1408.547363	8626.499023	2346.062012	12.988652
391.649597	1440.404663	9407.002930	2352.888428	11.453870
392.013550	1376.690063	9814.321289	2453.011475	12.756204
392.377502	1374.414551	9825.699219	2491.695313	13.220247
392.741455	1342.557251	9689.167969	2503.072998	13.904037
393.105316	1378.965576	9873.484375	2468.940186	12.831506
393.469086	1424.476074	9550.360352	2387.021240	11.845421
393.832886	1358.485962	9347.839844	2368.817139	12.645968
394.196655	1338.006226	9370.594727	2432.531738	13.626062
394.560333	1401.720825	9486.646484	2377.919189	12.074302
394.924042	1326.628662	9777.913086	2414.327637	12.870221
395.287659	1403.996338	9752.881836	2357.439453	11.420004
395.651245	1403.996338	9707.372070	2341.510986	11.290765
396.014771	1435.853638	9545.809570	2332.408936	11.054996
396.378296	1413.098389	9224.960938	2368.817139	12.234199
396.741791	1381.241089	8965.551758	2332.408936	12.541257
397.105255	1374.414551	8788.061523	2330.133301	12.891344
397.468628	1363.036987	8683.387695	2259.592041	12.247434
397.832001	1381.241089	8644.703125	2227.734863	11.654137
398.195313	1338.006226	8685.663086	2339.235352	13.626510
398.558624	1381.241089	8849.500000	2284.622803	12.096283
398.921844	1385.792114	8756.204102	2307.378174	12.503860
399.285095	1363.036987	8726.622070	2209.530762	11.495675
399.648254	1324.353149	8774.408203	2296.000488	13.042150
400.011383	1415.373901	8765.305664	2270.969727	11.640868
400.374451	1399.445313	8521.825195	2230.010498	11.661344
400.737549	1383.516602	9147.593750	2225.459229	10.844079
401.100586	1367.588013	8781.234375	2202.704102	11.264580
401.463562	1326.628662	8599.193359	2257.316650	12.797246
401.826508	1388.067749	9013.337891	2282.347412	11.727842
402.189392	1360.761475	8831.295898	2164.020264	10.752360
402.552246	1353.934937	8753.928711	2248.214600	12.084870
402.915070	1376.690063	8835.847656	2193.602051	10.951799
403.277893	1442.680176	9147.593750	2220.908203	10.100412
403.640656	1440.404663	9234.063477	2286.898438	10.861315
404.003326	1431.302612	9491.197266	2220.908203	9.796723
404.366028	1388.067749	9682.340820	2241.387939	10.288064
404.728699	1397.169800	9980.434570	2277.796387	10.259809
405.091248	1349.383789	10308.109375	2268.694336	10.261621
405.453857	1374.414551	10178.404297	2332.408936	10.881366
405.816345	1390.343262	10185.231445	2216.357178	9.391977
406.178833	1394.894287	10114.690430	2230.010498	9.577245
406.541260	1367.588013	10269.425781	2225.459229	9.637012
406.903687	1328.904175	9695.994141	2252.765625	11.041611
407.266052	1310.699951	9755.157227	2164.020264	10.105094
407.628387	1408.547363	9823.422852	2218.632813	9.626827
407.990662	1408.547363	9579.942383	2195.877686	9.635201
408.352905	1347.108276	9618.625977	2207.255127	10.398900
408.715118	1413.098389	9668.687500	2225.459229	9.840132
409.077332	1413.098389	9645.932617	2136.714111	8.789388
409.439484	1363.036987	9725.576172	2136.714111	9.251701
409.801575	1435.853638	9693.718750	2195.877686	9.203638
410.163605	1374.414551	9941.750000	2148.091553	9.030543
410.525635	1308.424438	9991.811523	2236.836914	10.691825
410.887604	1406.271851	10139.720703	2182.224365	8.884834
411.249573	1349.383789	10276.251953	2100.305664	8.411930
411.611481	1442.680176	10162.475586	2152.642578	8.141962
411.973328	1413.098389	10255.772461	2029.764526	6.973752
412.335144	1408.547363	10010.015625	2138.989502	8.492063
412.696930	1401.720825	10126.067383	2072.999512	7.694314
413.058685	1367.588013	9595.871094	2132.163086	9.292036
413.420410	1422.200562	9959.954102	2054.795166	7.409379
413.782104	1381.241089	10073.730469	2075.274902	7.984293
414.143707	1353.934937	10071.455078	2125.336426	8.848864
414.505310	1344.832764	10023.668945	2027.489014	7.865758
414.866852	1378.965576	10160.200195	2059.346436	7.748123
415.228394	1390.343262	10496.977539	2020.662476	6.921538
415.589874	1358.485962	10522.007813	1995.631714	6.953067
415.951324	1451.782227	10435.538086	2000.182739	6.104357
416.312683	1378.965576	10888.367188	2118.509766	7.776979
416.674072	1390.343262	11245.624023	2057.070801	6.765180
417.035370	1413.098389	11379.879883	2009.284912	5.981736
417.396667	1367.588013	11250.174805	2136.714111	7.782640
417.757935	1408.547363	11618.809570	2177.673340	7.532872
418.119141	1394.894287	12242.301758	2066.172852	6.188378
418.480286	1369.863525	12376.557617	2102.581299	6.657019
418.841400	1360.761475	12979.570313	2157.193604	6.854680
419.202484	1413.098389	13311.796875	2166.295898	6.330083
419.563568	1435.853638	13828.339844	2289.173828	6.885787
419.924591	1415.373901	14529.200195	2330.133301	6.975534
420.285553	1331.179688	14586.087891	2252.765625	6.952790
420.646484	1390.343262	15689.715820	2321.031250	6.508593
421.007355	1392.618774	15871.757813	2357.439453	6.663523
421.368225	1342.557251	16888.916016	2341.510986	6.425644
421.729065	1401.720825	17325.814453	2359.715088	6.016005
422.089874	1365.312500	18090.390625	2430.256104	6.367346
422.450592	1322.077637	17860.562500	2478.042236	6.989544
422.811279	1383.516602	17555.642578	2491.695313	6.852400
423.171936	1344.832764	17357.671875	2389.296875	6.522667
423.532593	1378.965576	16775.138672	2364.266113	6.399646
423.893127	1356.210449	17450.968750	2412.052002	6.560158
424.253723	1381.241089	17780.919922	2566.787354	7.229082
424.614197	1433.578125	17901.521484	2453.011475	6.190411
424.974670	1381.241089	18420.341797	2457.562500	6.316773
425.335052	1322.077637	18811.730469	2468.940186	6.557378
425.695496	1381.241089	17758.164063	2446.184814	6.502709
426.055817	1392.618774	18076.736328	2387.021240	5.960174
426.416168	1401.720825	17633.009766	2523.552490	6.911538
426.776398	1381.241089	16750.109375	2482.593262	7.166124
427.136627	1426.751587	16153.921875	2343.786377	6.226823
427.496826	1399.445313	15619.174805	2409.776611	7.105137
427.856995	1356.210449	15232.335938	2257.316650	6.493933
428.217102	1408.547363	14661.180664	2266.418701	6.473215
428.577179	1356.210449	14779.507813	2264.143311	6.763859
428.937195	1365.312500	14622.497070	2302.827148	7.071748
429.297180	1342.557251	14165.117188	2277.796387	7.293701
429.657135	1319.802124	13691.808594	2280.071777	7.761632
430.017059	1403.996338	14149.188477	2243.663574	6.588109
430.376984	1392.618774	13823.789063	2255.041016	6.937579
430.736786	1410.822876	13778.278320	2241.387939	6.715732
431.096588	1322.077637	13562.103516	2230.010498	7.417737
431.456360	1424.476074	13500.665039	2211.806152	6.519690
431.816071	1381.241089	13307.246094	2113.958740	6.143865
432.175781	1394.894287	13448.328125	2134.438477	6.135548
432.535400	1301.597900	13559.828125	2257.316650	7.796547
432.895020	1324.353149	13163.887695	2170.846924	7.149722
433.254578	1401.720825	13457.429688	2195.877686	6.587392
433.614105	1435.853638	13787.380859	2243.663574	6.540162
433.973602	1458.608887	14001.279297	2223.183838	6.095791
434.333038	1363.036987	14014.932617	2325.582275	7.607913
434.692444	1344.832764	14322.127930	2211.806152	6.680694
435.051819	1374.414551	14492.791992	2154.918213	5.949697
435.411133	1424.476074	14574.710938	2193.602051	5.848763
435.770416	1492.741699	13634.920898	2195.877686	5.790855
436.129669	1363.036987	14347.158203	2184.500000	6.326674
436.488861	1342.557251	14087.749023	2116.234375	6.070345
436.848083	1317.526489	14083.198242	2225.459229	7.112299
437.207184	1356.210449	13830.615234	2157.193604	6.421013
437.566254	1324.353149	14285.719727	2209.530762	6.829354
437.925293	1454.057739	14222.004883	2150.367188	5.453574
438.284363	1324.353149	14338.056641	2173.122314	6.522119
438.643311	1351.659302	14706.691406	2216.357178	6.474697
439.002258	1419.924927	14718.068359	2129.887451	5.338809
439.361145	1388.067749	15075.325195	2145.816162	5.536160
439.719971	1388.067749	15564.562500	2202.704102	5.746387
440.078827	1417.649414	15676.062500	2189.051025	5.410151
440.437592	1342.557251	16137.993164	2166.295898	5.567519
440.796295	1347.108276	16015.115234	2173.122314	5.631399
441.155029	1338.006226	17460.070313	2243.663574	5.617502
441.513672	1381.241089	17972.062500	2145.816162	4.608422
441.872253	1385.792114	17667.142578	2207.255127	5.045423
442.230865	1399.445313	17405.458984	2182.224365	4.890531
442.589386	1394.894287	17155.150391	2257.316650	5.472134
442.947876	1403.996338	17248.447266	2168.571289	4.825506
443.306335	1376.690063	16893.466797	2134.438477	4.883414
443.664764	1301.597900	16046.972656	2227.734863	6.280864
444.023102	1360.761475	16556.689453	2127.612061	5.046422
444.381500	1365.312500	16490.699219	2091.203613	4.799158
444.739777	1358.485962	16131.166992	2111.683350	5.098583
445.098022	1408.547363	16297.280273	2104.856689	4.676754
445.456238	1356.210449	16322.310547	2116.234375	5.078303
445.814423	1403.996338	17268.927734	2216.357178	5.120481
446.172577	1351.659302	17896.970703	2082.101563	4.414799
446.530701	1438.129150	17655.765625	2077.550537	3.942753
446.888733	1413.098389	18465.851563	2177.673340	4.483586
447.246765	1417.649414	19273.662109	2266.418701	4.753409
447.604736	1458.608887	18754.841797	2257.316650	4.617814
447.962677	1394.894287	18914.128906	2255.041016	4.909728
448.320587	1424.476074	19369.232422	2286.898438	4.805985
448.678436	1403.996338	18973.292969	2275.520752	4.960497
449.036255	1369.863525	18795.802734	2273.245361	5.184121
449.394043	1358.485962	17865.113281	2243.663574	5.362559
449.751770	1349.383789	17630.734375	2291.449463	5.786164
450.109467	1372.139038	17623.908203	2264.143311	5.488659
450.467163	1342.557251	17350.845703	2371.092773	6.425019
450.824768	1349.383789	17241.621094	2248.214600	5.655785
451.182343	1331.179688	16959.457031	2270.969727	6.013395
451.539886	1363.036987	15960.502930	2343.786377	6.718628
451.897369	1435.853638	16338.239258	2391.572266	6.413192
452.254822	1426.751587	16158.473633	2293.724854	5.885077
452.612274	1272.016113	16925.324219	2361.990479	6.963220
452.969635	1363.036987	16583.996094	2439.358398	7.071311
453.326965	1378.965576	16467.943359	2512.175049	7.510180
453.684326	1403.996338	16185.779297	2468.940186	7.204434
454.041534	1394.894287	15980.982422	2446.184814	7.207488
454.398773	1390.343262	15503.123047	2480.317627	7.723315
454.755951	1433.578125	15129.937500	2575.889648	8.340257
455.113098	1408.547363	14636.149414	2591.818115	8.945467
455.470215	1408.547363	15032.090820	2648.706299	9.103058
455.827240	1374.414551	14959.273438	2669.185791	9.530988
456.184265	1492.741699	14759.028320	2589.542725	8.267581
456.541260	1347.108276	14781.783203	2726.073975	10.264228
456.898193	1385.792114	14381.291016	2817.094727	11.013833
457.255096	1374.414551	14727.170898	2835.298828	10.940695
457.611969	1360.761475	14611.119141	2885.360352	11.506096
457.968781	1374.414551	14888.732422	2935.421875	11.550766
458.325531	1376.690063	14991.130859	3024.167236	12.100954
458.682312	1401.720825	15830.797852	3172.075928	12.269358
459.039001	1360.761475	16304.106445	3345.015625	13.278514
459.395630	1429.027100	17216.589844	3588.496338	13.678294
459.752289	1385.792114	18661.546875	3631.731201	13.000526
460.108856	1376.690063	19712.835938	3941.202148	13.986102
460.465363	1422.200562	20363.634766	4155.101074	14.428161
460.821899	1385.792114	20441.003906	4230.193359	14.927157
461.178345	1458.608887	20004.103516	4202.886719	14.797544
461.534760	1372.139038	19492.111328	4166.478516	15.421322
461.891144	1342.557251	19321.447266	4330.315918	16.618149
462.247467	1351.659302	18092.666016	4127.794922	16.582850
462.603760	1438.129150	17890.144531	4136.896973	16.403873
462.960052	1317.526489	16822.925781	4089.110840	17.874964
463.316254	1347.108276	16392.851563	4070.906738	18.103449
463.672424	1433.578125	16263.147461	3986.712402	17.216511
464.028564	1363.036987	15503.123047	4050.427002	19.005472
464.384644	1340.281738	15450.786133	4175.580566	20.093533
464.740723	1335.730713	15575.939453	4323.489746	20.981146
465.096741	1383.516602	15377.969727	4243.846191	20.439024
465.452698	1390.343262	15266.468750	4312.111816	21.056084
465.808655	1451.782227	15694.266602	4396.306152	20.674231
466.164520	1344.832764	15352.938477	4328.040527	21.296297
466.520355	1381.241089	16413.332031	4594.276367	21.374506
466.876190	1381.241089	16240.391602	4553.316895	21.347626
467.231964	1433.578125	16210.810547	4687.572754	22.020325
467.587677	1392.618774	16948.078125	4953.808594	22.893505
467.943390	1397.169800	16993.589844	4944.706543	22.745840
468.299011	1415.373901	16274.524414	4789.971191	22.710566
468.654633	1429.027100	16406.505859	4819.553223	22.637497
469.010223	1442.680176	16317.759766	4880.992188	23.114578
469.365723	1381.241089	16035.594727	4883.267578	23.897514
469.721191	1388.067749	16003.738281	5012.972168	24.801491
470.076660	1360.761475	15425.755859	4874.165527	24.979776
470.432068	1394.894287	15521.327148	4919.675781	24.951675
470.787445	1340.281738	15530.429688	5012.972168	25.881973
471.142792	1338.006226	15398.449219	4965.186523	25.797054
471.498016	1322.077637	15960.502930	5156.330078	26.193066
471.853271	1383.516602	15516.776367	5272.381836	27.515699
472.208496	1388.067749	15737.501953	5204.116211	26.593719
472.563660	1403.996338	15773.910156	5256.453125	26.809185
472.918762	1399.445313	15971.880859	5406.637207	27.498436
473.273865	1442.680176	16761.486328	5324.718750	25.341652
473.628876	1365.312500	16970.833984	5652.393555	27.471565
473.983917	1358.485962	16861.609375	5775.271973	28.489655
474.338837	1369.863525	16786.517578	5629.638672	27.630999
474.693787	1397.169800	16718.251953	5643.291504	27.714241
475.048645	1378.965576	16882.087891	5697.904297	27.858507
475.403503	1406.271851	16866.160156	5759.343262	28.157196
475.758270	1433.578125	17202.937500	5952.762207	28.658007
476.113037	1410.822876	17107.365234	5736.587891	27.558714
476.467773	1458.608887	17257.548828	5877.670410	27.970621
476.822418	1419.924927	18399.861328	6223.549316	28.290005
477.177063	1369.863525	17712.654297	6391.937988	30.729599
477.531647	1399.445313	18363.453125	6307.743652	28.933601
477.886200	1422.200562	18802.628906	6537.571289	29.431787
478.240723	1281.118164	19405.640625	6646.796387	29.604521
478.595184	1265.189575	19564.927734	6765.123535	30.054714
478.949585	1399.445313	19812.958984	6942.613770	30.103806
479.303986	1390.343262	19956.318359	6917.583008	29.770803
479.658325	1374.414551	20327.226563	7220.227539	30.844040
480.012634	1401.720825	20017.755859	7363.585449	32.025429
480.366913	1344.832764	20780.056641	7418.197754	31.249268
480.721130	1306.148926	21312.527344	7648.025391	31.699272
481.075317	1419.924927	21685.712891	7759.525879	31.282284
481.429474	1394.894287	22743.830078	8125.884766	31.528458
481.783569	1319.802124	24054.531250	8553.682617	31.818636
482.137604	1417.649414	24598.378906	8917.765625	32.354961
482.491669	1394.894287	26844.318359	9529.880859	31.965307
482.845612	1383.516602	29565.841797	10424.161133	32.079132
483.199554	1376.690063	33013.253906	11684.798828	32.582893
483.553436	1413.098389	38042.156250	13555.277344	33.149033
483.907318	1358.485962	44593.382813	15723.848633	33.226311
484.261139	1392.618774	51827.261719	18465.851563	33.852192
484.614899	1365.312500	54972.031250	19935.837891	34.642159
484.968628	1406.271851	55147.246094	20158.837891	34.894356
485.322357	1312.975464	53194.851563	19052.935547	34.192982
485.675964	1376.690063	49699.648438	17551.091797	33.471466
486.029572	1388.067749	45867.671875	16281.351563	33.483398
486.383148	1365.312500	42611.402344	15136.764648	33.388504
486.736694	1347.108276	40135.636719	14272.066406	33.321602
487.090149	1390.343262	39992.277344	14567.883789	34.136997
487.443604	1426.751587	40686.312500	14736.272461	33.901348
487.796997	1417.649414	42342.890625	15403.000000	34.172920
488.150360	1390.343262	44051.808594	16060.625977	34.387669
488.503693	1376.690063	44802.730469	16244.943359	34.238106
488.856964	1363.036987	44299.839844	16003.738281	34.098255
489.210175	1358.485962	41992.460938	15405.275391	34.569073
489.563416	1495.017212	39990.003906	14620.220703	34.095875
489.916565	1408.547363	37557.472656	13855.646484	34.432835
490.269653	1479.088501	34886.007813	13125.204102	34.861389
490.622772	1392.618774	33912.085938	12506.262695	34.175358
490.975769	1390.343262	33445.605469	12285.537109	33.988785
491.328735	1353.934937	34876.906250	13147.958984	35.181915
491.681732	1401.720825	36742.835938	13696.359375	34.788486
492.034607	1390.343262	39123.027344	14524.649414	34.808834
492.387482	1353.934937	39880.777344	14793.161133	34.882759
492.740326	1463.159912	39093.449219	14704.415039	35.187759
493.093079	1390.343262	37502.859375	14324.403320	35.816006
493.445862	1431.302612	34394.496094	13163.887695	35.592983
493.798523	1447.231201	31925.556641	12069.362305	34.851425
494.151215	1385.792114	29688.720703	11236.521484	34.804630
494.503815	1390.343262	27695.363281	10499.252930	34.628029
494.856384	1308.424438	25934.111328	10185.231445	36.046940
495.208923	1353.934937	24691.675781	9577.666992	35.237911
495.561432	1419.924927	24020.398438	9297.778320	34.857029
495.913879	1394.894287	23467.445313	9272.747070	35.690720
496.266296	1331.179688	23574.394531	9286.400391	35.764706
496.618683	1372.139038	23531.160156	9341.012695	35.962208
496.970978	1378.965576	24354.898438	9443.411133	35.099533
497.323273	1403.996338	23949.855469	9787.014648	37.182076
497.675507	1410.822876	24571.074219	9675.514648	35.684807
498.027710	1456.333252	24434.542969	9791.566406	36.274513
498.379852	1449.506714	24052.253906	9602.698242	36.071682
498.731995	1417.649414	24100.041016	9466.166992	35.483551
499.084076	1356.210449	23795.121094	9343.288086	35.594765
499.436096	1356.210449	23783.744141	9147.593750	34.740261
499.788086	1444.955688	22536.757813	9008.787109	35.861473
500.140106	1419.924927	22493.523438	9036.092773	36.140804
500.491943	1349.383789	22240.939453	8747.101563	35.410088
500.843842	1447.231201	21731.224609	8710.693359	35.808834
501.195679	1388.067749	21125.935547	8487.692383	35.969563
501.547455	1356.210449	20841.494141	8383.018555	36.062130
501.899231	1358.485962	20814.189453	8253.313477	35.438595
502.250885	1356.210449	20511.544922	8351.161133	36.516987
502.602600	1442.680176	20466.033203	8207.803711	35.562202
502.954193	1435.853638	20406.871094	8232.833984	35.828232
503.305786	1429.027100	20199.798828	8273.793945	36.465027
503.657379	1388.067749	20648.076172	8191.875000	35.326088
504.008820	1335.730713	20495.615234	8287.446289	36.282661
504.360291	1351.659302	20843.771484	8410.325195	36.212936
504.711700	1363.036987	20805.085938	8449.008789	36.446629
505.063080	1401.720825	20839.218750	8392.121094	35.963478
505.414368	1401.720825	20855.148438	8348.885742	35.711777
505.765656	1410.822876	20666.279297	8305.651367	35.807140
506.116943	1333.455200	20677.658203	8592.366211	37.524994
506.468109	1349.383789	20495.615234	8155.466797	35.547901
506.819305	1342.557251	20388.666016	8344.334961	36.762249
507.170410	1415.373901	20689.035156	8223.732422	35.324673
507.521484	1358.485962	20436.453125	8296.548828	36.366890
507.872559	1390.343262	20356.808594	8430.804688	37.120579
508.223480	1367.588013	20550.228516	8321.579102	36.251480
508.574493	1401.720825	21098.628906	8367.089844	35.362755
508.925385	1438.129150	21073.597656	8774.408203	37.362385
509.276245	1385.792114	21444.507813	8706.142578	36.494614
509.627045	1426.751587	21874.582031	8922.317383	36.657024
509.977814	1403.996338	22272.796875	8858.602539	35.721298
510.328613	1410.822876	22391.125000	8940.521484	35.889370
510.679260	1374.414551	22090.755859	8954.174805	36.588314
511.029999	1397.169800	22409.328125	9052.021484	36.430584
511.380585	1299.322388	22341.062500	8869.980469	35.979240
511.731140	1469.986450	22828.025391	9165.797852	36.032387
512.081726	1392.618774	22909.943359	9063.399414	35.649326
512.432129	1403.996338	23399.179688	9322.808594	36.002483
512.782654	1319.802124	23417.384766	9356.941406	36.371124
513.133057	1415.373901	23483.375000	9322.808594	35.832127
513.483398	1378.965576	23355.945313	9589.044922	37.357632
513.833801	1353.934937	23622.181641	9491.197266	36.542000
514.183960	1408.547363	22989.585938	9265.920898	36.408691
514.534302	1419.924927	23037.373047	9284.125000	36.378948
514.884460	1367.588013	23014.617188	9265.920898	36.486916
515.234619	1403.996338	22814.371094	9222.685547	36.518227
515.584717	1378.965576	22684.666016	9224.960938	36.825802
515.934753	1326.628662	22691.494141	9140.766602	36.574711
516.284851	1392.618774	22946.351563	9222.685547	36.328125
516.634766	1399.445313	22853.054688	9209.032227	36.402206
516.984741	1458.608887	23208.037109	9425.207031	36.629002
517.334595	1365.312500	24020.398438	9639.106445	36.520691
517.684448	1372.139038	24773.595703	10057.801758	37.115906
518.034363	1422.200562	25417.566406	10178.404297	36.491230
518.384094	1378.965576	26621.318359	10763.213867	37.176598
518.733826	1385.792114	27590.689453	10958.908203	36.531784
519.083496	1326.628662	28701.144531	11393.532227	36.774727
519.433167	1363.036987	28894.562500	11450.420898	36.639393
519.782776	1328.904175	29163.074219	11386.706055	36.134727
520.132324	1294.771362	28425.806641	11334.369141	37.004108
520.481873	1351.659302	27827.343750	10993.041016	36.415989
520.831299	1342.557251	27263.015625	10745.008789	36.274246
521.180786	1312.975464	26751.023438	10346.792969	35.513012
521.530151	1426.751587	26327.775391	10390.028320	35.995613
521.879517	1403.996338	25483.556641	10112.414063	36.165188
522.228882	1356.210449	25761.171875	10194.333008	36.214455
522.578064	1397.169800	25155.882813	10144.271484	36.816395
522.927307	1372.139038	25399.363281	10098.761719	36.319729
523.276489	1319.802124	25228.699219	10028.219727	36.423336
523.625610	1317.526489	25836.263672	10076.005859	35.721577
523.974792	1376.690063	25927.283203	10164.750977	35.795715
524.323792	1331.179688	26603.113281	10399.129883	35.881504
524.672852	1399.445313	26967.197266	10758.662109	36.605553
525.021790	1358.485962	27599.791016	10688.121094	35.553242
525.370728	1392.618774	29126.666016	11648.390625	36.978992
525.719604	1360.761475	30755.939453	12135.352539	36.654282
526.068420	1363.036987	32626.417969	12490.333984	35.592110
526.417297	1367.588013	33233.980469	12899.927734	36.189663
526.765991	1431.302612	34374.015625	13432.399414	36.430199
527.114746	1392.618774	35379.796875	13839.717773	36.622925
527.463379	1410.822876	36647.261719	14174.218750	36.222149
527.812012	1417.649414	38394.863281	14843.222656	36.307693
528.160706	1476.812988	41778.562500	16156.197266	36.423691
528.509155	1444.955688	46067.917969	17846.910156	36.756760
528.857727	1401.720825	50678.125000	19812.958984	37.363194
529.206177	1440.404663	54742.203125	21164.619141	37.004784
529.554565	1415.373901	55365.695313	21938.296875	38.040413
529.902893	1353.934937	54284.824219	21069.046875	37.246891
530.251221	1360.761475	51758.996094	20140.634766	37.262959
530.599548	1363.036987	48297.929688	18670.648438	36.875786
530.947876	1347.108276	44943.812500	17102.814453	36.139675
531.296021	1449.506714	41007.160156	15610.072266	35.797283
531.644165	1406.271851	38410.792969	14838.670898	36.299347
531.992249	1438.129150	36474.324219	14058.167969	36.020004
532.340454	1324.353149	35443.511719	13901.156250	36.861408
532.688354	1419.924927	35152.246094	13593.960938	36.090122
533.036438	1365.312500	35969.156250	13871.575195	36.141254
533.384338	1360.761475	37821.429688	14702.139648	36.591152
533.732239	1392.618774	40349.535156	15266.468750	35.613316
534.080139	1388.067749	40649.902344	15732.951172	36.536457
534.427917	1388.067749	40731.824219	15814.869141	36.668591
534.775757	1388.067749	39243.632813	15271.020508	36.673477
535.123474	1381.241089	37316.265625	14708.966797	37.088402
535.471191	1372.139038	34797.265625	13644.022461	36.714550
535.818848	1335.730713	33953.046875	13027.356445	35.844845
536.166382	1399.445313	33120.207031	12667.824219	35.523670
536.513977	1463.159912	32471.681641	12622.313477	35.987377
536.861511	1365.312500	33193.023438	12672.375000	35.525841
537.208984	1399.445313	33161.164063	12752.018555	35.742943
537.556396	1358.485962	33147.511719	12981.845703	36.564064
537.903809	1403.996338	32387.488281	12547.221680	35.965042
538.251160	1435.853638	31188.289063	12415.241211	36.902485
538.598389	1397.169800	30419.162109	11921.453125	36.263130
538.945740	1363.036987	29188.105469	11621.084961	36.866207
539.292969	1401.720825	28601.021484	11520.961914	37.204048
539.640137	1417.649414	28682.939453	11259.277344	36.095814
539.987244	1363.036987	28553.234375	11291.133789	36.513515
540.334351	1419.924927	29197.207031	11450.420898	36.110432
540.681458	1415.373901	31151.878906	12285.537109	36.554943
541.028442	1344.832764	33218.050781	13227.602539	37.281361
541.375366	1401.720825	36224.015625	14547.404297	37.750771
541.722290	1403.996338	39728.316406	15819.420898	37.614300
542.069153	1376.690063	41507.773438	16504.351563	37.695621
542.416016	1367.588013	41865.031250	16818.375000	38.152500
542.762756	1406.271851	41346.214844	16568.066406	37.961487
543.109558	1360.761475	40128.808594	15921.819336	37.559429
543.456299	1381.241089	38199.167969	15191.376953	37.509270
543.802917	1397.169800	36845.234375	14620.220703	37.302601
544.149536	1438.129150	35211.410156	14060.443359	37.373669
544.496094	1367.588013	33224.878906	13227.602539	37.228573
544.842651	1410.822876	31661.595703	12767.947266	37.543251
545.189148	1358.485962	30020.945313	12212.719727	37.869164
545.535583	1383.516602	28767.134766	11757.616211	37.884331
545.882019	1413.098389	28218.734375	11939.657227	39.269943
546.228333	1413.098389	27772.730469	11878.218750	39.701313
546.574707	1297.046875	27501.945313	11739.412109	39.848907
546.920898	1349.383789	27267.566406	11550.543945	39.359085
547.267212	1317.526489	27472.363281	11680.248047	39.620670
547.613342	1369.863525	27547.455078	11382.155273	38.247566
547.959473	1419.924927	26930.789063	11297.960938	38.720901
548.305664	1369.863525	26616.767578	10913.397461	37.800808
548.651611	1438.129150	25319.720703	10651.712891	38.580276
548.997742	1417.649414	24341.246094	10096.485352	37.859833
549.343689	1344.832764	23535.710938	9675.514648	37.541016
549.689575	1388.067749	22391.125000	9240.889648	37.388947
550.035522	1422.200562	21988.357422	8874.531250	36.235893
550.381287	1408.547363	21244.261719	8585.540039	36.182175
550.727173	1388.067749	20868.800781	8296.548828	35.463146
551.072876	1424.476074	20518.371094	8162.292969	35.287807
551.418640	1317.526489	20122.429688	8014.384277	35.612297
551.764282	1419.924927	20252.134766	7955.220703	34.702759
552.109863	1378.965576	19963.144531	7948.394043	35.349575
552.455505	1424.476074	20204.349609	7898.332520	34.472313
552.801025	1372.139038	20190.695313	7991.628906	35.175331
553.146545	1351.659302	20693.585938	8000.730957	34.376472
553.491943	1378.965576	21098.628906	8055.343750	33.856449
553.837341	1424.476074	21094.078125	8100.854004	33.942619
554.182800	1385.792114	20372.738281	8050.792480	35.103069
554.528015	1353.934937	20359.083984	7902.883789	34.458813
554.873352	1310.699951	19949.490234	7773.179199	34.672203
555.218628	1397.169800	19751.521484	7777.729980	34.763199
555.563721	1426.751587	19423.845703	7422.749023	33.316475
555.908875	1324.353149	19203.119141	7183.819336	32.773327
556.254028	1449.506714	18677.474609	7236.156250	33.588692
556.599121	1397.169800	18693.404297	7151.961914	33.271935
556.944031	1433.578125	18352.076172	7142.859863	33.745796
557.289063	1385.792114	18336.146484	6992.675293	33.078266
557.633972	1449.506714	18131.349609	7083.696289	33.774380
557.978882	1397.169800	18329.320313	6776.500977	31.769922
558.323792	1415.373901	17858.287109	6851.593262	33.061165
558.668518	1490.466064	17623.908203	6819.735840	33.032440
559.013306	1363.036987	17883.318359	6885.726074	33.429752
559.358032	1401.720825	17680.796875	6669.551270	32.359516
559.702637	1485.915039	17633.009766	6778.776367	32.779034
560.047363	1394.894287	17760.439453	6737.816895	32.647388
560.391846	1401.720825	17514.683594	6742.368164	33.145035
560.736450	1390.343262	17398.632813	6655.898438	32.892681
561.080933	1374.414551	17992.542969	6758.296875	32.397644
561.425354	1333.455200	17648.939453	6660.449219	32.649929
561.769775	1378.965576	17856.011719	6708.235352	32.343597
562.114136	1385.792114	17812.777344	6774.225586	32.802330
562.458496	1340.281738	18099.492188	6842.491211	32.830959
562.802673	1356.210449	18101.767578	6751.470215	32.219051
563.146912	1390.343262	17835.531250	6658.173828	32.032658
563.491150	1353.934937	17721.755859	6464.754395	31.224800
563.835266	1365.312500	17692.173828	6528.469238	31.623695
564.179443	1413.098389	17612.531250	6535.295898	31.619610
564.523438	1399.445313	17514.683594	6726.439453	33.055634
564.867493	1376.690063	17607.980469	6535.295898	31.781860
565.211426	1472.261963	17837.806641	6760.572266	32.313686
565.555359	1381.241089	18085.839844	6719.612793	31.957495
565.899231	1401.720825	18331.595703	6740.092773	31.532259
566.243042	1397.169800	19016.527344	6897.103516	31.215290
566.586914	1376.690063	19526.244141	7204.298828	32.108826
566.930603	1342.557251	20008.654297	7261.187012	31.707912
567.274292	1381.241089	20095.125000	7322.625977	31.748537
567.617981	1388.067749	20017.755859	7211.125488	31.256872
567.961609	1360.761475	19528.519531	7097.349609	31.575651
568.305237	1365.312500	19164.435547	7045.012207	31.909998
568.648682	1447.231201	19052.935547	7051.838867	31.834042
568.992188	1376.690063	18811.730469	6808.358398	31.153746
569.335632	1367.588013	18493.158203	6737.816895	31.357958
569.679016	1451.782227	18613.759766	6774.225586	31.012997
570.022461	1465.435425	18388.484375	6451.101563	29.460802
570.365662	1363.036987	18556.873047	6719.612793	31.154047
570.708984	1438.129150	18586.453125	6639.969727	30.334398
571.052185	1440.404663	18377.105469	6580.806152	30.350664
571.395386	1399.445313	18670.648438	6765.123535	31.067194
571.738525	1381.241089	19196.292969	6665.000488	29.658960
572.081604	1372.139038	19469.355469	6860.695313	30.328178
572.424683	1390.343262	19683.255859	6910.756836	30.177883
572.767578	1333.455200	20095.125000	7008.604004	30.248634
573.110596	1338.006226	20035.960938	7047.288086	30.534258
573.453552	1342.557251	20047.337891	6969.920410	30.085159
573.796387	1312.975464	20020.031250	7051.838867	30.677532
574.139282	1399.445313	19558.101563	6953.991699	30.588972
574.481995	1435.853638	19471.630859	6899.378906	30.292707
574.824768	1390.343262	19371.507813	6596.734863	28.954697
575.167480	1392.618774	19469.355469	6785.603027	29.833839
575.510132	1388.067749	19037.007813	6671.827148	29.938112
575.852722	1417.649414	18982.394531	6740.092773	30.301851
576.195251	1369.863525	18968.742188	6551.224609	29.441429
576.537842	1424.476074	18736.638672	6485.234375	29.232388
576.880188	1349.383789	18836.761719	6432.897461	29.069614
577.222717	1433.578125	18185.962891	6337.325195	29.271935
577.565063	1397.169800	17851.460938	6278.162109	29.663948
577.907410	1351.659302	17760.439453	6157.559082	29.288589
578.249756	1413.098389	17052.751953	5989.170898	29.259422
578.591919	1312.975464	16661.363281	5772.996094	29.058561
578.934204	1426.751587	16231.290039	5779.822754	29.403627
579.276306	1378.965576	16128.891602	5811.680176	30.052456
579.618469	1376.690063	16092.483398	5638.740723	28.962427
579.960571	1374.414551	15594.144531	5609.158691	29.780762
580.302551	1312.975464	15366.591797	5547.719727	30.132772
580.644531	1408.547363	15209.581055	5520.413574	29.793901
580.986511	1310.699951	15079.875977	5424.841797	29.879360
581.328369	1388.067749	14790.884766	5299.687988	29.185059
581.670227	1392.618774	14699.864258	5379.331055	29.958961
582.012024	1347.108276	14581.537109	5329.269531	30.089407
582.353821	1331.179688	14774.957031	5188.187500	28.689911
582.695496	1383.516602	14754.476563	5167.707520	28.301565
583.037231	1394.894287	14472.312500	5270.105957	29.632851
583.378845	1406.271851	14779.507813	5072.135742	27.411942
583.720398	1390.343262	14613.394531	5197.289551	28.790226
584.062012	1376.690063	14561.057617	5047.104980	27.839144
584.403442	1431.302612	14545.128906	5094.891113	27.936838
584.744934	1385.792114	14499.618164	4896.920898	26.774252
585.086365	1381.241089	14429.077148	4974.288574	27.537497
585.427734	1338.006226	14308.474609	4949.257813	27.842104
585.768982	1376.690063	14024.035156	4962.910645	28.355522
586.110291	1356.210449	14363.086914	4946.982422	27.606718
586.451599	1435.853638	14035.412109	4890.094238	27.415569
586.792725	1335.730713	13921.636719	4928.777832	28.548180
587.133850	1381.241089	14174.218750	4942.431152	27.837069
587.474915	1479.088501	14137.810547	4912.849609	27.125656
587.815979	1376.690063	14090.024414	4824.104004	27.116522
588.157043	1417.649414	14105.953125	4867.338867	27.187948
588.497925	1440.404663	14046.790039	4846.859375	27.021660
588.838867	1401.720825	14456.383789	5010.696777	27.645111
589.179749	1417.649414	14379.015625	4885.542969	26.755617
589.520569	1431.302612	14404.046875	4942.431152	27.065426
589.861450	1408.547363	14827.293945	4944.706543	26.352381
590.202087	1424.476074	14916.039063	4919.675781	25.906559
590.542847	1415.373901	14733.997070	4812.726563	25.508287
590.883484	1431.302612	14806.813477	4937.880371	26.216402
591.224121	1388.067749	14479.138672	4844.583984	26.403616
591.564636	1374.414551	14690.762695	4805.899902	25.768969
591.905151	1419.924927	14510.996094	4657.991211	24.734922
592.245667	1394.894287	14422.250977	4687.572754	25.275108
592.585999	1413.098389	14399.496094	4632.960449	24.794113
592.926453	1417.649414	14385.842773	4708.052734	25.372873
593.266724	1385.792114	14199.250000	4573.796875	24.880129
593.607056	1351.659302	14324.403320	4662.541992	25.521839
593.947388	1322.077637	14192.422852	4778.593750	26.856436
594.287476	1388.067749	14328.954102	4648.889160	25.197819
594.627686	1369.863525	14319.852539	4576.072266	24.758389
594.967773	1403.996338	14649.802734	4653.439941	24.531866
595.307861	1460.884399	15075.325195	4605.654297	23.098783
595.647888	1349.383789	14840.946289	4673.919922	24.641594
595.987854	1376.690063	15088.978516	4673.919922	24.045805
596.327820	1442.680176	15084.427734	4685.297363	23.769808
596.667725	1344.832764	15441.684570	4660.266602	23.518967
597.007568	1408.547363	15953.676758	4903.747559	24.030039
597.347351	1360.761475	16636.332031	4999.319336	23.819456
597.687073	1488.190552	17148.324219	5113.095215	23.147343
598.026794	1360.761475	17066.406250	5156.330078	24.166908
598.366455	1394.894287	16588.546875	4987.941406	23.648344
598.706116	1310.699951	16342.790039	4862.788086	23.630035
599.045654	1385.792114	15985.533203	4860.512207	23.799875
599.385193	1456.333252	15227.785156	4519.184082	22.240580
599.724731	1388.067749	14843.222656	4353.071289	22.036188
600.064087	1394.894287	14536.027344	4303.009766	22.129869
600.403564	1376.690063	14090.024414	4273.428223	22.785040
600.742920	1372.139038	13928.462891	4257.499512	22.979340
601.082153	1392.618774	13819.238281	4262.050293	23.091007
601.421387	1392.618774	13466.532227	3998.090088	21.579344
601.760620	1442.680176	13389.164063	4045.875977	21.790476
602.099854	1401.720825	13744.145508	4159.651855	22.345133
602.438843	1372.139038	13687.257813	4029.947266	21.581667
602.778015	1312.975464	13755.523438	4073.182129	22.183613
603.117065	1388.067749	14119.606445	4052.702637	20.929399
603.456055	1338.006226	14490.516602	4255.224121	22.179932
603.794983	1326.628662	14881.906250	4287.081055	21.839851
604.133850	1315.250977	15257.367188	4448.643066	22.474293
604.472778	1410.822876	15678.337891	4380.377441	20.813398
604.811584	1403.996338	16065.176758	4528.286621	21.309950
605.150330	1394.894287	16615.853516	4728.532227	21.901628
605.489075	1358.485962	16909.394531	4678.470703	21.349138
605.827698	1369.863525	17100.539063	4723.980957	21.322145
606.166382	1335.730713	16659.087891	4639.787109	21.562222
606.504883	1394.894287	16481.597656	4544.214844	20.874809
606.843445	1297.046875	15851.278320	4337.142578	20.888054
607.181946	1367.588013	15277.846680	4289.356934	21.004419
607.520386	1385.792114	15120.835938	4262.050293	20.941019
607.858826	1383.516602	14372.189453	4164.203125	21.408550
608.197083	1319.802124	14322.127930	4070.906738	21.158556
608.535461	1419.924927	14035.412109	4116.416992	21.374458
608.873718	1385.792114	14124.157227	4027.671875	20.739552
609.211914	1429.027100	14301.648438	4045.875977	20.328796
609.550171	1372.139038	14652.078125	4134.621094	20.801916
609.888245	1363.036987	14759.028320	4171.029785	20.961441
610.226318	1381.241089	15209.581055	4225.642090	20.569359
610.564392	1385.792114	15184.550781	4359.897949	21.553431
610.902344	1372.139038	15289.224609	4114.141602	19.702417
611.240295	1401.720825	15232.335938	4189.233887	20.154657
611.578247	1472.261963	15027.539063	4205.162598	20.161156
611.916138	1410.822876	14695.313477	4196.060547	20.966087
612.253845	1353.934937	14278.892578	4130.070313	21.478872
612.591675	1383.516602	13819.238281	4007.192139	21.097895
612.929382	1333.455200	13566.655273	3959.406250	21.465775
613.267090	1319.802124	13127.479492	3811.497314	21.102331
613.604736	1333.455200	13097.897461	3761.435791	20.638296
613.942261	1372.139038	12940.886719	3740.956299	20.476006
614.279785	1399.445313	12754.293945	3704.547852	20.300602
614.617310	1360.761475	12620.038086	3627.180176	20.129347
614.954712	1376.690063	12610.936523	3536.159424	19.222200
615.292175	1419.924927	12469.853516	3524.781738	19.048601
615.629517	1326.628662	12005.647461	3640.833252	21.670574
615.966797	1303.873413	12503.986328	3370.046387	18.447784
616.304138	1365.312500	12187.689453	3481.546875	19.554247
616.641296	1381.241089	12219.546875	3449.689453	19.084608
616.978516	1369.863525	11971.514648	3490.648926	20.004293
617.315552	1372.139038	12117.148438	3438.312012	19.229139
617.652771	1417.649414	11880.494141	3395.077148	18.899523
617.989685	1474.537476	12283.261719	3502.026611	18.757895
618.326721	1447.231201	12292.363281	3420.107666	18.191355
618.663696	1390.343262	12076.188477	3522.506104	19.953150
619.000549	1413.098389	12051.158203	3574.843262	20.320856
619.337463	1378.965576	12203.618164	3415.556641	18.814379
619.674194	1376.690063	11837.258789	3415.556641	19.490973
620.010986	1374.414551	11960.137695	3356.393066	18.723129
620.347778	1429.027100	12001.096680	3431.485352	18.941025
620.684387	1367.588013	11969.239258	3417.832275	19.338913
621.020996	1342.557251	11830.432617	3454.240479	20.134518
621.357605	1426.751587	11846.361328	3363.219727	18.584845
621.694214	1397.169800	11834.983398	3256.270264	17.811207
622.030579	1449.506714	11680.248047	3206.208740	17.170818
622.367065	1385.792114	11725.758789	3279.025391	18.309858
622.703430	1454.057739	11568.748047	3360.944336	18.852644
623.039795	1431.302612	11716.656250	3172.075928	16.924778
623.376160	1474.537476	11457.247070	3272.198975	18.007750
623.712402	1374.414551	11400.359375	3363.219727	19.836586
624.048645	1451.782227	11461.797852	3224.413086	17.708572
624.384766	1408.547363	11461.797852	3319.984863	19.013130
624.720886	1390.343262	11525.512695	3335.913574	19.196228
625.057007	1394.894287	11486.829102	3415.556641	20.022547
625.392944	1397.169800	11580.125000	3306.331787	18.748604
625.729004	1388.067749	11680.248047	3340.464600	18.969709
626.064941	1451.782227	11800.850586	3360.944336	18.447672
626.400818	1356.210449	11757.616211	3417.832275	19.820606
626.736633	1372.139038	12203.618164	3465.618164	19.327728
627.072449	1401.720825	12497.160156	3467.893799	18.621820
627.408264	1353.934937	12481.231445	3438.312012	18.732105
627.743896	1426.751587	12670.099609	3517.955078	18.599474
628.079590	1388.067749	12617.762695	3570.292236	19.432625
628.415161	1363.036987	12574.528320	3558.914551	19.585953
628.750793	1401.720825	12242.301758	3424.658691	18.660788
629.086365	1401.720825	12328.771484	3531.608398	19.491880
629.421753	1349.383789	12087.566406	3276.750000	17.948719
629.757263	1406.271851	12060.259766	3260.821289	17.407091
630.092651	1438.129150	11489.104492	3288.127441	18.406157
630.427917	1358.485962	11618.809570	3292.678711	18.851187
630.763184	1438.129150	11318.440430	3260.821289	18.447720
631.098511	1392.618774	11268.378906	3213.035400	18.433180
631.433716	1344.832764	11111.368164	3178.902588	18.779125
631.768799	1394.894287	10990.765625	3144.769775	18.235712
632.103943	1378.965576	10808.723633	3096.983887	18.219114
632.438965	1433.578125	11074.959961	3122.014648	17.512392
632.773987	1376.690063	10824.652344	3167.524902	18.954721
633.109070	1324.353149	10569.793945	3165.249512	19.911398
633.443848	1406.271851	10606.202148	3162.973877	19.094730
633.778870	1417.649414	10551.589844	3133.392090	18.784256
634.113708	1460.884399	10626.682617	3140.218750	18.321747
634.448425	1401.720825	10776.866211	3160.698486	18.762136
634.783264	1392.618774	10617.580078	3040.095703	17.858904
635.117859	1365.312500	10551.589844	3117.463379	19.073568
635.452576	1374.414551	10836.030273	3203.933350	19.336220
635.787170	1388.067749	10424.161133	3030.993652	18.181816
636.121704	1394.894287	10674.467773	3085.606201	18.219717
636.456177	1419.924927	10374.099609	2949.074951	17.077509
636.790588	1424.476074	10173.853516	2983.207764	17.815346
637.125122	1472.261963	10196.608398	2994.585449	17.449141
637.459412	1408.547363	9937.199219	3083.330566	19.637138
637.793762	1392.618774	9698.269531	2994.585449	19.287672
638.128052	1358.485962	10005.464844	2974.105713	18.684212
638.462280	1315.250977	9853.004883	2919.493164	18.789980
638.796509	1369.863525	9623.177734	2883.084961	18.334711
639.130615	1454.057739	9598.146484	2910.391113	17.882092
639.464722	1356.210449	9566.289063	2960.452637	19.539913
639.798767	1358.485962	9582.217773	2867.156250	18.345325
640.132751	1369.863525	9313.707031	2860.329590	18.762529
640.466736	1367.588013	9420.656250	2776.135498	17.490818
640.800598	1381.241089	9170.348633	2869.431641	19.106047
641.134521	1381.241089	9172.624023	2687.390137	16.764021
641.468262	1394.894287	9261.370117	2853.503174	18.542089
641.802063	1365.312500	9036.092773	2746.553711	18.006529
642.135803	1324.353149	9111.185547	2767.033203	18.527174
642.469421	1422.200562	9111.185547	2785.237549	17.727139
642.803101	1335.730713	8992.858398	2776.135498	18.811293
643.136658	1365.312500	8881.357422	2678.288086	17.468969
643.470215	1319.802124	8915.490234	2691.941162	18.064711
643.803711	1331.179688	8785.786133	2666.910400	17.918192
644.137085	1351.659302	8922.317383	2687.390137	17.643522
644.470581	1374.414551	8785.786133	2671.461426	17.500767
644.803833	1397.169800	8744.826172	2653.257324	17.095078
645.137207	1369.863525	9031.541992	2794.339600	18.592218
645.470459	1310.699951	8701.591797	2835.298828	20.628078
645.803589	1467.710938	8653.805664	2628.226563	16.149462
646.136780	1301.597900	8678.835938	2639.604248	18.136955
646.469849	1410.822876	8785.786133	2680.563477	17.216908
646.802979	1431.302612	8703.867188	2660.083740	16.896118
647.135986	1417.649414	8742.550781	2782.961914	18.639330
647.468994	1394.894287	8840.398438	2721.522949	17.817850
647.801941	1406.271851	8976.929688	2823.921387	18.725580
648.134766	1376.690063	8669.734375	2748.829102	18.814352
648.467651	1397.169800	8951.898438	2676.012451	16.927711
648.800354	1422.200562	8826.745117	2735.176025	17.732021
649.133179	1351.659302	8744.826172	2664.634766	17.759310
649.465881	1363.036987	8813.091797	2696.492188	17.898596
649.798462	1440.404663	8826.745117	2803.441650	18.453482
650.131104	1415.373901	8772.132813	2746.553711	18.094650
650.463623	1369.863525	8867.704102	2776.135498	18.755693
650.796143	1460.884399	8792.612305	2660.083740	16.356298
651.128662	1397.169800	8826.745117	2726.073975	17.886679
651.461060	1454.057739	8751.653320	2644.155273	16.308077
651.793396	1381.241089	8885.909180	2726.073975	17.919952
652.125732	1390.343262	8749.377930	2646.430664	17.068644
652.458008	1338.006226	8674.285156	2785.237549	19.727049
652.790222	1403.996338	8765.305664	2716.971924	17.836168
653.122437	1415.373901	8751.653320	2807.992676	18.982630
653.454529	1474.537476	8888.184570	2707.869873	16.635975
653.786621	1397.169800	8885.909180	2746.553711	18.018839
654.118713	1394.894287	8783.510742	2662.359375	17.154295
654.450623	1365.312500	8710.693359	2794.339600	19.454773
654.782654	1385.792114	8537.753906	2637.328613	17.499205
655.114502	1394.894287	8453.559570	2687.390137	18.310768
655.446350	1408.547363	8439.906250	2655.532715	17.734629
655.778198	1454.057739	8562.785156	2739.727051	18.085787
656.109863	1403.996338	8417.151367	2742.002686	19.078522
656.441650	1388.067749	8328.406250	2664.634766	18.393440
656.773254	1388.067749	8521.825195	2662.359375	17.862839
657.104919	1353.934937	8273.793945	2653.257324	18.776718
657.436462	1390.343262	8162.292969	2705.594238	19.422043
657.767944	1374.414551	8301.099609	2685.114502	18.922470
658.099548	1390.343262	8544.581055	2778.410889	19.402033
658.430908	1376.690063	8749.377930	2785.237549	19.104939
658.762268	1367.588013	8640.152344	2698.767578	18.304129
659.093628	1328.904175	9172.624023	2687.390137	17.319410
659.424927	1344.832764	9177.175781	2819.370361	18.826265
659.756226	1333.455200	9468.442383	2967.279053	20.083914
660.087341	1378.965576	9575.391602	2937.697266	19.017212
660.418518	1335.730713	9739.229492	2937.697266	19.063089
660.749573	1413.098389	9773.362305	2937.697266	18.236254
661.080627	1383.516602	9761.984375	3001.411865	19.310156
661.411621	1401.720825	9479.819336	2896.738037	18.507044
661.742554	1383.516602	9315.982422	2798.890625	17.842800
662.073547	1374.414551	9054.296875	2826.196777	18.903704
662.404297	1426.751587	8986.031250	2730.625000	17.248646
662.735229	1454.057739	8722.071289	2714.696289	17.345022
663.065979	1399.445313	8672.009766	2719.247314	18.147684
663.396667	1360.761475	8608.294922	2753.380127	19.215071
663.727417	1397.169800	8307.926758	2778.410889	19.986828
664.057922	1353.934937	8094.027344	2748.829102	20.695477
664.388611	1381.241089	8123.609375	2691.941162	19.439758
664.719116	1360.761475	7939.291992	2628.226563	19.266691
665.049622	1312.975464	7925.639160	2694.216553	20.887817
665.380005	1344.832764	7891.506348	2680.563477	20.403196
665.710388	1338.006226	7955.220703	2682.839111	20.323248
666.040771	1381.241089	7641.198730	2546.307861	18.611416
666.371033	1438.129150	7764.077148	2610.022461	18.525181
666.701294	1394.894287	7757.250488	2573.614014	18.526464
667.031555	1415.373901	7750.423828	2628.226563	19.145117
667.361633	1369.863525	7775.454590	2610.022461	19.360571
667.691772	1372.139038	7786.832031	2564.511963	18.588154
668.021790	1374.414551	7798.209961	2657.808350	19.978746
668.351807	1324.353149	7743.597168	2660.083740	20.808222
668.681763	1410.822876	7707.188965	2559.960938	18.250814
669.011719	1435.853638	7725.393066	2646.430664	19.247467
669.341614	1285.669312	7618.443848	2610.022461	20.912685
669.671387	1378.965576	7839.168945	2669.185791	19.971821
670.001221	1406.271851	7714.015625	2739.727051	21.139971
670.330933	1365.312500	7839.168945	2582.716064	18.804920
670.660583	1390.343262	7780.005859	2571.338623	18.482906
670.990173	1331.179688	7627.545898	2653.257324	20.997471
671.319763	1374.414551	7836.893555	2596.369141	18.908449
671.649292	1403.996338	7493.290039	2603.195801	19.693571
671.978821	1292.495850	7545.626953	2596.369141	20.851528
672.308289	1372.139038	7527.422852	2600.920166	19.963030
672.637695	1363.036987	7393.166992	2591.818115	20.377357
672.966980	1328.904175	7409.095703	2578.165039	20.546408
673.296326	1419.924927	7363.585449	2573.614014	19.410414
673.625610	1385.792114	7397.718262	2484.868652	18.281603
673.954773	1403.996338	7293.043945	2587.267090	20.092735
674.283936	1376.690063	7331.728027	2503.072998	18.914789
674.613037	1424.476074	7543.351563	2468.940186	17.069544
674.942078	1353.934937	7349.932129	2459.837891	18.444021
675.271118	1324.353149	7176.992676	2505.348389	20.178848
675.600098	1433.578125	7265.737793	2457.562500	17.557550
675.928955	1410.822876	7254.360352	2493.970703	18.535824
676.257813	1488.190552	7038.186035	2484.868652	17.958178
676.586670	1394.894287	7227.054199	2553.134277	19.859537
676.915466	1463.159912	7122.379883	2498.521729	18.295134
677.244141	1433.578125	7140.584473	2550.858887	19.577353
677.572876	1403.996338	7045.012207	2466.664551	18.838243
677.901489	1388.067749	7222.502930	2548.583252	19.890795
678.230042	1319.802124	7017.706055	2584.991699	22.204473
678.558594	1315.250977	7131.482422	2537.205811	21.009392
678.887085	1403.996338	7133.757813	2584.991699	20.611597
679.215515	1403.996338	7395.442383	2566.787354	19.407518
679.543945	1419.924927	7211.125488	2587.267090	20.157169
679.872253	1433.578125	7436.401855	2607.746826	19.560272
680.200562	1417.649414	7347.656738	2623.675537	20.337683
680.528809	1408.547363	7620.719238	2703.318604	20.842489
680.856995	1351.659302	7748.148438	2678.288086	20.739952
681.185120	1417.649414	7739.046387	2716.971924	20.554358
681.513306	1278.842651	7766.352539	2728.349365	22.343037
681.841309	1324.353149	7723.117676	2728.349365	21.941675
682.169373	1413.098389	7793.658691	2721.522949	20.506420
682.497314	1449.506714	7918.812500	2735.176025	19.873375
682.825134	1374.414551	7707.188965	2685.114502	20.697088
683.153076	1374.414551	7673.056152	2630.501953	19.942196
683.480896	1399.445313	7399.993652	2655.532715	20.932877
683.808655	1385.792114	7527.422852	2625.950928	20.192663
684.136414	1394.894287	7227.054199	2616.848877	20.952007
684.464050	1413.098389	7297.595215	2646.430664	20.959009
684.791626	1335.730713	7122.379883	2575.889648	21.431381
685.119263	1381.241089	7097.349609	2676.012451	22.651274
685.446838	1378.965576	7031.359375	2537.205811	20.491146
685.774292	1385.792114	6910.756836	2541.756836	20.922571
686.101685	1356.210449	6844.766602	2544.032227	21.641790
686.429077	1388.067749	6872.072754	2503.072998	20.331953
686.756348	1406.271851	6874.348145	2509.899414	20.183105
687.083679	1399.445313	6799.256348	2459.837891	19.637587
687.410950	1426.751587	6728.714844	2528.103516	20.772530
687.738159	1331.179688	6653.623047	2441.633789	20.863615
688.065308	1444.955688	6778.776367	2532.654541	20.392490
688.392395	1435.853638	6928.960938	2584.991699	20.919636
688.719421	1440.404663	6712.786133	2582.716064	21.665949
689.046448	1376.690063	6833.389160	2548.583252	21.476229
689.373413	1383.516602	7017.706055	2503.072998	19.870762
689.700317	1356.210449	6617.214355	2575.889648	23.183393
690.027100	1383.516602	6651.347168	2562.236328	22.375809
690.353943	1342.557251	6553.500000	2523.552490	22.663754
690.680725	1426.751587	6678.653320	2548.583252	21.360485
691.007446	1358.485962	6421.519531	2475.766602	22.067415
691.334106	1344.832764	6412.417480	2473.491211	22.272118
691.660645	1419.924927	6498.887207	2441.633789	20.116488
691.987244	1401.720825	6112.048828	2448.460449	22.222223
692.313721	1429.027100	6164.385742	2352.888428	19.509850
692.640259	1394.894287	6259.957520	2398.398926	20.626753
692.966675	1360.761475	6121.150879	2427.980713	22.418737
693.293030	1372.139038	6112.048828	2352.888428	20.691309
693.619324	1426.751587	6027.854492	2432.531738	21.859545
693.945618	1399.445313	6014.201660	2364.266113	20.907297
694.271851	1410.822876	5961.864258	2398.398926	21.700001
694.598083	1449.506714	6046.058594	2393.847900	20.544558
694.924194	1390.343262	5930.007324	2318.755615	20.451124
695.250244	1424.476074	5845.812988	2443.909424	23.057129
695.576294	1408.547363	5945.936035	2298.276123	19.608828
695.902283	1408.547363	6002.823730	2361.990479	20.752846
696.228210	1408.547363	5995.997070	2352.888428	20.585318
696.554138	1363.036987	5777.547363	2418.878662	23.917526
696.879944	1378.965576	6068.813965	2364.266113	21.009218
697.205750	1367.588013	6077.916016	2373.368164	21.352655
697.531433	1326.628662	6162.110352	2384.745850	21.882355
697.857178	1413.098389	6046.058594	2546.307861	24.459730
698.182739	1381.241089	6187.141113	2532.654541	23.958332
698.508423	1378.965576	6496.611816	2446.184814	20.853712
698.833984	1399.445313	6760.572266	2623.675537	22.835316
699.159485	1442.680176	7004.053223	2591.818115	20.662846
699.484924	1338.006226	7138.308594	2596.369141	21.694782
699.810303	1442.680176	7420.473145	2673.737061	20.593836
700.135681	1451.782227	7470.534668	2660.083740	20.075615
700.460999	1331.179688	7493.290039	2639.604248	21.233383
700.786255	1399.445313	7222.502930	2689.665527	22.157091
701.111450	1399.445313	7126.931152	2616.848877	21.255463
701.436646	1397.169800	6892.552734	2537.205811	20.745342
701.761719	1349.383789	6592.183594	2500.797363	21.961807
702.086792	1388.067749	6514.815918	2484.868652	21.393696
702.411865	1294.771362	6287.264160	2482.593262	23.792162
702.736816	1367.588013	6059.711914	2364.266113	21.241512
703.061646	1356.210449	5838.986328	2330.133301	21.725887
703.386536	1406.271851	5804.853516	2368.817139	21.883083
703.711365	1317.526489	5604.607910	2250.489990	21.762205
704.036194	1351.659302	5545.444336	2200.428711	20.238743
704.360901	1385.792114	5604.607910	2277.796387	21.143475
704.685547	1392.618774	5509.035645	2225.459229	20.232170
705.010132	1422.200562	5365.678223	2314.204590	22.619732
705.334717	1374.414551	5443.045898	2143.540527	18.903801
705.659302	1390.343262	5358.851563	2225.459229	21.043573
705.983765	1401.720825	5094.891113	2248.214600	22.920517
706.308228	1344.832764	5377.055664	2168.571289	20.428894
706.632568	1397.169800	5226.871094	2316.480225	24.004757
706.956909	1372.139038	5217.769043	2109.407715	19.171597
707.281189	1424.476074	5365.678223	2268.694336	21.420324
707.605408	1406.271851	5097.166504	2268.694336	23.366219
707.929626	1331.179688	5201.840332	2252.765625	23.809526
708.253784	1372.139038	5290.585938	2273.245361	22.996517
708.577820	1444.955688	5122.197266	2248.214600	21.844061
708.901855	1360.761475	5165.432129	2177.673340	21.471291
709.225830	1413.098389	5240.524414	2232.285889	21.403091
709.549805	1381.241089	5301.963379	2266.418701	22.576902
709.873718	1406.271851	5315.616699	2270.969727	22.118742
710.197510	1392.618774	5315.616699	2191.326416	20.359623
710.521362	1392.618774	5461.250000	2223.183838	20.413868
710.845093	1431.302612	5431.667969	2252.765625	20.534700
711.168701	1429.027100	5299.687988	2236.836914	20.870075
711.492432	1401.720825	5374.780273	2266.418701	21.764030
711.816040	1435.853638	5515.862305	2293.724854	21.026211
712.139587	1363.036987	5524.964355	2305.102539	22.635321
712.463074	1394.894287	5631.914063	2364.266113	22.878626
712.786499	1481.364014	5700.179688	2357.439453	20.765911
713.109924	1397.169800	5584.127930	2321.031250	22.065218
713.433350	1390.343262	5529.515625	2298.276123	21.935131
713.756592	1413.098389	5515.862305	2314.204590	21.963396
714.079834	1435.853638	5397.535156	2348.337402	23.032738
714.403015	1367.588013	5372.504395	2234.561523	21.647730
714.726196	1406.271851	5347.474121	2243.663574	21.247114
715.049255	1290.220337	5324.718750	2239.112549	23.519459
715.372375	1410.822876	5233.697754	2189.051025	20.357143
715.695435	1419.924927	5213.218262	2230.010498	21.355732
716.018311	1369.863525	5299.687988	2227.734863	21.829762
716.341248	1381.241089	5238.249023	2145.816162	19.823011
716.664063	1392.618774	5251.901855	2189.051025	20.636791
716.987000	1333.455200	5324.718750	2157.193604	20.638536
717.309692	1363.036987	5099.441895	2154.918213	21.193668
717.632385	1433.578125	5169.983398	2248.214600	21.802679
717.955078	1328.904175	5281.483887	2168.571289	21.243523
718.277649	1353.934937	5060.758301	2177.673340	22.222219
718.600220	1388.067749	4912.849609	2200.428711	23.047129
718.922791	1319.802124	4985.666016	2134.438477	22.222221
719.245300	1394.894287	4826.379395	2134.438477	21.551723
719.567688	1413.098389	4944.706543	2061.621826	18.363403
719.890015	1408.547363	4617.031738	2107.132324	21.773052
720.212341	1417.649414	4737.634277	2100.305664	20.562029
720.534607	1406.271851	4653.439941	2066.172852	20.322355
720.856873	1410.822876	4535.112793	2059.346436	20.757469
721.179016	1385.792114	4403.132813	2004.733887	20.512823
721.501160	1383.516602	4382.652832	1966.049927	19.423370
721.823242	1365.312500	4705.776855	2052.519775	20.572208
722.145264	1342.557251	4432.714355	2002.458252	21.354933
722.467224	1429.027100	4475.949219	2004.733887	18.894699
722.789185	1312.975464	4403.132813	1915.988525	19.513992
723.111023	1365.312500	4271.152344	2029.764526	22.866093
723.432861	1353.934937	4303.009766	2018.386963	22.530865
723.754578	1374.414551	4357.622559	1968.325439	19.908464
724.076294	1338.006226	4339.417969	1929.641602	19.711905
724.397949	1367.588013	4359.897949	2020.662476	21.825094
724.719666	1399.445313	4277.979004	1915.988525	17.944664
725.041260	1388.067749	4207.437988	2013.835938	22.195318
725.362732	1367.588013	4366.724609	2034.315552	22.230648
725.684265	1392.618774	4246.121582	1979.703125	20.574163
726.005676	1444.955688	4328.040527	2020.662476	19.968430
726.327087	1403.996338	4262.050293	1895.508789	17.197453
726.648438	1394.894287	4328.040527	1956.947876	19.162140
726.969666	1465.435425	4380.377441	1918.264038	15.534739
727.290894	1415.373901	4316.663086	2059.346436	22.196083
727.612061	1408.547363	4305.285156	1984.254150	19.874315
727.933228	1349.383789	4471.398438	1988.805176	20.481050
728.254395	1378.965576	4544.214844	1950.121338	18.044575
728.575378	1451.782227	4626.133789	2054.795166	18.996412
728.896301	1306.148926	4466.847168	2111.683350	25.485964
729.217285	1340.281738	4592.000977	1995.631714	20.153954
729.538147	1365.312500	4687.572754	2025.213501	19.863014
729.858948	1351.659302	4564.694824	2004.733887	20.325781
730.179810	1301.597900	4630.685059	2022.937988	21.667805
730.500549	1385.792114	4621.582520	2054.795166	20.675104
730.821228	1360.761475	4453.194336	2086.652588	23.473141
731.141846	1360.761475	4598.827637	2068.448486	21.855236
731.462402	1372.139038	4526.010742	2052.519775	21.572874
731.782898	1410.822876	4610.205078	2007.009399	18.634426
732.103455	1431.302612	4537.388672	2007.009399	18.534800
732.423889	1449.506714	4778.593750	1977.427612	15.857829
732.744263	1376.690063	4617.031738	1993.356201	19.030897
733.064636	1410.822876	4612.480469	2007.009399	18.621181
733.384888	1344.832764	4541.939453	2038.866699	21.708189
733.705200	1499.568237	4623.858398	1968.325439	15.003639
734.025330	1340.281738	4774.042480	2136.714111	23.194172
734.345520	1367.588013	4664.817871	2141.265137	23.464457
734.665527	1369.863525	4596.552246	2038.866699	20.733427
734.985596	1456.333252	4541.939453	2025.213501	18.436581
735.305542	1356.210449	4412.234863	2016.111450	21.593447
735.625549	1403.996338	4503.255859	2000.182739	19.236414
735.945435	1447.231201	4227.917480	1952.396851	18.166941
736.265259	1356.210449	4371.275391	1975.152100	20.528303
736.585083	1344.832764	4139.172363	1997.907227	23.371334
736.904785	1413.098389	4150.549805	1925.090576	18.703243
737.224426	1367.588013	4230.193359	1943.294800	20.111286
737.544128	1342.557251	4118.692871	1986.529663	23.196720
737.863708	1406.271851	4152.825684	2029.764526	22.700911
738.183289	1369.863525	4141.447754	1961.498901	21.346470
738.502808	1383.516602	4157.376465	2009.284912	22.559479
738.822205	1388.067749	4248.397461	2007.009399	21.638823
739.141541	1388.067749	4239.295410	1941.019287	19.393456
739.460938	1388.067749	4218.815430	1984.254150	21.061094
739.780212	1383.516602	4293.907715	1925.090576	18.608288
740.099426	1369.863525	4469.123047	1975.152100	19.530104
740.418640	1365.312500	4246.121582	2004.733887	22.195896
740.737793	1442.680176	4289.356934	2027.489014	20.543564
741.056885	1401.720825	4227.917480	1956.947876	19.645733
741.375977	1294.771362	4196.060547	1927.366089	21.803919
741.694946	1326.628662	4177.855957	1975.152100	22.745413
742.013855	1374.414551	4111.866211	1968.325439	21.695759
742.332703	1383.516602	4125.519043	1963.774414	21.161827
742.651550	1415.373901	4034.498291	1938.743774	19.982626
742.970398	1378.965576	4054.978027	1884.131226	18.877552
743.289124	1385.792114	4136.896973	1920.539551	19.437551
743.607788	1460.884399	3943.477539	1877.304688	16.773602
743.926453	1392.618774	4004.916504	1941.019287	20.993032
744.245056	1399.445313	3959.406250	1877.304688	18.666666
744.563599	1447.231201	3829.701416	1934.192627	20.439350
744.882141	1367.588013	3913.895752	1909.161987	21.268993
745.200500	1403.996338	3845.630127	1818.141113	16.961790
745.518860	1419.924927	3941.202148	1954.672363	21.209385
745.837219	1394.894287	3843.354736	1893.233276	20.353157
746.155518	1363.036987	3750.058350	1938.743774	24.118208
746.473755	1458.608887	3786.466553	1995.631714	23.069401
746.791992	1358.485962	3863.834229	1881.855713	20.890100
747.110107	1399.445313	3820.599365	1795.385864	16.353382
747.428162	1363.036987	3770.538086	1824.967651	19.187143
747.746216	1328.904175	3763.711426	1865.927002	22.056072
748.064148	1317.526489	3718.200928	1922.815063	25.213274
748.382080	1406.271851	3822.875000	1859.100464	18.738230
748.700073	1440.404663	3825.150391	1884.131226	18.606873
749.017822	1358.485962	3761.435791	1897.784302	22.443180
749.335632	1403.996338	3761.435791	1911.437500	21.525099
749.653320	1349.383789	3872.936523	1915.988525	22.452662
749.971008	1376.690063	3909.344727	1900.059814	20.664867
750.288696	1510.945801	3847.905762	1927.366089	17.818888
750.606262	1422.200562	3845.630127	1854.549438	17.840372
750.923828	1363.036987	3697.721191	1868.202637	21.637430
751.241272	1388.067749	3850.181152	1941.019287	22.458412
751.558716	1469.986450	3786.466553	1836.345337	15.815327
751.876038	1460.884399	3775.089111	1813.590088	15.240904
752.193481	1399.445313	3756.884766	1868.202637	19.884172
752.510681	1363.036987	3731.854004	1822.692139	19.404419
752.827942	1351.659302	3725.027588	1859.100464	21.380634
753.145081	1388.067749	3779.640137	1913.713013	21.979067
753.462219	1388.067749	3702.272461	1802.212524	17.895771
753.779297	1338.006226	3802.395264	1790.834839	18.374882
754.096375	1392.618774	3759.160400	1934.192627	22.884613
754.413330	1392.618774	3634.006836	1856.824951	20.710655
754.730286	1353.934937	3706.823486	1840.896362	20.696321
755.047119	1372.139038	3636.282227	1863.651489	21.708542
755.363892	1367.588013	3759.160400	1818.141113	18.839201
755.680725	1406.271851	3636.282227	1829.518677	18.979591
755.997498	1363.036987	3661.312988	1859.100464	21.584158
756.314148	1363.036987	3734.129639	1868.202637	21.305183
756.630737	1419.924927	3599.874023	1856.824951	20.041752
756.947327	1376.690063	3588.496338	1736.222412	16.255148
757.263855	1365.312500	3740.956299	1870.478149	21.264368
757.580261	1356.210449	3568.016602	1856.824951	22.633741
757.896729	1401.720825	3672.690674	1913.713013	22.545092
758.213074	1367.588013	3608.976074	1779.457275	18.375633
758.529419	1338.006226	3597.598389	1861.375977	23.162132
758.845642	1415.373901	3704.547852	1884.131226	20.477140
759.161865	1335.730713	3690.894775	1872.753662	22.801933
759.478149	1356.210449	3720.476563	1918.264038	23.772856
759.794189	1440.404663	3845.630127	1902.335449	19.205299
760.110229	1353.934937	3740.956299	1877.304688	21.925640
760.426270	1431.302612	3756.884766	1868.202637	18.786695
760.742249	1447.231201	3822.875000	1900.059814	19.061300
761.058105	1394.894287	3765.986816	1897.784302	21.209211
761.374023	1410.822876	3743.231689	1947.845825	23.024393
761.689819	1488.190552	3759.160400	1856.824951	16.232466
762.005554	1408.547363	3786.466553	1927.366089	21.818182
762.321289	1456.333252	3877.487549	1954.672363	20.582708
762.636902	1433.578125	3888.864990	1877.304688	18.072290
762.952515	1397.169800	3763.711426	1849.998413	19.134615
763.268127	1360.761475	3886.589600	1929.641602	22.522520
763.583618	1388.067749	3929.824463	1938.743774	21.665173
763.899048	1401.720825	4186.958496	2041.142212	22.957516
764.214478	1481.364014	4505.531250	2123.060791	21.218958
764.529785	1413.098389	5042.554199	2102.581299	18.996868
764.845093	1369.863525	5192.738281	2282.347412	23.869049
765.160400	1326.628662	5144.952637	2264.143311	24.553041
765.475586	1376.690063	5049.380859	2259.592041	24.039648
765.790771	1381.241089	4910.573730	2184.500000	22.759514
766.105835	1394.894287	4799.073242	2159.469238	22.459892
766.420837	1319.802124	4539.664063	2100.305664	24.240280
766.735840	1392.618774	4380.377441	2041.142212	21.706017
767.050842	1381.241089	4339.417969	2013.835938	21.384619
767.365662	1440.404663	4064.080078	1970.601074	20.208157
767.680542	1331.179688	4141.447754	1968.325439	22.672064
767.995300	1399.445313	3811.497314	2032.040039	26.226414
768.309998	1417.649414	3834.252441	1963.774414	22.598871
768.624817	1431.302612	3836.528076	1847.722900	17.313148
768.939392	1358.485962	3743.231689	1938.743774	24.332064
769.254028	1360.761475	3709.098877	1849.998413	20.833332
769.568481	1406.271851	3722.751953	1847.722900	19.056976
769.882935	1347.108276	3636.282227	1895.508789	23.956263
770.197388	1408.547363	3659.037354	1900.059814	21.840242
770.511841	1381.241089	3542.985840	1824.967651	20.526318
770.826172	1344.832764	3602.149414	1822.692139	21.169355
771.140442	1369.863525	3572.567627	1897.784302	23.966940
771.454651	1349.383789	3476.995850	1818.141113	22.032085
771.768860	1372.139038	3451.965088	1849.998413	22.975929
772.082886	1394.894287	3388.250488	1836.345337	22.146120
772.397034	1374.414551	3388.250488	1813.590088	21.807911
772.711060	1347.108276	3454.240479	1797.661377	21.382288
773.025024	1426.751587	3304.056152	1859.100464	23.030300
773.338928	1433.578125	3267.647949	1822.692139	21.215878
773.652771	1390.343262	3329.086914	1765.804199	19.366198
773.966614	1378.965576	3319.984863	1772.630737	20.281363
774.280457	1326.628662	3374.597412	1870.478149	26.555555
774.594116	1388.067749	3376.872803	1743.048950	17.848969
774.907776	1440.404663	3315.433838	1688.436401	13.228153
775.221375	1406.271851	3288.127441	1779.457275	19.830715
775.534912	1399.445313	3181.177979	1713.467163	17.624521
775.848450	1410.822876	3379.148438	1824.967651	21.040461
776.161926	1356.210449	3279.025391	1806.763550	23.431953
776.475342	1353.934937	3190.280273	1729.395752	20.446089
776.788696	1353.934937	3201.657715	1731.671387	20.443352
777.101990	1376.690063	3137.943115	1681.609863	17.312662
777.415283	1390.343262	3181.177979	1724.844727	18.678522
777.728516	1431.302612	3222.137451	1699.814087	14.993649
778.041626	1374.414551	3242.617188	1743.048950	19.732035
778.354736	1335.730713	3133.392090	1779.457275	24.683546
778.667725	1344.832764	3144.769775	1788.559326	24.652338
778.980774	1353.934937	3190.280273	1722.569214	20.074345
779.293640	1460.884399	3144.769775	1688.436401	13.513509
779.606567	1433.578125	3124.290039	1733.946899	17.765816
779.919434	1347.108276	3137.943115	1822.692139	26.556545
780.232239	1449.506714	3065.126465	1768.079712	19.718315
780.544983	1335.730713	3099.259277	1720.293701	21.806450
780.857666	1429.027100	3147.045166	1752.151001	18.807945
781.170227	1367.588013	3092.432861	1718.018188	20.316620
781.482849	1438.129150	3081.055176	1715.742676	16.897507
781.795410	1419.924927	3160.698486	1758.977539	19.477123
782.107910	1333.455200	3015.064941	1692.987427	21.380241
782.420288	1294.771362	3099.259277	1729.395752	24.085747
782.732666	1376.690063	3201.657715	1670.232300	16.084791
783.044983	1469.986450	3056.024414	1692.987427	14.060255
783.357300	1367.588013	3024.167236	1622.446289	15.384611
783.669495	1408.547363	3003.687500	1702.089600	18.402285
783.981689	1394.894287	2974.105713	1692.987427	18.876076
784.293762	1358.485962	2958.177002	1745.324463	24.182076
784.605835	1358.485962	2894.462402	1745.324463	25.185184
784.917908	1351.659302	2969.554688	1713.467163	22.362871
785.229858	1394.894287	2844.401123	1774.906250	26.216639
785.541748	1458.608887	2930.870850	1704.365112	16.692425
785.853577	1376.690063	2826.196777	1761.253052	26.530611
786.165405	1485.915039	2878.533936	1724.844727	17.156860
786.477173	1385.792114	2917.217773	1617.895264	15.156018
786.788879	1408.547363	2835.298828	1690.711914	19.776714
787.100525	1438.129150	2842.125488	1681.609863	17.341976
787.412109	1378.965576	2798.890625	1663.405762	20.032057
787.723694	1369.863525	2846.676514	1645.201538	18.644068
788.035156	1451.782227	2883.084961	1690.711914	16.693163
788.346558	1451.782227	2903.564453	1620.170776	11.598747
788.658081	1383.516602	2844.401123	1770.355225	26.479753
788.969360	1408.547363	2971.830078	1740.773438	21.251823
789.280640	1392.618774	3001.411865	1697.538574	18.953325
789.591919	1424.476074	3185.729004	1770.355225	19.638245
789.903076	1413.098389	3026.442627	1647.477051	14.527505
790.214172	1353.934937	3137.943115	1679.334351	18.239794
790.525269	1363.036987	3056.024414	1699.814087	19.892475
790.836365	1292.495850	2983.207764	1697.538574	23.956934
791.147339	1410.822876	2942.248291	1688.436401	18.127787
791.458191	1392.618774	2949.074951	1727.120239	21.491222
791.769104	1415.373901	2962.728027	1665.681274	16.176476
792.079895	1426.751587	2864.880615	1642.926025	15.031644
792.390686	1392.618774	2846.676514	1658.854614	18.309853
792.701416	1365.312500	2782.961914	1601.966675	16.693420
793.012085	1424.476074	2728.349365	1613.344238	14.485163
793.322693	1408.547363	2742.002686	1688.436401	20.989758
793.633240	1383.516602	2701.043213	1617.895264	17.789293
793.943787	1390.343262	2669.185791	1604.242188	16.725979
794.254272	1415.373901	2653.257324	1588.313477	13.970587
794.564636	1451.782227	2712.420898	1654.303589	16.064981
794.875000	1440.404663	2753.380127	1620.170776	13.691506
795.185303	1392.618774	2694.216553	1631.548462	18.356646
795.495544	1358.485962	2723.798340	1629.272949	19.833336
795.805786	1444.955688	2703.318604	1704.365112	20.614834
796.115906	1353.934937	2735.176025	1661.130127	22.240519
796.426025	1374.414551	2653.257324	1665.681274	22.775805
796.736023	1363.036987	2762.482178	1677.058838	22.439024
797.045959	1394.894287	2828.472412	1617.895264	15.555551
797.355896	1390.343262	2896.738037	1779.457275	25.830812
797.665833	1401.720825	2835.298828	1727.120239	22.698410
797.975708	1417.649414	2901.289063	1654.303589	15.950920
798.285461	1463.159912	2807.992676	1715.742676	18.781723
798.595154	1406.271851	2762.482178	1622.446289	15.939595
798.904846	1378.965576	2778.410889	1656.579102	19.837397
799.214478	1508.670288	2739.727051	1667.956787	12.939005
799.524109	1331.179688	2755.655762	1595.140137	18.530354
799.833557	1413.098389	2812.543701	1565.558350	10.894314
800.143005	1374.414551	2807.992676	1658.854614	19.841267
800.452393	1399.445313	2632.777588	1626.997314	18.450178
800.761780	1349.383789	2610.022461	1613.344238	20.938629
801.071106	1385.792114	2782.961914	1579.211426	13.843651
801.380371	1322.077637	2653.257324	1645.201538	24.273500
801.689575	1383.516602	2628.226563	1658.854614	22.120657
801.998718	1451.782227	2612.297852	1636.099487	15.882360
802.307800	1406.271851	2635.052979	1672.507813	21.666672
802.616882	1381.241089	2655.532715	1538.252075	12.321433
802.925903	1349.383789	2632.777588	1667.956787	24.822701
803.234863	1422.200562	2632.777588	1604.242188	15.037591
803.543701	1401.720825	2434.807373	1631.548462	22.246696
803.852539	1383.516602	2655.532715	1588.313477	16.100180
804.161316	1417.649414	2685.114502	1608.793213	15.080794
804.470032	1374.414551	2594.093750	1665.681274	23.880602
804.778809	1403.996338	2632.777588	1531.425537	10.370373
805.087341	1308.424438	2594.093750	1597.415649	22.477880
805.395935	1367.588013	2523.552490	1563.282837	16.929138
805.704468	1392.618774	2503.072998	1554.180664	14.549171
806.012939	1426.751587	2589.542725	1595.140137	14.481410
806.321350	1417.649414	2603.195801	1606.517700	15.930906
806.629761	1399.445313	2539.481201	1597.415649	17.365273
806.938049	1303.873413	2639.604248	1601.966675	22.316866
807.246277	1442.680176	2696.492188	1579.211426	10.889292
807.554504	1342.557251	2669.185791	1617.895264	20.754719
807.862671	1401.720825	2698.767578	1624.721802	17.192980
808.170715	1360.761475	2605.471436	1545.078613	14.808039
808.478821	1406.271851	2625.950928	1654.303589	20.335819
808.786804	1397.169800	2539.481201	1640.650513	21.314741
809.094727	1392.618774	2564.511963	1654.303589	22.330091
809.402649	1369.863525	2514.450439	1604.242188	20.477140
809.710510	1429.027100	2530.379150	1597.415649	15.289257
810.018311	1333.455200	2464.388916	1606.517700	24.144873
810.326050	1442.680176	2550.858887	1611.068726	15.195072
810.633667	1390.343262	2584.991699	1661.130127	22.666656
810.941345	1388.067749	2516.726074	1576.935913	16.733866
811.248901	1374.414551	2373.368164	1636.099487	26.195904
811.556396	1476.812988	2407.500977	1626.997314	16.136915
811.863892	1385.792114	2396.123291	1629.272949	24.099112
812.171326	1378.965576	2466.664551	1515.496826	12.552301
812.478699	1383.516602	2291.449463	1576.935913	21.303261
812.786011	1385.792114	2380.194824	1547.354126	16.247141
813.093262	1397.169800	2475.766602	1554.180664	14.556956
813.400391	1312.975464	2400.674561	1583.762451	24.895395
813.707642	1324.353149	2382.470215	1533.701050	19.784946
814.014709	1349.383789	2393.847900	1465.435425	11.111117
814.321716	1422.200562	2448.460449	1558.731689	13.303758
814.628723	1406.271851	2361.990479	1510.945801	10.952381
814.935669	1310.699951	2375.643799	1576.935913	25.000000
815.242554	1442.680176	2434.807373	1465.435425	2.293582
815.549438	1392.618774	2396.123291	1601.966675	20.861679
815.856201	1413.098389	2357.439453	1626.997314	22.650600
816.162964	1433.578125	2373.368164	1540.527588	11.380144
816.469604	1415.373901	2407.500977	1581.486938	16.743120
816.776184	1385.792114	2427.980713	1554.180664	16.157206
817.082825	1369.863525	2425.705078	1597.415649	21.551731
817.389343	1397.169800	2416.603027	1551.905151	15.178567
817.695801	1383.516602	2384.745850	1476.812988	9.318184
818.002197	1376.690063	2364.266113	1554.180664	17.972347
818.308533	1374.414551	2368.817139	1533.701050	16.018311
818.614868	1351.659302	2380.194824	1526.874512	17.035406
818.921143	1392.618774	2450.735840	1522.323364	12.258057
819.227356	1358.485962	2364.266113	1590.588989	23.076914
819.533447	1369.863525	2425.705078	1570.109375	18.965521
819.839539	1394.894287	2443.909424	1624.721802	21.908884
820.145569	1340.281738	2564.511963	1597.415649	21.003721
820.451538	1422.200562	2580.440674	1597.415649	15.127700
820.757568	1394.894287	2742.002686	1620.170776	16.722967
821.063416	1467.710938	2817.094727	1681.609863	15.851601
821.369263	1406.271851	3019.616211	1779.457275	23.131170
821.675049	1426.751587	3069.677490	1781.732788	21.606647
821.980713	1347.108276	3128.841064	1706.640625	20.178802
822.286438	1383.516602	3285.852051	1895.508789	26.913876
822.592102	1340.281738	3816.048340	1893.233276	22.334558
822.897583	1367.588013	4931.053711	2339.235352	27.266918
823.203125	1415.373901	7145.135254	2919.493164	26.250994
823.508545	1474.537476	9388.798828	3272.198975	22.714205
823.813965	1367.588013	10603.926758	3583.945313	23.996059
824.119263	1454.057739	10378.650391	3458.791504	22.463028
824.424622	1488.190552	9006.511719	3203.933350	22.820824
824.729858	1383.516602	7552.453613	2924.044189	24.972334
825.035095	1344.832764	6589.908203	2732.900391	26.464209
825.340149	1374.414551	5939.109375	2459.837891	23.778662
825.645264	1369.863525	5311.065430	2375.643799	25.519634
825.950256	1394.894287	4956.084473	2300.551514	25.431307
826.255310	1347.108276	4553.316895	2052.519775	22.001423
826.560242	1347.108276	4321.213867	2027.489014	22.876820
826.865112	1340.281738	4091.386475	1954.672363	22.332506
827.169922	1415.373901	3884.313965	1961.498901	22.119818
827.474670	1374.414551	3841.079102	2022.937988	26.291513
827.779419	1419.924927	4191.509277	2136.714111	25.862072
828.084045	1358.485962	4776.318359	2216.357178	25.099861
828.388672	1406.271851	5267.830566	2352.888428	24.513847
828.693176	1447.231201	5438.494629	2343.786377	22.462942
828.997681	1360.761475	5129.023926	2184.500000	21.859903
829.302124	1319.802124	4573.796875	2086.652588	23.566433
829.606567	1403.996338	4111.866211	1963.774414	20.672266
829.910828	1401.720825	3706.823486	1904.610962	21.816389
830.215149	1369.863525	3513.404053	1854.549438	22.611465
830.519348	1385.792114	3260.821289	1793.110352	21.723301
830.823547	1353.934937	3099.259277	1724.844727	21.251625
831.127686	1372.139038	2926.319824	1695.262939	20.790625
831.431763	1394.894287	2885.360352	1652.028076	17.251905
831.735779	1365.312500	2726.073975	1690.711914	23.913038
832.039734	1358.485962	2641.879639	1695.262939	26.241129
832.343628	1378.965576	2525.828125	1640.650513	22.817463
832.647461	1278.842651	2562.236328	1642.926025	28.368799
832.951233	1374.414551	2507.624023	1656.579102	24.899593
833.255127	1383.516602	2484.868652	1636.099487	22.933891
833.558777	1415.373901	2482.593262	1633.823975	20.469088
833.862366	1406.271851	2516.726074	1613.344238	18.647539
834.165955	1342.557251	2732.900391	1690.711914	25.040916
834.469482	1365.312500	3160.698486	1747.599976	21.292774
834.773010	1369.863525	3417.832275	1886.406738	25.222221
835.076416	1403.996338	3768.262451	1890.957764	20.596727
835.379822	1399.445313	3879.762939	1995.631714	24.036695
835.683105	1376.690063	3804.670898	1804.488037	17.619495
835.986389	1388.067749	3442.863037	1809.039063	20.487261
836.289612	1374.414551	3192.555664	1733.946899	19.774721
836.592773	1394.894287	3005.962891	1765.804199	23.022602
836.895874	1363.036987	2908.115479	1720.293701	23.122238
837.198914	1390.343262	2853.503174	1718.018188	22.395018
837.501892	1338.006226	2703.318604	1570.109375	17.000004
837.804871	1442.680176	2562.236328	1626.997314	16.463411
838.107666	1353.934937	2528.103516	1547.354126	16.472864
838.410583	1363.036987	2468.940186	1576.935913	19.341560
838.713379	1347.108276	2382.470215	1547.354126	19.340662
839.016052	1397.169800	2259.592041	1579.211426	21.108179
839.318787	1378.965576	2234.561523	1599.691162	25.797876
839.621338	1381.241089	2230.010498	1531.425537	17.694376
839.923889	1419.924927	2316.480225	1483.639526	7.106600
840.226440	1385.792114	2191.326416	1576.935913	23.728823
840.528931	1369.863525	2245.938965	1570.109375	22.857147
840.831299	1356.210449	2352.888428	1613.344238	25.799084
841.133606	1369.863525	2336.959961	1522.323364	15.764699
841.435913	1413.098389	2407.500977	1501.843750	8.924490
841.738220	1376.690063	2409.776611	1572.384888	18.942732
842.040405	1333.455200	2323.306641	1551.905151	22.068964
842.342529	1422.200562	2255.041016	1551.905151	15.573762
842.644592	1369.863525	2284.622803	1563.282837	21.144285
842.946594	1397.169800	2209.530762	1531.425537	16.526611
843.248596	1406.271851	2084.376953	1597.415649	28.187931
843.550598	1374.414551	2118.509766	1540.527588	22.324163
843.852478	1392.618774	2020.662476	1454.057739	9.782594
844.154236	1408.547363	2057.070801	1447.231201	5.964910
844.455994	1324.353149	2027.489014	1488.190552	23.300959
844.757690	1378.965576	1959.223389	1558.731689	30.980387
845.059326	1383.516602	2045.693237	1435.853638	7.903788
845.360962	1356.210449	1952.396851	1442.680176	14.503807
845.662476	1367.588013	1881.855713	1458.608887	17.699123
845.963989	1465.435425	1950.121338	1454.057739	-2.347435
846.265381	1365.312500	1904.610962	1440.404663	13.924046
846.566772	1397.169800	2032.040039	1467.710938	11.111111
846.868042	1369.863525	1909.161987	1410.822876	7.594932
847.169373	1385.792114	1991.080688	1442.680176	9.398502
847.470581	1369.863525	1918.264038	1463.159912	17.012455
847.771729	1413.098389	1881.855713	1456.333252	9.223293
848.072815	1388.067749	1827.243164	1438.129150	11.398953
848.373901	1353.934937	1863.651489	1433.578125	15.624995
848.674866	1374.414551	1811.314575	1383.516602	2.083326
848.975891	1367.588013	1972.876587	1401.720825	5.639097
849.276794	1483.639526	1897.784302	1353.934937	-31.318659
849.577637	1376.690063	1906.886475	1381.241089	0.858366
849.878357	1367.588013	1870.478149	1419.924927	10.407227
850.179077	1351.659302	1802.212524	1394.894287	9.595978
850.479736	1381.241089	1884.131226	1403.996338	4.524895
850.780396	1397.169800	1820.416626	1435.853638	9.139782
851.080994	1369.863525	1897.784302	1426.751587	10.775871
851.381470	1390.343262	1856.824951	1415.373901	5.365835
851.681946	1356.210449	1886.406738	1431.302612	14.163087
851.982361	1312.975464	1802.212524	1479.088501	33.953487
852.282715	1394.894287	1824.967651	1490.466064	22.222204
852.583008	1381.241089	1845.447388	1390.343262	1.960803
852.883240	1374.414551	1872.753662	1435.853638	12.328771
853.183411	1390.343262	1758.977539	1372.139038	-4.938288
853.483521	1335.730713	1797.661377	1383.516602	10.344818
853.783630	1351.659302	1847.722900	1497.292725	29.357813
854.083679	1383.516602	1738.497925	1481.364014	27.564102
854.383667	1401.720825	1811.314575	1328.904175	-17.777773
854.683533	1442.680176	1843.171875	1392.618774	-12.499985
854.983337	1422.200562	1793.110352	1376.690063	-12.269964
855.283203	1367.588013	1795.385864	1413.098389	10.638290
855.582886	1347.108276	1781.732788	1422.200562	17.277508
855.882629	1360.761475	1738.497925	1413.098389	13.855405
856.182312	1344.832764	1834.069824	1388.067749	8.837226
856.481873	1324.353149	1774.906250	1415.373901	20.202003
856.781372	1324.353149	1863.651489	1538.252075	39.662449
857.080872	1376.690063	1824.967651	1440.404663	14.213202
857.380310	1328.904175	1811.314575	1454.057739	25.943380
857.679688	1397.169800	1824.967651	1435.853638	9.042551
857.979004	1349.383789	1729.395752	1451.782227	26.946110
858.278259	1397.169800	1743.048950	1465.435425	19.736843
858.577454	1426.751587	1749.875488	1433.578125	2.112669
858.876648	1385.792114	1777.181763	1474.537476	22.674427
859.175720	1403.996338	1779.457275	1397.169800	-1.818175
859.474792	1426.751587	1809.039063	1369.863525	-14.880964
859.773743	1413.098389	1849.998413	1390.343262	-5.208314
860.072693	1363.036987	1774.906250	1449.506714	20.994459
860.371521	1413.098389	1733.946899	1401.720825	-3.546086
860.670349	1378.965576	1777.181763	1390.343262	2.857163
860.969116	1429.027100	1768.079712	1442.680176	4.026831
861.267883	1413.098389	1752.151001	1376.690063	-10.738253
861.566589	1403.996338	1875.029175	1413.098389	1.932360
861.865112	1390.343262	1761.253052	1440.404663	13.496921
862.163635	1363.036987	1781.732788	1349.383789	-3.260887
862.462158	1363.036987	1815.865601	1381.241089	4.020086
862.760620	1367.588013	1815.865601	1394.894287	6.091376
863.059021	1415.373901	1758.977539	1451.782227	10.596025
863.357361	1401.720825	1743.048950	1369.863525	-9.333336
863.655640	1356.210449	1797.661377	1422.200562	14.948460
863.953857	1399.445313	1695.262939	1410.822876	3.846141
864.251953	1390.343262	1763.528564	1397.169800	1.829262
864.550110	1372.139038	1718.018188	1413.098389	11.842099
864.848206	1408.547363	1752.151001	1374.414551	-9.933775
865.146179	1410.822876	1743.048950	1363.036987	-14.383546
865.444092	1338.006226	1820.416626	1426.751587	18.396236
865.741943	1408.547363	1799.937012	1406.271851	-0.581393
866.039795	1342.557251	1754.426514	1399.445313	13.812165
866.337646	1374.414551	1758.977539	1413.098389	10.059168
866.635376	1308.424438	1790.834839	1413.098389	21.698112
866.933044	1385.792114	1804.488037	1469.986450	20.108707
867.230652	1328.904175	1809.039063	1419.924927	18.957329
867.528198	1392.618774	1793.110352	1442.680176	12.499989
867.825745	1310.699951	1713.467163	1472.261963	40.112999
868.123230	1390.343262	1843.171875	1451.782227	13.567819
868.420593	1449.506714	1799.937012	1492.741699	12.337685
868.717896	1399.445313	1768.079712	1438.129150	10.493822
869.015198	1381.241089	1724.844727	1388.067749	1.986783
869.312439	1469.986450	1765.804199	1397.169800	-24.615376
869.609619	1392.618774	1729.395752	1392.618774	0.000000
869.906738	1408.547363	1790.834839	1451.782227	11.309516
870.203796	1367.588013	1754.426514	1374.414551	1.764700
870.500854	1403.996338	1815.865601	1349.383789	-13.259681
870.797791	1356.210449	1699.814087	1372.139038	4.635745
871.094666	1385.792114	1695.262939	1399.445313	4.411788
871.391602	1431.302612	1797.661377	1415.373901	-4.347845
871.688293	1435.853638	1642.926025	1456.333252	9.890075
871.985107	1340.281738	1784.008301	1451.782227	25.128199
872.281738	1287.944824	1765.804199	1392.618774	21.904760
872.578369	1381.241089	1772.630737	1413.098389	8.139536
872.874939	1392.618774	1790.834839	1394.894287	0.571427
873.171509	1374.414551	1820.416626	1399.445313	5.612252
873.467957	1367.588013	1699.814087	1388.067749	6.164398
873.764343	1349.383789	1761.253052	1447.231201	23.756910
874.060669	1447.231201	1763.528564	1363.036987	-26.618690
874.356995	1438.129150	1768.079712	1383.516602	-16.551737
874.653198	1413.098389	1831.794189	1376.690063	-8.695651
874.949463	1363.036987	1818.141113	1360.761475	-0.499998
875.245544	1385.792114	1754.426514	1442.680176	15.432109
875.541626	1388.067749	1736.222412	1417.649414	8.496702
875.837646	1331.179688	1799.937012	1417.649414	18.446587
876.133606	1401.720825	1774.906250	1326.628662	-20.121944
876.429565	1399.445313	1731.671387	1392.618774	-2.054787
876.725403	1328.904175	1772.630737	1394.894287	14.871797
877.021179	1363.036987	1790.834839	1392.618774	6.914898
877.316956	1338.006226	1708.916138	1472.261963	36.196320
877.612610	1424.476074	1679.334351	1422.200562	-0.892854
877.908203	1415.373901	1670.232300	1447.231201	12.500000
878.203857	1358.485962	1702.089600	1429.027100	20.529799
878.499390	1356.210449	1813.590088	1463.159912	23.383083
878.794800	1419.924927	1786.283813	1397.169800	-6.211157
879.090271	1340.281738	1799.937012	1424.476074	18.316843
879.385559	1365.312500	1824.967651	1463.159912	21.287134
879.680847	1422.200562	1795.385864	1460.884399	10.365852
879.976196	1319.802124	1852.273926	1467.710938	27.777775
880.271301	1403.996338	1890.957764	1424.476074	4.205618
880.566467	1363.036987	1961.498901	1456.333252	15.589340
880.861572	1451.782227	1981.978638	1508.670288	10.729620
881.156555	1324.353149	2066.172852	1435.853638	15.030672
881.451477	1408.547363	2264.143311	1567.833862	18.617023
881.746460	1438.129150	2528.103516	1683.885376	22.546972
882.041321	1444.955688	3135.667725	1802.212524	21.130554
882.336121	1358.485962	4016.294189	1934.192627	21.660957
882.630798	1449.506714	4728.532227	2245.938965	24.288689
882.925537	1403.996338	5001.594727	2257.316650	23.719166
883.220215	1426.751587	4869.614746	2218.632813	23.000658
883.514771	1308.424438	4548.766113	2061.621826	23.244381
883.809326	1401.720825	4211.988770	1979.703125	20.566803
884.103760	1351.659302	3920.722412	1920.539551	22.143492
884.398132	1403.996338	3688.619141	1831.794189	18.725098
884.692505	1378.965576	3547.536865	1799.937012	19.412386
884.986816	1333.455200	3335.913574	1831.794189	24.886360
885.281067	1363.036987	3076.504150	1731.671387	21.513947
885.575256	1374.414551	2978.656738	1677.058838	18.865250
885.869385	1406.271851	2742.002686	1667.956787	19.591143
886.163452	1488.190552	2662.359375	1633.823975	12.403108
886.457458	1415.373901	2459.837891	1636.099487	21.132906
886.751465	1410.822876	2343.786377	1574.660400	17.560980
887.045410	1360.761475	2243.663574	1526.874512	18.814434
887.339233	1358.485962	2116.234375	1499.568237	18.618618
887.632996	1390.343262	2070.723877	1485.915039	14.046811
887.926758	1367.588013	1966.049927	1449.506714	13.688207
888.220398	1397.169800	1922.815063	1433.578125	6.926406
888.514099	1390.343262	1931.917114	1465.435425	13.865544
888.807678	1328.904175	1811.314575	1467.710938	28.773584
889.101196	1385.792114	1929.641602	1438.129150	9.623442
889.394653	1374.414551	1859.100464	1369.863525	-0.938964
889.688049	1435.853638	1893.233276	1435.853638	0.000000
889.981384	1338.006226	1822.692139	1483.639526	30.046944
890.274719	1385.792114	1733.946899	1383.516602	-0.653592
890.567932	1378.965576	1843.171875	1397.169800	3.921581
>>>>>End Processed Spectral Data<<<<<
