Jaz Data File
++++++++++++++++++++++++++++++++++++
Date: Wed Feb 07 06:37:19 2024
User: jaz
Dark Spectrum Present: Yes
Reference Spectrum Present: Yes
Processed Spectrum Present: Yes
Spectrometers: JAZA3692
Integration Time (usec): 40000 (JAZA3692)
Spectra Averaged: 1 (JAZA3692)
Boxcar Smoothing: 0 (JAZA3692)
Correct for Electrical Dark: No (JAZA3692)
Strobe/Lamp Enabled: Yes (JAZA3692)
Correct for Detector Non-linearity: No (JAZA3692)
Correct for Stray Light: No (JAZA3692)
Number of Pixels in Processed Spectrum: 2048
>>>>>Begin Processed Spectral Data<<<<<
W	D	R	S	P
190.244385	0.000000	0.000000	0.000000	0.000000
190.627136	0.000000	0.000000	0.000000	0.000000
191.009842	1221.954712	1244.709839	1274.291626	230.000534
191.392532	1335.730713	1244.709839	1267.465088	74.999969
191.775177	1317.526489	1301.597900	1324.353149	-42.857910
192.157791	1219.679199	1292.495850	1333.455200	156.249985
192.540390	1322.077637	1281.118164	1269.740601	127.777611
192.922943	1274.291626	1312.975464	1292.495850	47.058990
193.305481	1333.455200	1312.975464	1246.985352	422.221497
193.687958	1281.118164	1272.016113	1308.424438	-300.001343
194.070419	1290.220337	1285.669312	1260.638550	650.002686
194.452866	1244.709839	1265.189575	1331.179688	422.221497
194.835251	1290.220337	1306.148926	1297.046875	42.857143
195.217621	1299.322388	1349.383789	1340.281738	81.818230
195.599960	1312.975464	1301.597900	1262.914063	440.001068
195.982254	1297.046875	1297.046875	1335.730713	0.000000
196.364517	1297.046875	1310.699951	1237.883301	-433.335114
196.746750	1326.628662	1365.312500	1265.189575	-158.823654
197.128952	1290.220337	1353.934937	1265.189575	-39.285755
197.511139	1328.904175	1326.628662	1231.056763	4300.016113
197.893280	1331.179688	1335.730713	1301.597900	-650.002686
198.275391	1310.699951	1312.975464	1251.536499	-2600.005371
198.657471	1276.567139	1297.046875	1201.474976	-366.665680
199.039520	1244.709839	1349.383789	1262.914063	17.391359
199.421539	1347.108276	1331.179688	1276.567139	442.858673
199.803513	1256.087524	1285.669312	1299.322388	146.153656
200.185471	1253.812012	1358.485962	1281.118164	26.086864
200.567383	1335.730713	1272.016113	1244.709839	142.857178
200.949265	1283.393677	1287.944824	1308.424438	549.987915
201.331131	1326.628662	1335.730713	1246.985352	-875.004028
201.712967	1299.322388	1315.250977	1240.158813	-371.430115
202.094742	1235.607788	1308.424438	1308.424438	100.000000
202.476517	1233.332275	1278.842651	1272.016113	85.000038
202.858231	1258.363037	1281.118164	1274.291626	70.000000
203.239944	1301.597900	1292.495850	1294.771362	75.000000
203.621582	1256.087524	1328.904175	1274.291626	24.999916
204.003235	1363.036987	1285.669312	1283.393677	102.941322
204.384827	1276.567139	1292.495850	1312.975464	228.570450
204.766388	1281.118164	1274.291626	1253.812012	400.000000
205.147934	1301.597900	1292.495850	1290.220337	125.000000
205.529449	1403.996338	1312.975464	1353.934937	54.999912
205.910904	1283.393677	1258.363037	1283.393677	-0.000000
206.292343	1210.577026	1322.077637	1210.577026	0.000000
206.673767	1308.424438	1281.118164	1315.250977	-24.999887
207.055115	1242.434326	1372.139038	1285.669312	33.333397
207.436462	1328.904175	1326.628662	1283.393677	2000.010742
207.817780	1303.873413	1399.445313	1226.505737	-80.952324
208.199051	1251.536499	1328.904175	1265.189575	17.647003
208.580307	1242.434326	1390.343262	1297.046875	36.923088
208.961517	1267.465088	1306.148926	1221.954712	-117.647003
209.342712	1292.495850	1312.975464	1292.495850	0.000000
209.723846	1242.434326	1221.954712	1190.097412	255.556152
210.104965	1322.077637	1285.669312	1260.638550	168.750107
210.486069	1267.465088	1306.148926	1246.985352	-52.941326
210.867111	1281.118164	1226.505737	1315.250977	-62.500084
211.248123	1301.597900	1299.322388	1219.679199	3600.010742
211.629120	1322.077637	1319.802124	1294.771362	1200.005371
212.010071	1274.291626	1338.006226	1262.914063	-17.857075
212.390991	1262.914063	1283.393677	1235.607788	-133.333923
212.771881	1294.771362	1351.659302	1281.118164	-24.000164
213.152756	1319.802124	1374.414551	1269.740601	-91.666908
213.533569	1306.148926	1333.455200	1269.740601	-133.333191
213.914368	1226.505737	1369.863525	1283.393677	39.682491
214.295135	1267.465088	1317.526489	1290.220337	45.454678
214.675858	1249.260864	1365.312500	1317.526489	58.823494
215.056549	1322.077637	1328.904175	1260.638550	-900.003601
215.437225	1285.669312	1299.322388	1294.771362	66.666664
215.817841	1276.567139	1360.761475	1274.291626	-2.702691
216.198441	1358.485962	1340.281738	1258.363037	549.998352
216.579025	1353.934937	1385.792114	1326.628662	-85.714668
216.959549	1299.322388	1292.495850	1326.628662	-400.001801
217.340057	1278.842651	1344.832764	1278.842651	0.000000
217.720535	1301.597900	1347.108276	1294.771362	-14.999960
218.100967	1294.771362	1301.597900	1265.189575	-433.335114
218.481369	1317.526489	1335.730713	1267.465088	-274.998840
218.861740	1344.832764	1292.495850	1235.607788	208.695862
219.242065	1256.087524	1228.781250	1246.985352	33.333630
219.622391	1256.087524	1303.873413	1274.291626	38.095142
220.002670	1274.291626	1317.526489	1242.434326	-73.684288
220.382919	1344.832764	1228.781250	1276.567139	58.823555
220.763123	1308.424438	1322.077637	1276.567139	-233.332138
221.143295	1356.210449	1322.077637	1274.291626	240.000214
221.523453	1269.740601	1340.281738	1256.087524	-19.354773
221.903549	1251.536499	1356.210449	1283.393677	30.434675
222.283630	1297.046875	1333.455200	1269.740601	-75.000084
222.663696	1317.526489	1319.802124	1265.189575	-2299.882080
223.043701	1206.026001	1333.455200	1203.750488	-1.785707
223.423676	1224.230225	1378.965576	1322.077637	63.235332
223.803635	1244.709839	1347.108276	1265.189575	20.000048
224.183548	1260.638550	1285.669312	1294.771362	136.363464
224.563431	1260.638550	1283.393677	1258.363037	-10.000000
224.943283	1322.077637	1335.730713	1326.628662	33.333332
225.323105	1246.985352	1353.934937	1306.148926	55.319126
225.702881	1260.638550	1308.424438	1294.771362	71.428642
226.082642	1242.434326	1265.189575	1267.465088	109.999947
226.462357	1365.312500	1383.516602	1206.026001	-875.003357
226.842041	1219.679199	1369.863525	1199.199463	-13.636400
227.221695	1319.802124	1315.250977	1276.567139	949.979858
227.601318	1306.148926	1406.271851	1265.189575	-40.909061
227.980911	1276.567139	1463.159912	1267.465088	-4.878030
228.360474	1287.944824	1383.516602	1278.842651	-9.523913
228.739990	1283.393677	1440.404663	1294.771362	7.246427
229.119476	1285.669312	1408.547363	1297.046875	9.259232
229.498932	1283.393677	1424.476074	1297.046875	9.677464
229.878372	1299.322388	1504.119263	1251.536499	-23.333309
230.257736	1262.914063	1515.496826	1258.363037	-1.801796
230.637115	1174.168701	1572.384888	1283.393677	27.428562
231.016449	1242.434326	1454.057739	1287.944824	21.505417
231.395737	1267.465088	1542.803101	1267.465088	0.000000
231.774994	1269.740601	1442.680176	1244.709839	-14.473703
232.154221	1276.567139	1476.812988	1196.923950	-39.772705
232.533417	1231.056763	1451.782227	1317.526489	39.175240
232.912582	1265.189575	1419.924927	1258.363037	-4.411751
233.291702	1299.322388	1392.618774	1283.393677	-17.073235
233.670792	1276.567139	1447.231201	1322.077637	26.666714
234.049866	1251.536499	1444.955688	1342.557251	47.058800
234.428894	1349.383789	1417.649414	1256.087524	-136.666534
234.807892	1292.495850	1410.822876	1244.709839	-40.384697
235.186874	1308.424438	1444.955688	1210.577026	-71.666679
235.565781	1203.750488	1504.119263	1233.332275	9.848490
235.944687	1274.291626	1490.466064	1272.016113	-1.052628
236.323547	1333.455200	1501.843750	1292.495850	-24.324308
236.702377	1287.944824	1481.364014	1253.812012	-17.647066
237.081177	1283.393677	1501.843750	1308.424438	11.458344
237.459946	1269.740601	1515.496826	1242.434326	-11.111122
237.838669	1265.189575	1535.976563	1274.291626	3.361332
238.217361	1206.026001	1565.558350	1358.485962	42.405075
238.596039	1244.709839	1515.496826	1265.189575	7.563043
238.974670	1299.322388	1561.007324	1249.260864	-19.130457
239.353271	1297.046875	1488.190552	1276.567139	-10.714315
239.731842	1244.709839	1533.701050	1340.281738	33.070866
240.110367	1308.424438	1488.190552	1285.669312	-12.658185
240.488876	1301.597900	1608.793213	1276.567139	-8.148159
240.867340	1356.210449	1590.588989	1246.985352	-46.602005
241.245789	1306.148926	1545.078613	1281.118164	-10.476204
241.624176	1303.873413	1508.670288	1353.934937	24.444477
242.002548	1297.046875	1706.640625	1283.393677	-3.333351
242.380890	1351.659302	1758.977539	1283.393677	-16.759777
242.759186	1272.016113	1736.222412	1308.424438	7.843135
243.137451	1303.873413	1904.610962	1246.985352	-9.469703
243.515686	1274.291626	1966.049927	1297.046875	3.289480
243.893890	1274.291626	2011.560425	1342.557251	9.259258
244.272049	1210.577026	1981.978638	1301.597900	11.799415
244.650192	1331.179688	1843.171875	1335.730713	0.888886
245.028290	1308.424438	1827.243164	1303.873413	-0.877190
245.406357	1190.097412	1699.814087	1328.904175	27.232141
245.784393	1272.016113	1692.987427	1303.873413	7.567570
246.162384	1308.424438	1756.702026	1294.771362	-3.045675
246.540359	1278.842651	1793.110352	1260.638550	-3.539810
246.918289	1208.301514	1822.692139	1353.934937	23.703718
247.296204	1338.006226	2052.519775	1347.108276	1.273881
247.674057	1294.771362	2245.938965	1408.547363	11.961720
248.051895	1338.006226	2393.847900	1374.414551	3.448275
248.429703	1347.108276	2443.909424	1328.904175	-1.659745
248.807465	1278.842651	2473.491211	1344.832764	5.523809
249.185196	1281.118164	2316.480225	1376.690063	9.230771
249.562897	1317.526489	2125.336426	1347.108276	3.661974
249.940567	1358.485962	2098.030273	1356.210449	-0.307691
250.318192	1312.975464	1972.876587	1397.169800	12.758629
250.695801	1317.526489	1986.529663	1315.250977	-0.340135
251.073349	1324.353149	1859.100464	1363.036987	7.234041
251.450882	1303.873413	1827.243164	1269.740601	-6.521739
251.828400	1276.567139	1879.580200	1344.832764	11.320754
252.205872	1221.954712	1790.834839	1342.557251	21.199991
252.583313	1269.740601	1900.059814	1335.730713	10.469316
252.960693	1226.505737	1938.743774	1351.659302	17.571873
253.338074	1303.873413	2045.693237	1353.934937	6.748475
253.715408	1287.944824	2077.550537	1406.271851	14.985584
254.092682	1319.802124	1945.570313	1256.087524	-10.181822
254.469955	1258.363037	1806.763550	1347.108276	16.182560
254.847198	1231.056763	1779.457275	1303.873413	13.278006
255.224365	1283.393677	1854.549438	1292.495850	1.593641
255.601563	1215.128052	1768.079712	1310.699951	17.283953
255.978683	1338.006226	1834.069824	1308.424438	-5.963305
256.355743	1260.638550	1818.141113	1306.148926	8.163259
256.732819	1240.158813	1906.886475	1374.414551	20.136518
257.109894	1301.597900	1829.518677	1360.761475	11.206903
257.486877	1267.465088	1920.539551	1390.343262	18.815338
257.863831	1276.567139	1934.192627	1347.108276	10.726643
258.240753	1326.628662	1943.294800	1397.169800	11.439114
258.617645	1303.873413	2029.764526	1356.210449	7.210040
258.994507	1251.536499	2118.509766	1349.383789	11.286079
259.371307	1274.291626	2184.500000	1399.445313	13.750004
259.748108	1292.495850	2286.898438	1351.659302	5.949648
260.124878	1212.852539	2493.970703	1376.690063	12.788635
260.501617	1315.250977	2760.206787	1390.343262	5.196857
260.878296	1294.771362	2919.493164	1469.986450	10.784313
261.254944	1301.597900	3056.024414	1476.812988	9.987029
261.631561	1262.914063	2933.146240	1426.751587	9.809266
262.008179	1347.108276	2657.808350	1479.088501	10.069445
262.384735	1290.220337	2484.868652	1367.588013	6.476188
262.761261	1278.842651	2275.520752	1378.965576	10.045663
263.137695	1281.118164	2311.929199	1310.699951	2.869758
263.514191	1206.026001	2141.265137	1333.455200	13.625306
263.890594	1219.679199	2107.132324	1315.250977	10.769219
264.267029	1265.189575	2141.265137	1369.863525	11.948050
264.643341	1251.536499	2145.816162	1322.077637	7.888040
265.019653	1333.455200	2111.683350	1301.597900	-4.093568
265.395935	1312.975464	2152.642578	1308.424438	-0.542004
265.772217	1256.087524	2045.693237	1322.077637	8.357350
266.148407	1281.118164	2045.693237	1344.832764	8.333335
266.524597	1281.118164	2079.825928	1353.934937	9.116823
266.900726	1237.883301	2286.898438	1372.139038	12.798265
267.276855	1322.077637	2352.888428	1310.699951	-1.103761
267.652924	1272.016113	2407.500977	1319.802124	4.208424
268.028992	1351.659302	2346.062012	1385.792114	3.432494
268.404999	1303.873413	2430.256104	1424.476074	10.707077
268.781006	1335.730713	2416.603027	1349.383789	1.263153
269.156921	1290.220337	2334.684326	1353.934937	6.100220
269.532837	1322.077637	2325.582275	1415.373901	9.297044
269.908661	1233.332275	2409.776611	1378.965576	12.379107
270.284546	1301.597900	2277.796387	1322.077637	2.097907
270.660339	1365.312500	2409.776611	1374.414551	0.871457
271.036133	1260.638550	2450.735840	1401.720825	11.854684
271.411835	1285.669312	2318.755615	1394.894287	10.572686
271.787537	1256.087524	2594.093750	1388.067749	9.863947
272.163239	1215.128052	2814.819336	1356.210449	8.819351
272.538849	1315.250977	2987.758789	1481.364014	9.931973
272.914459	1299.322388	2912.666504	1433.578125	8.321581
273.290070	1272.016113	2846.676514	1424.476074	9.682085
273.665588	1281.118164	2673.737061	1456.333252	12.581697
274.041046	1285.669312	2714.696289	1488.190552	14.171968
274.416565	1246.985352	2550.858887	1390.343262	10.994771
274.791962	1206.026001	2621.399902	1403.996338	13.987141
275.167389	1319.802124	2544.032227	1374.414551	4.460961
275.542755	1283.393677	2498.521729	1374.414551	7.490641
275.918060	1244.709839	2523.552490	1388.067749	11.209972
276.293365	1281.118164	2459.837891	1344.832764	5.405407
276.668640	1317.526489	2584.991699	1306.148926	-0.897663
277.043854	1272.016113	2546.307861	1328.904175	4.464289
277.419037	1260.638550	2687.390137	1356.210449	6.698566
277.794189	1287.944824	2716.971924	1369.863525	5.732481
278.169312	1217.403687	2714.696289	1458.608887	16.109423
278.544373	1294.771362	2682.839111	1392.618774	7.049181
278.919464	1322.077637	2537.205811	1297.046875	-2.059928
279.294464	1287.944824	2569.062988	1449.506714	12.611006
279.669464	1237.883301	2619.124512	1410.822876	12.520592
280.044403	1256.087524	2669.185791	1381.241089	8.856678
280.419312	1262.914063	2689.665527	1463.159912	14.035089
280.794189	1276.567139	2710.145264	1467.710938	13.333337
281.169037	1331.179688	2680.563477	1422.200562	6.745366
281.543854	1353.934937	2810.268311	1406.271851	3.593745
281.918671	1228.781250	2851.227539	1451.782227	13.744737
282.293365	1312.975464	2924.044189	1406.271851	5.790963
282.668091	1358.485962	3056.024414	1419.924927	3.619298
283.042786	1353.934937	3147.045166	1490.466064	7.614207
283.417419	1299.322388	3030.993652	1310.699951	0.657028
283.792053	1237.883301	3046.922363	1374.414551	7.547170
284.166595	1283.393677	2905.840088	1390.343262	6.591872
284.541138	1199.199463	2873.982666	1406.271851	12.364131
284.915619	1237.883301	2951.350586	1319.802124	4.780880
285.290100	1308.424438	3012.789551	1440.404663	7.743659
285.664520	1297.046875	3067.402100	1492.741699	11.053987
286.038940	1326.628662	3117.463379	1438.129150	6.226174
286.413300	1269.740601	3112.912354	1465.435425	10.617287
286.787628	1310.699951	3244.892578	1506.394775	10.117649
287.161896	1285.669312	3470.169189	1465.435425	8.229165
287.536194	1240.158813	3360.944336	1538.252075	14.055794
287.910400	1290.220337	3281.301025	1526.874512	11.885715
288.284607	1331.179688	3219.861816	1483.639526	8.072287
288.658752	1303.873413	3096.983887	1504.119263	11.167513
289.032867	1303.873413	2974.105713	1467.710938	9.809266
289.406921	1278.842651	2924.044189	1535.976563	15.629326
289.781006	1269.740601	3046.922363	1388.067749	6.658134
290.154999	1294.771362	3128.841064	1526.874512	12.655088
290.529022	1258.363037	3213.035400	1579.211426	16.414433
290.902954	1308.424438	3272.198975	1579.211426	13.789107
291.276825	1292.495850	3429.209961	1608.793213	14.802980
291.650757	1324.353149	3374.597412	1590.588989	12.985568
292.024597	1369.863525	3447.414063	1633.823975	12.705368
292.398407	1281.118164	3356.393066	1567.833862	13.815794
292.772156	1290.220337	3310.882813	1567.833862	13.738738
293.145905	1240.158813	3206.208740	1574.660400	17.013891
293.519592	1283.393677	3192.555664	1533.701050	13.110850
293.893280	1306.148926	3156.147461	1686.160889	20.541203
294.266907	1310.699951	3297.229736	1586.037964	13.860250
294.640533	1278.842651	3360.944336	1608.793213	15.846996
295.014069	1272.016113	3481.546875	1747.599976	21.524202
295.387604	1317.526489	3615.802490	1686.160889	16.039606
295.761078	1267.465088	3572.567627	1711.191650	19.249754
296.134552	1235.607788	3590.771729	1663.405762	18.164253
296.507996	1251.536499	3593.047363	1754.426514	21.477160
296.881378	1178.719727	3572.567627	1713.467163	22.338406
297.254730	1285.669312	3875.211914	1711.191650	16.432337
297.628021	1262.914063	4068.631104	1774.906250	18.248177
298.001282	1274.291626	4027.671875	1852.273926	20.991735
298.374573	1310.699951	4068.631104	1784.008301	17.161716
298.747803	1253.812012	3993.539063	1827.243164	20.930229
299.121002	1269.740601	3795.568604	1718.018188	17.747747
299.494141	1228.781250	3702.272461	1713.467163	19.595215
299.867188	1221.954712	3645.384277	1697.538574	19.624413
300.240265	1253.812012	3538.434814	1715.742676	20.219122
300.613312	1278.842651	3424.658691	1720.293701	20.572643
300.986328	1283.393677	3401.903564	1718.018188	20.515577
301.359314	1251.536499	3310.882813	1658.854614	19.779001
301.732239	1256.087524	3333.637939	1722.569214	22.453449
302.105103	1253.812012	3413.281250	1670.232300	19.283455
302.477997	1258.363037	3401.903564	1667.956787	19.108280
302.850830	1285.669312	3408.730225	1704.365112	19.721327
303.223602	1285.669312	3272.198975	1706.640625	21.191292
303.596375	1256.087524	3315.433838	1724.844727	22.762428
303.969116	1287.944824	3224.413086	1718.018188	22.209162
304.341766	1294.771362	3283.576416	1667.956787	18.764303
304.714478	1349.383789	3294.954102	1658.854614	15.906432
305.087067	1347.108276	3035.544678	1658.854614	18.463612
305.459656	1246.985352	3192.555664	1601.966675	18.245617
305.832214	1294.771362	3224.413086	1686.160889	20.283016
306.204681	1340.281738	3235.790527	1640.650513	15.846340
306.577148	1303.873413	3233.515137	1642.926025	17.570755
306.949646	1347.108276	3326.811523	1624.721802	14.022986
307.322021	1281.118164	3231.239502	1677.058838	20.303387
307.694397	1287.944824	3162.973877	1601.966675	16.747572
308.066742	1262.914063	3251.719238	1615.619751	17.734552
308.439026	1351.659302	3285.852051	1711.191650	18.588238
308.811279	1310.699951	3404.179199	1624.721802	14.999998
309.183502	1253.812012	3606.700439	1677.058838	17.988394
309.555695	1235.607788	3622.629150	1756.702026	21.830313
309.927887	1215.128052	3608.976074	1724.844727	21.292774
310.299988	1237.883301	3547.536865	1731.671387	21.379314
310.672058	1333.455200	3574.843262	1654.303589	14.314717
311.044128	1219.679199	3684.068115	1752.151001	21.606646
311.416168	1272.016113	3693.170166	1697.538574	17.575191
311.788147	1253.812012	3618.078125	1736.222412	20.404234
312.160065	1187.821899	3715.925537	1761.253052	22.682266
312.531982	1328.904175	3595.322754	1718.018188	17.168674
312.903870	1315.250977	3613.527100	1647.477051	14.455446
313.275696	1301.597900	3449.689453	1688.436401	18.008474
313.647491	1276.567139	3413.281250	1743.048950	21.831738
314.019318	1342.557251	3360.944336	1649.752563	15.219841
314.391022	1328.904175	3397.352539	1702.089600	18.041807
314.762726	1328.904175	3574.843262	1738.497925	18.237083
315.134369	1260.638550	3502.026611	1727.120239	20.812178
315.505981	1267.465088	3606.700439	1761.253052	21.108948
315.877594	1249.260864	3718.200928	1672.507813	17.142860
316.249146	1315.250977	3611.251465	1683.885376	16.055502
316.620636	1267.465088	3583.945313	1704.365112	18.860512
316.992157	1276.567139	3338.188965	1661.130127	18.653421
317.363586	1240.158813	3388.250488	1624.721802	17.902540
317.735016	1283.393677	3301.780762	1658.854614	18.602028
318.106354	1274.291626	3269.923340	1645.201538	18.586090
318.477722	1258.363037	3306.331787	1665.681274	19.888889
318.849060	1251.536499	3433.760986	1583.762451	15.224187
319.220306	1251.536499	3372.321777	1652.028076	18.884119
319.591522	1276.567139	3456.516113	1642.926025	16.805847
319.962738	1283.393677	3424.658691	1645.201538	16.896919
320.333923	1258.363037	3533.883789	1613.344238	15.599998
320.705017	1274.291626	3413.281250	1601.966675	15.319150
321.076111	1297.046875	3406.454590	1586.037964	13.700106
321.447144	1328.904175	3422.383301	1586.037964	12.282606
321.818176	1219.679199	3299.505127	1606.517700	18.599562
322.189178	1297.046875	3299.505127	1695.262939	19.886360
322.560120	1317.526489	3258.545898	1576.935913	13.364597
322.931030	1262.914063	3363.219727	1620.170776	17.009748
323.301910	1262.914063	3574.843262	1631.548462	15.944882
323.672729	1317.526489	3704.547852	1674.783325	14.966637
324.043549	1317.526489	3772.813477	1733.946899	16.960152
324.414337	1269.740601	4011.743164	1729.395752	16.763485
324.785095	1358.485962	4080.008789	1745.324463	14.214046
325.155792	1287.944824	4116.416992	1781.732788	17.457764
325.526428	1285.669312	4168.753906	1749.875488	16.101027
325.897034	1208.301514	4041.324951	1674.783325	16.465864
326.267670	1262.914063	4018.569824	1661.130127	14.450864
326.638184	1283.393677	3891.140625	1702.089600	16.055849
327.008728	1287.944824	4011.743164	1647.477051	13.199664
327.379211	1299.322388	4027.671875	1665.681274	13.427857
327.749634	1319.802124	3893.416016	1690.711914	14.412023
328.120026	1228.781250	3791.017578	1761.253052	20.781527
328.490417	1219.679199	3806.946289	1724.844727	19.525063
328.860748	1228.781250	3725.027588	1690.711914	18.505011
329.231079	1260.638550	3797.844238	1683.885376	16.681614
329.601318	1274.291626	3649.935303	1695.262939	17.720306
329.971558	1256.087524	3777.364502	1708.916138	17.960289
330.341736	1244.709839	3781.915527	1658.854614	16.322870
330.711914	1303.873413	3841.079102	1788.559326	19.103140
331.082062	1285.669312	3784.191162	1772.630737	19.489979
331.452148	1246.985352	3802.395264	1781.732788	20.926092
331.822174	1285.669312	3747.782715	1733.946899	18.207026
332.192200	1262.914063	3845.630127	1758.977539	19.207047
332.562134	1292.495850	3918.446777	1733.946899	16.811092
332.932129	1237.883301	3993.539063	1704.365112	16.928160
333.302063	1319.802124	4080.008789	1772.630737	16.405605
333.671906	1312.975464	4284.805664	1715.742676	13.552835
334.041718	1194.648438	4214.264648	1743.048950	18.161264
334.411499	1249.260864	4264.326172	1777.181763	17.509434
334.781281	1324.353149	4218.815430	1736.222412	14.229560
335.151001	1274.291626	4293.907715	1724.844727	14.920873
335.520721	1290.220337	4091.386475	1718.018188	15.272135
335.890350	1312.975464	4039.049316	1738.497925	15.609353
336.259979	1233.332275	4018.569824	1729.395752	17.810455
336.629547	1319.802124	4045.875977	1724.844727	14.858094
336.999084	1272.016113	4070.906738	1736.222412	16.585367
337.368622	1340.281738	4098.212891	1715.742676	13.613862
337.738098	1281.118164	4164.203125	1740.773438	15.943174
338.107513	1260.638550	4150.549805	1670.232300	14.173230
338.476898	1260.638550	4248.397461	1677.058838	13.937547
338.846252	1328.904175	4282.530273	1740.773438	13.944530
339.215576	1285.669312	4243.846191	1674.783325	13.153846
339.584869	1269.740601	4230.193359	1747.599976	16.141430
339.954132	1240.158813	4298.458984	1738.497925	16.294643
340.323334	1283.393677	4157.376465	1774.906250	17.102140
340.692505	1287.944824	4098.212891	1743.048950	16.194332
341.061646	1281.118164	3970.783691	1779.457275	18.527922
341.430786	1299.322388	4100.488281	1697.538574	14.216086
341.799896	1310.699951	4221.091309	1665.681274	12.197031
342.168915	1292.495850	4248.397461	1784.008301	16.628174
342.537903	1278.842651	4382.652832	1777.181763	16.055721
342.906830	1272.016113	4243.846191	1699.814087	14.395103
343.275757	1276.567139	4373.550781	1658.854614	12.343864
343.644684	1274.291626	4371.275391	1756.702026	15.576781
344.013550	1333.455200	4487.327148	1827.243164	15.656563
344.382355	1231.056763	4564.694824	1818.141113	17.610920
344.751129	1274.291626	4824.104004	1804.488037	14.935899
345.119873	1333.455200	4976.563965	1840.896362	13.928795
345.488586	1324.353149	5072.135742	1879.580200	14.814815
345.857269	1206.026001	5229.146973	1859.100464	16.233030
346.225891	1237.883301	5342.922852	1927.366089	16.796009
346.594482	1265.189575	5445.321289	1909.161987	15.405553
346.963043	1340.281738	5197.289551	1865.927002	13.628317
347.331543	1228.781250	5001.594727	1902.335449	17.852837
347.700043	1342.557251	4997.043457	1836.345337	13.511833
348.068512	1281.118164	4956.084473	1870.478149	16.037153
348.436951	1283.393677	4621.582520	1743.048950	13.769600
348.805328	1285.669312	4580.623535	1758.977539	14.364638
349.173645	1342.557251	4664.817871	1863.651489	15.684929
349.541931	1308.424438	4623.858398	1806.763550	15.030886
349.910217	1310.699951	4710.328125	1795.385864	14.257028
350.278473	1290.220337	4855.961426	1845.447388	15.571154
350.646667	1353.934937	4819.553223	1861.375977	14.642151
351.014801	1253.812012	4912.849609	1961.498901	19.340794
351.382935	1267.465088	4933.329102	1877.304688	16.635632
351.751007	1306.148926	5006.145996	1879.580200	15.498155
352.119049	1249.260864	5049.380859	1763.528564	13.532933
352.487091	1265.189575	5012.972168	1845.447388	15.482697
352.855072	1328.904175	5247.351074	1895.508789	14.459929
353.222992	1258.363037	5035.727539	1859.100464	15.903613
353.590881	1369.863525	5222.320313	1806.763550	11.340816
353.958740	1228.781250	5313.341309	1818.141113	14.428968
354.326599	1242.434326	5397.535156	1881.855713	15.388830
354.694397	1219.679199	5659.220215	1918.264038	15.735519
355.062134	1367.588013	5654.669434	1879.580200	11.942675
355.429840	1317.526489	5602.332031	2009.284912	16.144453
355.797516	1244.709839	5811.680176	1986.529663	16.243151
356.165192	1283.393677	6075.640625	2002.458252	15.004747
356.532776	1267.465088	6018.752441	2059.346436	16.666670
356.900360	1256.087524	6332.774414	2047.968750	15.598386
357.267883	1267.465088	6330.499023	2088.927979	16.224716
357.635376	1347.108276	6717.337402	2057.070801	13.220340
358.002808	1203.750488	6853.868652	2129.887451	16.391462
358.370270	1240.158813	7115.553711	2202.704102	16.382648
358.737640	1274.291626	7265.737793	2289.173828	16.938852
359.105011	1342.557251	7115.553711	2264.143311	15.963738
359.472321	1349.383789	6710.510742	2113.958740	14.261459
359.839569	1356.210449	6851.593262	2214.081787	15.610765
360.206787	1360.761475	6699.133301	2079.825928	13.469733
360.574005	1308.424438	7049.563477	2202.704102	15.576694
360.941193	1310.699951	7283.941895	2164.020264	14.285714
361.308319	1240.158813	7645.750000	2211.806152	15.168737
361.675415	1256.087524	8219.180664	2241.387939	14.150327
362.042450	1292.495850	8628.774414	2371.092773	14.702235
362.409424	1233.332275	9168.073242	2407.500977	14.797820
362.776428	1228.781250	9295.502930	2487.144287	15.599436
363.143402	1260.638550	8913.214844	2300.551514	13.589057
363.510284	1344.832764	8376.192383	2389.296875	14.854369
363.877136	1208.301514	7704.913574	2300.551514	16.812609
364.243988	1328.904175	7131.482422	2182.224365	14.705880
364.610779	1310.699951	6892.552734	2141.265137	14.879741
364.977539	1328.904175	6665.000488	2143.540527	15.266523
365.344269	1269.740601	6528.469238	2193.602051	17.568153
365.710938	1326.628662	6578.530762	2054.795166	13.864814
366.077576	1287.944824	6403.315430	2025.213501	14.412810
366.444183	1319.802124	6153.008301	1995.631714	13.983049
366.810760	1287.944824	6303.192383	1954.672363	13.294010
367.177277	1281.118164	6419.244141	2152.642578	16.961912
367.543823	1276.567139	6364.631836	2034.315552	14.892665
367.910248	1258.363037	6271.335449	2072.999512	16.250566
368.276642	1322.077637	6284.988281	2004.733887	13.755159
368.643036	1242.434326	6178.039063	2091.203613	17.196865
369.009399	1242.434326	6127.977539	2066.172852	16.860737
369.375671	1221.954712	6089.293457	1988.805176	15.755025
369.741974	1287.944824	5966.415527	2070.723877	16.731516
370.108215	1319.802124	5959.588867	1954.672363	13.683178
370.474396	1312.975464	6032.405762	2034.315552	15.284474
370.840546	1312.975464	6091.569336	2088.927979	16.238092
371.206665	1299.322388	6073.365234	2052.519775	15.776930
371.572784	1265.189575	6339.601074	2138.989502	17.219728
371.938843	1226.505737	6264.508789	2077.550537	16.892504
372.304840	1272.016113	6523.917969	2045.693237	14.731371
372.670807	1299.322388	6441.999512	2066.172852	14.911503
373.036713	1285.669312	6323.672363	2059.346436	15.356822
373.402649	1256.087524	6344.151855	2022.937988	15.071556
373.768524	1260.638550	6467.030273	1997.907227	14.160838
374.134308	1308.424438	6264.508789	2018.386963	14.325069
374.500122	1276.567139	6391.937988	2095.754639	16.014235
374.865875	1231.056763	6519.367188	2104.856689	16.523233
375.231567	1274.291626	6398.764648	1963.774414	13.454706
375.597260	1226.505737	6503.438477	2088.927979	16.343248
375.962891	1233.332275	6881.174805	2173.122314	16.639805
376.328461	1267.465088	6835.664551	2198.153076	16.714344
376.694031	1267.465088	7024.532715	2134.438477	15.059289
377.059540	1331.179688	7365.860840	2211.806152	14.592759
377.425049	1258.363037	7643.474609	2280.071777	16.001425
377.790497	1249.260864	7782.281250	2191.326416	14.420061
378.155945	1333.455200	8084.925293	2316.480225	14.560163
378.521301	1256.087524	7834.618164	2250.489990	15.115874
378.886597	1369.863525	7973.424805	2300.551514	14.093728
379.251892	1312.975464	7497.840820	2191.326416	14.201618
379.617157	1272.016113	7274.839844	2204.979736	15.542079
379.982422	1196.923950	7056.390137	2134.438477	15.999999
380.347595	1310.699951	7033.634766	2207.255127	15.666004
380.712738	1251.536499	6947.165039	2113.958740	15.141828
381.077820	1260.638550	7042.736816	2059.346436	13.813461
381.442902	1278.842651	7097.349609	2216.357178	16.112631
381.807953	1294.771362	7015.430664	2239.112549	16.507559
382.172974	1267.465088	6938.062988	2154.918213	15.650081
382.537933	1285.669312	6992.675293	2186.775391	15.789472
382.902832	1256.087524	7010.879395	2027.489014	13.404507
383.267700	1242.434326	7088.247070	2182.224365	16.076294
383.632538	1292.495850	7179.268066	2143.540527	14.456898
383.997345	1246.985352	7404.544922	2214.081787	15.705840
384.362152	1292.495850	7582.035156	2175.397949	14.037628
384.726898	1246.985352	7554.729004	2189.051025	14.935066
385.091553	1233.332275	7577.484375	2291.449463	16.678621
385.456238	1315.250977	7559.280273	2314.204590	15.998542
385.820862	1269.740601	7618.443848	2204.979736	14.731184
386.185425	1219.679199	7611.617188	2245.938965	16.055534
386.549988	1258.363037	7609.341797	2248.214600	15.585812
386.914490	1244.709839	7729.944336	2173.122314	14.315789
387.278961	1262.914063	7950.669922	2227.734863	14.426675
387.643372	1258.363037	8057.619141	2250.489990	14.591699
388.007782	1258.363037	8046.241699	2298.276123	15.320148
388.372101	1281.118164	8032.588379	2239.112549	14.189419
388.736450	1240.158813	8005.282227	2266.418701	15.169862
389.100739	1278.842651	8003.006836	2234.561523	14.213200
389.464966	1274.291626	7727.668457	2152.642578	13.610718
389.829163	1317.526489	7907.434570	2193.602051	13.294200
390.193329	1244.709839	7805.036133	2157.193604	13.909122
390.557495	1315.250977	8098.578613	2223.183838	13.384770
390.921570	1210.577026	8264.691406	2223.183838	14.354840
391.285614	1303.873413	8280.620117	2207.255127	12.948467
391.649597	1235.607788	8396.671875	2261.867676	14.331109
392.013550	1285.669312	8967.827148	2311.929199	13.359006
392.377502	1276.567139	9249.992188	2430.256104	14.469177
392.741455	1242.434326	9149.869141	2400.674561	14.647484
393.105316	1253.812012	9036.092773	2336.959961	13.918130
393.469086	1365.312500	8885.909180	2334.684326	12.889560
393.832886	1338.006226	8874.531250	2257.316650	12.198068
394.196655	1353.934937	8958.725586	2364.266113	13.285457
394.560333	1322.077637	9031.541992	2286.898438	12.514758
394.924042	1328.904175	9197.655273	2298.276123	12.319261
395.287659	1287.944824	9407.002930	2209.530762	11.350897
395.651245	1262.914063	9036.092773	2277.796387	13.056208
396.014771	1260.638550	9033.817383	2352.888428	14.051521
396.378296	1353.934937	8526.375977	2239.112549	12.341372
396.741791	1326.628662	8355.711914	2100.305664	11.006799
397.105255	1219.679199	8346.610352	2157.193604	13.154531
397.468628	1206.026001	8305.651367	2179.948975	13.717949
397.832001	1231.056763	8194.150391	2070.723877	12.058823
398.195313	1258.363037	8294.273438	2148.091553	12.645535
398.558624	1281.118164	8251.038086	2107.132324	11.851129
398.921844	1292.495850	8223.732422	2154.918213	12.442548
399.285095	1274.291626	8194.150391	2102.581299	11.969748
399.648254	1297.046875	8173.670898	2193.602051	13.037723
400.011383	1319.802124	8328.406250	2107.132324	11.233767
400.374451	1308.424438	8246.487305	2111.683350	11.577567
400.737549	1335.730713	8380.743164	2116.234375	11.078812
401.100586	1287.944824	8251.038086	2079.825928	11.372548
401.463562	1297.046875	8244.211914	2027.489014	10.514248
401.826508	1351.659302	8576.437500	2088.927979	10.204724
402.189392	1301.597900	8114.507324	2123.060791	12.057446
402.552246	1306.148926	8376.192383	2084.376953	11.007401
402.915070	1292.495850	8483.141602	1995.631714	9.778481
403.277893	1256.087524	8708.417969	2091.203613	11.206106
403.640656	1260.638550	8822.194336	2116.234375	11.315077
404.003326	1276.567139	9006.511719	2134.438477	11.098027
404.366028	1210.577026	8897.286133	2123.060791	11.870929
404.728699	1240.158813	9309.155273	2223.183838	12.182742
405.091248	1269.740601	9766.535156	2218.632813	11.167648
405.453857	1285.669312	9766.535156	2255.041016	11.430102
405.816345	1206.026001	9443.411133	2189.051025	11.933702
406.178833	1301.597900	9541.258789	2245.938965	11.460921
406.541260	1265.189575	9768.810547	2323.306641	12.443135
406.903687	1228.781250	9393.349609	2116.234375	10.869566
407.266052	1356.210449	9275.022461	2070.723877	9.022987
407.628387	1246.985352	9156.695313	2168.571289	11.651324
407.990662	1287.944824	9077.052734	2007.009399	9.231668
408.352905	1224.230225	9083.878906	2104.856689	11.204400
408.715118	1224.230225	9193.104492	2050.244141	10.365503
409.077332	1283.393677	9127.114258	2072.999512	10.066726
409.439484	1258.363037	9074.777344	2009.284912	9.606987
409.801575	1301.597900	9106.633789	2095.754639	10.174927
410.163605	1385.792114	9366.043945	2013.835938	7.869975
410.525635	1333.455200	9545.809570	2079.825928	9.088389
410.887604	1338.006226	9511.676758	2034.315552	8.518930
411.249573	1276.567139	9659.585938	2036.591064	9.066232
411.611481	1260.638550	9418.380859	2022.937988	9.344490
411.973328	1353.934937	9493.472656	1988.805176	7.799832
412.335144	1344.832764	9618.625977	1993.356201	7.838284
412.696930	1342.557251	9498.023438	2027.489014	8.398438
413.058685	1246.985352	9384.248047	1954.672363	8.696868
413.420410	1285.669312	9286.400391	1950.121338	8.304892
413.782104	1319.802124	9513.952148	2077.550537	9.247431
414.143707	1287.944824	9407.002930	2009.284912	8.884529
414.505310	1322.077637	9573.116211	2034.315552	8.632100
414.866852	1292.495850	9689.167969	1913.713013	7.398374
415.228394	1251.536499	9773.362305	1961.498901	8.331106
415.589874	1249.260864	9777.913086	1966.049927	8.404482
415.951324	1285.669312	9889.413086	1936.468262	7.564137
416.312683	1333.455200	10260.323242	1975.152100	7.188376
416.674072	1324.353149	10328.588867	2011.560425	7.632045
417.035370	1253.812012	11052.204102	1995.631714	7.570831
417.396667	1297.046875	10813.274414	2036.591064	7.771401
417.757935	1294.771362	11095.439453	2013.835938	7.336894
418.119141	1272.016113	11559.645508	2020.662476	7.277152
418.480286	1253.812012	11718.931641	2041.142212	7.523376
418.841400	1258.363037	12208.168945	2104.856689	7.730673
419.202484	1260.638550	12606.384766	2022.937988	6.718813
419.563568	1228.781250	12988.672852	2111.683350	7.507740
419.924591	1276.567139	13789.656250	2113.958740	6.692125
420.285553	1324.353149	13853.371094	2136.714111	6.483836
420.646484	1312.975464	14815.916016	2150.367188	6.201551
421.007355	1253.812012	15261.917969	2218.632813	6.887589
421.368225	1301.597900	15935.472656	2286.898438	6.733012
421.729065	1292.495850	16342.790039	2252.765625	6.380405
422.089874	1338.006226	16998.140625	2330.133301	6.335367
422.450592	1351.659302	16809.271484	2359.715088	6.521420
422.811279	1308.424438	16652.261719	2316.480225	6.569777
423.171936	1251.536499	16627.230469	2248.214600	6.482166
423.532593	1226.505737	16358.718750	2273.245361	6.917294
423.893127	1292.495850	16511.179688	2357.439453	6.997607
424.253723	1285.669312	16727.353516	2402.949951	7.235484
424.614197	1244.709839	16938.976563	2250.489990	6.408583
424.974670	1249.260864	17539.714844	2339.235352	6.690878
425.335052	1249.260864	17573.847656	2264.143311	6.216895
425.695496	1253.812012	16836.578125	2341.510986	6.980141
426.055817	1272.016113	16977.660156	2387.021240	7.099391
426.416168	1260.638550	16941.251953	2416.603027	7.371934
426.776398	1292.495850	15944.574219	2361.990479	7.299269
427.136627	1242.434326	15578.215820	2239.112549	6.952382
427.496826	1231.056763	15316.530273	2257.316650	7.285945
427.856995	1240.158813	14397.219727	2236.836914	7.575234
428.217102	1278.842651	14128.708984	2148.091553	6.764653
428.577179	1342.557251	13748.696289	2157.193604	6.566397
428.937195	1249.260864	13798.757813	2148.091553	7.162284
429.297180	1306.148926	13015.978516	2134.438477	7.073455
429.657135	1276.567139	13202.571289	2152.642578	7.345926
430.017059	1244.709839	13459.705078	2043.417725	6.538749
430.376984	1290.220337	13125.204102	2120.785400	7.017881
430.736786	1301.597900	12738.365234	2170.846924	7.600478
431.096588	1303.873413	12840.763672	2186.775391	7.652859
431.456360	1269.740601	12868.070313	2077.550537	6.964881
431.816071	1317.526489	12310.567383	2032.040039	6.499690
432.175781	1292.495850	12574.528320	2068.448486	6.877774
432.535400	1237.883301	12526.742188	2088.927979	7.538801
432.895020	1244.709839	12467.578125	2047.968750	7.157341
433.254578	1274.291626	12886.274414	2189.051025	7.877719
433.614105	1274.291626	12972.744141	2150.367188	7.488816
433.973602	1299.322388	13484.736328	2170.846924	7.152194
434.333038	1290.220337	13334.551758	2104.856689	6.763649
434.692444	1265.189575	13402.817383	2075.274902	6.674165
435.051819	1258.363037	13680.430664	2036.591064	6.264884
435.411133	1367.588013	13744.145508	2070.723877	5.681191
435.770416	1185.546387	13036.458984	2036.591064	7.181259
436.129669	1294.771362	13498.389648	2068.448486	6.339736
436.488861	1306.148926	13343.654297	2022.937988	5.954631
436.848083	1374.414551	13430.124023	2041.142212	5.530389
437.207184	1292.495850	13327.725586	2016.111450	6.012479
437.566254	1310.699951	13689.533203	2004.733887	5.606618
437.925293	1210.577026	13669.053711	2072.999512	6.922375
438.284363	1240.158813	13805.584961	2132.163086	7.098878
438.643311	1274.291626	13839.717773	2016.111450	5.903658
439.002258	1294.771362	13780.553711	1991.080688	5.576818
439.361145	1256.087524	14121.881836	2127.612061	6.773966
439.719971	1237.883301	14793.161133	2018.386963	5.757932
440.078827	1335.730713	14836.395508	2125.336426	5.848643
440.437592	1342.557251	15271.020508	2143.540527	5.750694
440.796295	1297.046875	15534.980469	2107.132324	5.689628
441.155029	1269.740601	16704.597656	2132.163086	5.587499
441.513672	1278.842651	16843.404297	2154.918213	5.628655
441.872253	1294.771362	17109.640625	2236.836914	5.956834
442.230865	1285.669312	16367.821289	2068.448486	5.190103
442.589386	1278.842651	16693.220703	2118.509766	5.447298
442.947876	1272.016113	16247.218750	2050.244141	5.196778
443.306335	1287.944824	15862.655273	2057.070801	5.277127
443.664764	1326.628662	15341.561523	2016.111450	4.919630
444.023102	1269.740601	15691.991211	1952.396851	4.733355
444.381500	1349.383789	15478.092773	1988.805176	4.525689
444.739777	1315.250977	15546.358398	1993.356201	4.764950
445.098022	1335.730713	15846.726563	2075.274902	5.096440
445.456238	1349.383789	15785.288086	2077.550537	5.044137
445.814423	1315.250977	16274.524414	2082.101563	5.126256
446.172577	1265.189575	17212.039063	2059.346436	4.980023
446.530701	1224.230225	17107.365234	2016.111450	4.985673
446.888733	1342.557251	17496.478516	2177.673340	5.169742
447.246765	1308.424438	18634.240234	2127.612061	4.728133
447.604736	1290.220337	17553.367188	2182.224365	5.484818
447.962677	1278.842651	18151.830078	2104.856689	4.895482
448.320587	1340.281738	18422.617188	2284.622803	5.528173
448.678436	1287.944824	17908.349609	2204.979736	5.517525
449.036255	1212.852539	17922.001953	2132.163086	5.501840
449.394043	1292.495850	16818.375000	2141.265137	5.466804
449.751770	1217.403687	17027.722656	2164.020264	5.987334
450.109467	1262.914063	16401.953125	2150.367188	5.862018
450.467163	1237.883301	16558.964844	2220.908203	6.416159
450.824768	1306.148926	16185.779297	2161.744873	5.750115
451.182343	1285.669312	15805.767578	2202.704102	6.315624
451.539886	1224.230225	15603.246094	2152.642578	6.456717
451.897369	1303.873413	15546.358398	2270.969727	6.790222
452.254822	1233.332275	15243.713867	2284.622803	7.503654
452.612274	1253.812012	15794.389648	2296.000488	7.167449
452.969635	1308.424438	15528.154297	2357.439453	7.377180
453.326965	1206.026001	15880.859375	2305.102539	7.489533
453.684326	1201.474976	15423.480469	2327.857666	7.919999
454.041534	1251.536499	15182.274414	2387.021240	8.150930
454.398773	1265.189575	14847.773438	2519.001465	9.231027
454.755951	1294.771362	14483.689453	2430.256104	8.609385
455.113098	1240.158813	13912.534180	2348.337402	8.744838
455.470215	1292.495850	14194.699219	2514.450439	9.470899
455.827240	1208.301514	14096.851563	2557.685303	10.469632
456.184265	1287.944824	14153.739258	2519.001465	9.568446
456.541260	1276.567139	13696.359375	2616.848877	10.791499
456.898193	1349.383789	13985.350586	2666.910400	10.426797
457.255096	1303.873413	14110.504883	2819.370361	11.833689
457.611969	1215.128052	13864.748047	2826.196777	12.736104
457.968781	1215.128052	13905.708008	2876.258301	13.089475
458.325531	1199.199463	14112.780273	2983.207764	13.814978
458.682312	1246.985352	15052.570313	3076.504150	13.252020
459.039001	1276.567139	15748.879883	3165.249512	13.050315
459.395630	1237.883301	16463.392578	3456.516113	14.571813
459.752289	1260.638550	17605.705078	3608.976074	14.367255
460.108856	1285.669312	18859.515625	3918.446777	14.981225
460.465363	1249.260864	19401.089844	4052.702637	15.444406
460.821899	1262.914063	19448.876953	4116.416992	15.690689
461.178345	1231.056763	19037.007813	4205.162598	16.702875
461.534760	1246.985352	18900.476563	4141.447754	16.395977
461.891144	1287.944824	17892.419922	4141.447754	17.185144
462.247467	1285.669312	17127.845703	4161.927734	18.155701
462.603760	1283.393677	16927.599609	4082.284424	17.890909
462.960052	1353.934937	16128.891602	4116.416992	18.697056
463.316254	1267.465088	15466.714844	4095.937500	19.919872
463.672424	1315.250977	15339.286133	4070.906738	19.649521
464.028564	1272.016113	15002.508789	4164.203125	21.063972
464.384644	1226.505737	14688.486328	4130.070313	21.568628
464.740723	1322.077637	15127.662109	4227.917480	21.048294
465.096741	1274.291626	14777.232422	4337.142578	22.682846
465.452698	1283.393677	14438.179688	4303.009766	22.954506
465.808655	1180.995239	14754.476563	4378.102051	23.554068
466.164520	1301.597900	14836.395508	4460.020996	23.335577
466.520355	1356.210449	15475.817383	4639.787109	23.255438
466.876190	1287.944824	15691.991211	4648.889160	23.333334
467.231964	1233.332275	15487.194336	4890.094238	25.654533
467.587677	1231.056763	16151.646484	5078.962402	25.789234
467.943390	1290.220337	16240.391602	5060.758301	25.220703
468.299011	1306.148926	15696.542969	5038.002930	25.932951
468.654633	1249.260864	15305.153320	5067.584961	27.165291
469.010223	1278.842651	15448.510742	5197.289551	27.653765
469.365723	1244.709839	14993.406250	5126.748535	28.235685
469.721191	1235.607788	15309.704102	5210.942871	28.245756
470.076660	1299.322388	14831.844727	4976.563965	27.173365
470.432068	1301.597900	14886.457031	5156.330078	28.375208
470.787445	1322.077637	14642.976563	5154.054688	28.766657
471.142792	1278.842651	14656.629883	5106.268555	28.610306
471.498016	1256.087524	15052.570313	5388.433105	29.952169
471.853271	1237.883301	15027.539063	5286.034668	29.356434
472.208496	1283.393677	14790.884766	5522.688965	31.384773
472.563660	1281.118164	15268.744141	5497.658203	30.144787
472.918762	1328.904175	15300.601563	5661.495605	31.009771
473.273865	1301.597900	15560.011719	5613.709961	30.242580
473.628876	1319.802124	16040.146484	5943.660156	31.411343
473.983917	1340.281738	15919.543945	5970.966797	31.762136
474.338837	1262.914063	16169.850586	5932.282715	31.323462
474.693787	1324.353149	15935.472656	6098.395508	32.674038
475.048645	1322.077637	16106.136719	6061.987305	32.060951
475.403503	1299.322388	16192.606445	6164.385742	32.666157
475.758270	1228.781250	16310.933594	6121.150879	32.438141
476.113037	1315.250977	16115.238281	6173.487793	32.825954
476.467773	1260.638550	16545.312500	6467.030273	34.062824
476.822418	1283.393677	17400.908203	6719.612793	33.728645
477.177063	1376.690063	16936.701172	6633.143066	33.781811
477.531647	1310.699951	17639.837891	6922.134277	34.364548
477.886200	1258.363037	18115.421875	6938.062988	33.693306
478.240723	1292.495850	18581.902344	7222.502930	34.298500
478.595184	1292.495850	18836.761719	7327.176758	34.396885
478.949585	1265.189575	18834.486328	7440.953125	35.150887
479.303986	1285.669312	19052.935547	7550.178223	35.258709
479.658325	1226.505737	19075.691406	7714.015625	36.346252
480.012634	1274.291626	19164.435547	7691.260254	35.868736
480.366913	1267.465088	19801.582031	7977.976074	36.206261
480.721130	1292.495850	20309.023438	8048.517090	35.527103
481.075317	1281.118164	20577.535156	8449.008789	37.146225
481.429474	1201.474976	21674.335938	8803.990234	37.134602
481.783569	1274.291626	22630.054688	9195.379883	37.091103
482.137604	1265.189575	23783.744141	9878.036133	38.247776
482.491669	1240.158813	26095.671875	10462.844727	37.105190
482.845612	1294.771362	28352.988281	11557.370117	37.927845
483.199554	1342.557251	31784.474609	13054.663086	38.473614
483.553436	1312.975464	37136.500000	14963.825195	38.105827
483.907318	1310.699951	43430.589844	17516.958984	38.476498
484.261139	1297.046875	49599.527344	20195.248047	39.124702
484.614899	1262.914063	53445.156250	22229.562500	40.179661
484.968628	1297.046875	53638.578125	22397.951172	40.313885
485.322357	1228.781250	51253.832031	21175.996094	39.874451
485.675964	1338.006226	47840.550781	20045.062500	40.228031
486.029572	1265.189575	43598.980469	18249.677734	40.120407
486.383148	1274.291626	40517.921875	16741.005859	39.412037
486.736694	1292.495850	38324.320313	16001.461914	39.719799
487.090149	1317.526489	38149.105469	16060.625977	40.028423
487.443604	1235.607788	39025.183594	16283.626953	39.820560
487.796997	1283.393677	40593.015625	17446.417969	41.117222
488.150360	1228.781250	41824.074219	17940.205078	41.165916
488.503693	1281.118164	42527.207031	18215.544922	41.057045
488.856964	1253.812012	42363.371094	18115.421875	41.016273
489.210175	1262.914063	40078.746094	17152.875000	40.936802
489.563416	1285.669312	37564.296875	16470.218750	41.855358
489.916565	1233.332275	35600.523438	15468.990234	41.422234
490.269653	1303.873413	33422.847656	14358.536133	40.644707
490.622772	1283.393677	32555.876953	14055.891602	40.842609
490.975769	1312.975464	31993.822266	13892.054688	40.999779
491.328735	1308.424438	33224.878906	14536.027344	41.444462
491.681732	1285.669312	35063.500000	15382.520508	41.734032
492.034607	1385.792114	37218.417969	16324.585938	41.690483
492.387482	1276.567139	38679.300781	16820.650391	41.558681
492.740326	1265.189575	37445.968750	16784.242188	42.893089
493.093079	1221.954712	36148.921875	15801.216797	41.742134
493.445862	1206.026001	33188.472656	14495.067383	41.551044
493.798523	1244.709839	30598.927734	13641.747070	42.232555
494.151215	1231.056763	28186.876953	12681.477539	42.478474
494.503815	1308.424438	26232.203125	11837.258789	42.244129
494.856384	1224.230225	24721.257813	11284.307617	42.814255
495.208923	1158.240112	23590.324219	10813.274414	43.041183
495.561432	1274.291626	22887.187500	10269.425781	41.619289
495.913879	1244.709839	22680.115234	10378.650391	42.611465
496.266296	1342.557251	22429.808594	10508.355469	43.466061
496.618683	1278.842651	22650.533203	10401.405273	42.685261
496.970978	1265.189575	23260.373047	10653.988281	42.685703
497.323273	1265.189575	23301.332031	10788.244141	43.215614
497.675507	1251.536499	23330.914063	10970.286133	44.017319
498.027710	1256.087524	23674.517578	10965.734375	43.311001
498.379852	1292.495850	23333.189453	10892.917969	43.557713
498.731995	1240.158813	23016.892578	10713.152344	43.500523
499.084076	1233.332275	22625.503906	10496.977539	43.303905
499.436096	1328.904175	22416.156250	10399.129883	43.012836
499.788086	1265.189575	21931.468750	10310.384766	43.767895
500.140106	1281.118164	21419.476563	10189.782227	44.237289
500.491943	1265.189575	21059.945313	9978.159180	44.016556
500.843842	1246.985352	20868.800781	9857.555664	43.882637
501.195679	1287.944824	20522.921875	9682.340820	43.641315
501.547455	1237.883301	20181.593750	9643.657227	44.372368
501.899231	1158.240112	20088.296875	9507.125977	44.103859
502.250885	1297.046875	19680.978516	9265.920898	43.346951
502.602600	1278.842651	19781.101563	9536.708008	44.631657
502.954193	1351.659302	19635.468750	9229.512695	43.086502
503.305786	1356.210449	19824.337891	9513.952148	44.172005
503.657379	1262.914063	19576.304688	9511.676758	45.042248
504.008820	1292.495850	19819.787109	9249.992188	42.950134
504.360291	1322.077637	19933.562500	9661.861328	44.809875
504.711700	1326.628662	20202.074219	9541.258789	43.520191
505.063080	1267.465088	20202.074219	9443.411133	43.179905
505.414368	1235.607788	19915.357422	9593.595703	44.743576
505.765656	1319.802124	19906.255859	9511.676758	44.074436
506.116943	1340.281738	19910.806641	9463.890625	43.744637
506.468109	1267.465088	19626.367188	9504.850586	44.868618
506.819305	1281.118164	19701.458984	9507.125977	44.657200
507.170410	1319.802124	19708.285156	9434.309570	44.128204
507.521484	1301.597900	19740.142578	9532.156250	44.637787
507.872559	1235.607788	19828.888672	9509.401367	44.498837
508.223480	1312.975464	19890.328125	9639.106445	44.818714
508.574493	1246.985352	20117.878906	9602.698242	44.278309
508.925385	1290.220337	20229.380859	9757.433594	44.707436
509.276245	1278.842651	20370.462891	9953.127930	45.435036
509.627045	1326.628662	20755.025391	10153.374023	45.432186
509.977814	1356.210449	21071.322266	10046.424805	44.078953
510.328613	1244.709839	21276.119141	10248.945313	44.950581
510.679260	1274.291626	21203.302734	10273.976563	45.158710
511.029999	1276.567139	21619.722656	10710.875977	46.375835
511.380585	1319.802124	21551.457031	10451.466797	45.135532
511.731140	1290.220337	21674.335938	10481.048828	45.088188
512.081726	1246.985352	21806.316406	10490.151367	44.958492
512.432129	1265.189575	22329.685547	10690.396484	44.744518
512.782654	1276.567139	22354.716797	10688.121094	44.650757
513.133057	1196.923950	22693.769531	10883.816406	45.061924
513.483398	1292.495850	22554.962891	10685.845703	44.178082
513.833801	1290.220337	22766.585938	10706.325195	43.844032
514.183960	1221.954712	21949.673828	10506.079102	44.790863
514.534302	1221.954712	22077.103516	10487.875000	44.429893
514.884460	1260.638550	21917.816406	10601.651367	45.219212
515.234619	1276.567139	22036.142578	10572.069336	44.776936
515.584717	1244.709839	21546.906250	10524.284180	45.707241
515.934753	1272.016113	21924.642578	10658.539063	45.449539
516.284851	1283.393677	21936.021484	10631.233398	45.262230
516.634766	1351.659302	22265.970703	10471.946289	43.607880
516.984741	1260.638550	22325.134766	10840.581055	45.479095
517.334595	1242.434326	23080.607422	11020.347656	44.774406
517.684448	1317.526489	24104.591797	11520.961914	44.777313
518.034363	1269.740601	24448.195313	11964.688477	46.141766
518.384094	1244.709839	25312.892578	12310.567383	45.977119
518.733826	1217.403687	26919.410156	12622.313477	44.373619
519.083496	1246.985352	27442.781250	12888.549805	44.440582
519.433167	1281.118164	27818.242188	13243.531250	45.078030
519.782776	1306.148926	27638.476563	13116.101563	44.849636
520.132324	1331.179688	27369.964844	13111.550781	45.241631
520.481873	1251.536499	26696.410156	12854.416992	45.600075
520.831299	1285.669312	25836.263672	12494.884766	45.657616
521.180786	1292.495850	25551.822266	12110.321289	44.592438
521.530151	1249.260864	24982.943359	11871.391602	44.755512
521.879517	1260.638550	24830.482422	11782.646484	44.641823
522.228882	1333.455200	24853.238281	11864.565430	44.775543
522.578064	1276.567139	24018.121094	11548.268555	45.167103
522.927307	1297.046875	24514.185547	11939.657227	45.839458
523.276489	1256.087524	24109.142578	11571.023438	45.135918
523.625610	1303.873413	24650.716797	11609.707031	44.142300
523.974792	1240.158813	25053.484375	11871.391602	44.644047
524.323792	1215.128052	25426.669922	12169.485352	45.244362
524.672852	1237.883301	25956.865234	12524.466797	45.659580
525.021790	1285.669312	26791.982422	12852.141602	45.347492
525.370728	1258.363037	27806.863281	13327.725586	45.461559
525.719604	1260.638550	29531.708984	13766.900391	44.236958
526.068420	1256.087524	30712.705078	14572.435547	45.206642
526.417297	1312.975464	32453.478516	15257.367188	44.778954
526.765991	1272.016113	32951.816406	15926.370117	46.257721
527.114746	1285.669312	34346.710938	15990.084961	44.476563
527.463379	1253.812012	35170.449219	16852.507813	45.991280
527.812012	1244.709839	37238.898438	17512.408203	45.195347
528.160706	1340.281738	40194.800781	19162.160156	45.868225
528.509155	1240.158813	44561.523438	21137.312500	45.929195
528.857727	1231.056763	49645.039063	23590.324219	46.183495
529.206177	1233.332275	53058.320313	25262.832031	46.366631
529.554565	1265.189575	53385.992188	25722.486328	46.924255
529.902893	1285.669312	52464.406250	25210.494141	46.747585
530.251221	1269.740601	50284.457031	23879.314453	46.128136
530.599548	1267.465088	45756.171875	21485.466797	45.445244
530.947876	1267.465088	42800.269531	19824.337891	44.680038
531.296021	1328.904175	39412.019531	18174.583984	44.233982
531.644165	1274.291626	36806.550781	17300.785156	45.104065
531.992249	1358.485962	35138.593750	16310.933594	44.264057
532.340454	1290.220337	33980.351563	16019.666016	45.057774
532.688354	1231.056763	34019.035156	15814.869141	44.479149
533.036438	1290.220337	34681.210938	16224.462891	44.725361
533.384338	1372.139038	36720.078125	17205.212891	44.792072
533.732239	1303.873413	38954.640625	18094.941406	44.596886
534.080139	1308.424438	39666.878906	18352.076172	44.432587
534.427917	1246.985352	39277.765625	18399.861328	45.102612
534.775757	1292.495850	37582.500000	17637.562500	45.040134
535.123474	1294.771362	35686.992188	16695.496094	44.779671
535.471191	1253.812012	33914.363281	15705.644531	44.248585
535.818848	1233.332275	32448.925781	15129.937500	44.518150
536.166382	1267.465088	31852.740234	14633.874023	43.702106
536.513977	1294.771362	31500.035156	14738.547852	44.508057
536.861511	1258.363037	31695.728516	14879.630859	44.751797
537.208984	1347.108276	31741.240234	14931.967773	44.695663
537.556396	1317.526489	31659.320313	14722.619141	44.180294
537.903809	1251.536499	31079.062500	14627.047852	44.842846
538.251160	1276.567139	30391.855469	14222.004883	44.462681
538.598389	1203.750488	29081.156250	13714.563477	44.877964
538.945740	1276.567139	28202.804688	13161.612305	44.139271
539.292969	1246.985352	28007.109375	13013.703125	43.971088
539.640137	1228.781250	27071.871094	12890.825195	45.126354
539.987244	1317.526489	27693.087891	13031.907227	44.413769
540.334351	1276.567139	28002.558594	13141.132813	44.393356
540.681458	1221.954712	29579.494141	13810.135742	44.390949
541.028442	1246.985352	32319.222656	15298.326172	45.221527
541.375366	1242.434326	35366.144531	16631.781250	45.098690
541.722290	1292.495850	38442.648438	17901.521484	44.707825
542.069153	1256.087524	40012.757813	19162.160156	46.201263
542.416016	1269.740601	40902.488281	19289.589844	45.467072
542.762756	1246.985352	39366.511719	18586.453125	45.487103
543.109558	1317.526489	38388.035156	18210.992188	45.571171
543.456299	1260.638550	36763.312500	17139.222656	44.725033
543.802917	1324.353149	35411.656250	16415.607422	44.272358
544.149536	1240.158813	33677.707031	16092.483398	45.787441
544.496094	1342.557251	31429.494141	14661.180664	44.267128
544.842651	1253.812012	30141.548828	14249.311523	44.986217
545.189148	1276.567139	28560.062500	13425.572266	44.528770
545.535583	1276.567139	27556.556641	13284.490234	45.692265
545.882019	1269.740601	26487.062500	12672.375000	45.217468
546.228333	1294.771362	26425.623047	12533.568359	44.721115
546.574707	1294.771362	26177.591797	12385.660156	44.572475
546.920898	1338.006226	26382.388672	12654.170898	45.184444
547.267212	1303.873413	26047.886719	12722.436523	46.146770
547.613342	1253.812012	26214.000000	12590.457031	45.418907
547.959473	1301.597900	26022.855469	12424.343750	44.992638
548.305664	1219.679199	25428.945313	12240.026367	45.521198
548.651611	1283.393677	24718.982422	11514.135742	43.654728
548.997742	1260.638550	23355.945313	10872.438477	43.501545
549.343689	1196.923950	22602.748047	10399.129883	42.989262
549.689575	1224.230225	21342.109375	10180.679688	44.519848
550.035522	1276.567139	20993.955078	9873.484375	43.600689
550.381287	1317.526489	20145.185547	9452.513672	43.207642
550.727173	1328.904175	19917.632813	9445.686523	43.665073
551.072876	1262.914063	19157.609375	9179.451172	44.239574
551.418640	1283.393677	19419.294922	9115.736328	43.186954
551.764282	1283.393677	19257.732422	9008.787109	42.980129
552.109863	1281.118164	18818.556641	8961.000977	43.791363
552.455505	1283.393677	19194.017578	8924.592773	42.662945
552.801025	1256.087524	19549.000000	9029.266602	42.492847
553.146545	1324.353149	19667.326172	9006.511719	41.880665
553.491943	1342.557251	20133.808594	8910.939453	40.276093
553.837341	1272.016113	19744.693359	9188.552734	42.855381
554.182800	1322.077637	19913.082031	9234.063477	42.558144
554.528015	1206.026001	19574.029297	9081.603516	42.876610
554.873352	1326.628662	19121.201172	8867.704102	42.378513
555.218628	1278.842651	18859.515625	8947.347656	43.618946
555.563721	1267.465088	18597.832031	8421.702148	41.281509
555.908875	1269.740601	18315.666016	8483.141602	42.317448
556.254028	1235.607788	18233.748047	8410.325195	42.208836
556.599121	1333.455200	17776.369141	8223.732422	41.904236
556.944031	1256.087524	17728.582031	8112.231445	41.621773
557.289063	1265.189575	17569.296875	7823.240723	40.223309
557.633972	1260.638550	17664.867188	7939.291992	40.712997
557.978882	1258.363037	17546.541016	7861.924316	40.542053
558.323792	1260.638550	17316.712891	7811.862793	40.802155
558.668518	1281.118164	16982.210938	7686.709473	40.797104
559.013306	1301.597900	17100.539063	7839.168945	41.379807
559.358032	1287.944824	17052.751953	7807.312012	41.353931
559.702637	1233.332275	17125.570313	7634.372070	40.277775
560.047363	1258.363037	17114.191406	7836.893555	41.489666
560.391846	1338.006226	17177.906250	7609.341797	39.592014
560.736450	1299.322388	17155.150391	7666.229492	40.154995
561.080933	1278.842651	17202.937500	7830.066895	41.140324
561.425354	1210.577026	17107.365234	7948.394043	42.384769
561.769775	1212.852539	17161.978516	7884.679688	41.831928
562.114136	1253.812012	17239.345703	7893.781738	41.537369
562.458496	1363.036987	17535.164063	7607.065918	38.609818
562.802673	1274.291626	17339.468750	7741.321777	40.254959
563.146912	1269.740601	17141.498047	7629.821289	40.071682
563.491150	1292.495850	17173.355469	7570.657715	39.532887
563.835266	1326.628662	16741.005859	7775.454590	41.836437
564.179443	1367.588013	16809.271484	7429.575195	39.257294
564.523438	1306.148926	17000.416016	7668.504883	40.539364
564.867493	1303.873413	17266.652344	7484.187988	38.717033
565.211426	1269.740601	17309.886719	7857.373535	41.069656
565.555359	1312.975464	17623.908203	7732.219727	39.355469
565.899231	1240.158813	17730.857422	7907.434570	40.430523
566.243042	1242.434326	18254.228516	7832.342773	38.737289
566.586914	1303.873413	18852.689453	8068.996582	38.550308
566.930603	1315.250977	18832.210938	8182.772949	39.204987
567.274292	1276.567139	18980.119141	8403.498047	40.257065
567.617981	1351.659302	19080.242188	8244.211914	38.878197
567.961609	1338.006226	18734.363281	8059.894531	38.639629
568.305237	1267.465088	18622.861328	8032.588379	38.979939
568.648682	1274.291626	18172.308594	7868.750977	39.025047
568.992188	1267.465088	18083.564453	7729.944336	38.430313
569.335632	1233.332275	18053.982422	7684.433594	38.352272
569.679016	1246.985352	17801.398438	7723.117676	39.120274
570.022461	1224.230225	17626.183594	7495.565430	38.235294
570.365662	1233.332275	17878.767578	7459.157227	37.402596
570.708984	1272.016113	17733.132813	7520.596191	37.959637
571.052185	1272.016113	17903.796875	7516.045410	37.542759
571.395386	1246.985352	18067.634766	7684.433594	38.271107
571.738525	1290.220337	18654.718750	7668.504883	36.731754
572.081604	1287.944824	18679.750000	7864.199707	37.812378
572.424683	1328.904175	18966.466797	8000.730957	37.827374
572.767578	1312.975464	19444.326172	7927.914551	36.483429
573.110596	1292.495850	19298.691406	8068.996582	37.634274
573.453552	1319.802124	19221.324219	8016.659668	37.409431
573.796387	1347.108276	19357.855469	8039.415039	37.157295
574.139282	1228.781250	18779.873047	7782.281250	37.339558
574.481995	1244.709839	18443.095703	7868.750977	38.515480
574.824768	1292.495850	18602.382813	7741.321777	37.255161
575.167480	1281.118164	18748.015625	7645.750000	36.438248
575.510132	1287.944824	18085.839844	7616.167969	37.672718
575.852722	1301.597900	18481.779297	7752.699219	37.549671
576.195251	1224.230225	18236.023438	7509.218750	36.944889
576.537842	1224.230225	18060.808594	7422.749023	36.815784
576.880188	1258.363037	17712.654297	7231.604980	36.302032
577.222717	1249.260864	17425.937500	7338.554688	37.642429
577.565063	1231.056763	17052.751953	7070.042969	36.904934
577.907410	1269.740601	17007.242188	6874.348145	35.613068
578.249756	1240.158813	16558.964844	6678.653320	35.502079
578.591919	1221.954712	16053.798828	6585.357422	36.161404
578.934204	1292.495850	15687.440430	6489.785156	36.104961
579.276306	1281.118164	15473.541016	6469.305664	36.556038
579.618469	1217.403687	15177.723633	6180.314453	35.550121
579.960571	1262.914063	15159.519531	6100.671387	34.812511
580.302551	1251.536499	14674.833984	6121.150879	36.277332
580.644531	1283.393677	14836.395508	6257.682129	36.702484
580.986511	1326.628662	14672.558594	5747.965332	33.128731
581.328369	1367.588013	14799.987305	5980.068848	34.338474
581.670227	1246.985352	14313.025391	5959.588867	36.067574
582.012024	1258.363037	14324.403320	5818.506836	34.900730
582.353821	1297.046875	14099.126953	5743.414551	34.731602
582.695496	1203.750488	14194.699219	5827.608887	35.592922
583.037231	1303.873413	14014.932617	5543.168457	33.351231
583.378845	1240.158813	13926.187500	5675.148926	34.959644
583.720398	1287.944824	13919.360352	5677.424316	34.750496
584.062012	1306.148926	13719.115234	5579.577148	34.427132
584.403442	1322.077637	13946.666992	5534.066406	33.363373
584.744934	1269.740601	13580.308594	5495.382813	34.325321
585.086365	1290.220337	13741.870117	5481.729492	33.662281
585.427734	1235.607788	13901.156250	5465.800781	33.399208
585.768982	1274.291626	13628.093750	5361.126953	33.081600
586.110291	1319.802124	13675.879883	5415.739746	33.149170
586.451599	1274.291626	13512.042969	5311.065430	32.986240
586.792725	1312.975464	13557.552734	5388.433105	33.283775
587.133850	1331.179688	13591.685547	5406.637207	33.240532
587.474915	1312.975464	13589.410156	5424.841797	33.493977
587.815979	1267.465088	13593.960938	5226.871094	32.121098
588.157043	1242.434326	13532.522461	5292.861328	32.956860
588.497925	1249.260864	13691.808594	5213.218262	31.858086
588.838867	1265.189575	13744.145508	5213.218262	31.637493
589.179749	1287.944824	14083.198242	5290.585938	31.282232
589.520569	1183.270874	14049.065430	5222.320313	31.393702
589.861450	1258.363037	14272.066406	5263.279785	30.774612
590.202087	1297.046875	13933.013672	5392.984375	32.414913
590.542847	1269.740601	14087.749023	5274.657227	31.244452
590.883484	1349.383789	14287.995117	5427.117188	31.516005
591.224121	1292.495850	13878.401367	5217.769043	31.187849
591.564636	1224.230225	14171.943359	5224.595703	30.896309
591.905151	1269.740601	13914.809570	5197.289551	31.059923
592.245667	1196.923950	13973.973633	5181.360840	31.184328
592.585999	1249.260864	13746.420898	5106.268555	30.863073
592.926453	1278.842651	13364.133789	5108.544434	31.688948
593.266724	1306.148926	13553.001953	5163.156738	31.493868
593.607056	1342.557251	13678.155273	5140.401367	30.787680
593.947388	1269.740601	13568.930664	5019.798828	30.490284
594.287476	1317.526489	13912.534180	5081.237793	29.882565
594.627686	1333.455200	14103.677734	5131.299316	29.739843
594.967773	1256.087524	13944.391602	5042.554199	29.842182
595.307861	1274.291626	14044.514648	5012.972168	29.276550
595.647888	1276.567139	14394.944336	5103.993164	29.176064
595.987854	1272.016113	14572.435547	5017.523438	28.160820
596.327820	1176.444214	14799.987305	5217.769043	29.664270
596.667725	1278.842651	14997.958008	5242.799805	28.893679
597.007568	1231.056763	15792.114258	5249.626465	27.598063
597.347351	1294.771362	16092.483398	5447.596680	28.063969
597.687073	1269.740601	16342.790039	5463.525391	27.823067
598.026794	1294.771362	16269.973633	5493.107422	28.035254
598.366455	1315.250977	16087.931641	5374.780273	27.479977
598.706116	1283.393677	15626.000977	5215.493652	27.415518
599.045654	1256.087524	15179.999023	5056.207031	27.292042
599.385193	1256.087524	14576.986328	4940.155762	27.656305
599.724731	1333.455200	14046.790039	4869.614746	27.814571
600.064087	1287.944824	13860.197266	4769.491699	27.692308
600.403564	1322.077637	13461.981445	4680.746094	27.666351
600.742920	1303.873413	13245.806641	4491.877930	26.695881
601.082153	1276.567139	13172.990234	4605.654297	27.983934
601.421387	1260.638550	13286.765625	4314.387207	25.392618
601.760620	1322.077637	13061.489258	4334.867188	25.663887
602.099854	1283.393677	13043.285156	4571.521484	27.960529
602.438843	1290.220337	13036.458984	4425.888184	26.695082
602.778015	1269.740601	13275.388672	4428.163574	26.307808
603.117065	1328.904175	13568.930664	4601.103027	26.733593
603.456055	1272.016113	14064.994141	4712.603516	26.894342
603.794983	1260.638550	14319.852539	4728.532227	26.555147
604.133850	1278.842651	14745.375000	4728.532227	25.616762
604.472778	1249.260864	15371.142578	4899.196289	25.845957
604.811584	1278.842651	15694.266602	4908.298340	25.177586
605.150330	1249.260864	16167.575195	5126.748535	25.991461
605.489075	1285.669312	16445.189453	5245.075684	26.118282
605.827698	1306.148926	16374.647461	5078.962402	25.037754
606.166382	1269.740601	16128.891602	5042.554199	25.390505
606.504883	1178.719727	15705.644531	4926.502441	25.798872
606.843445	1272.016113	15182.274414	4701.226074	24.652382
607.181946	1310.699951	14708.966797	4587.449707	24.456520
607.520386	1249.260864	14324.403320	4617.031738	25.757050
607.858826	1299.322388	13967.146484	4409.959473	24.555418
608.197083	1240.158813	13505.215820	4398.581543	25.751392
608.535461	1246.985352	13282.214844	4423.612305	26.394403
608.873718	1285.669312	13500.665039	4268.876953	24.422501
609.211914	1281.118164	13744.145508	4316.663086	24.356401
609.550171	1356.210449	14231.107422	4330.315918	23.100035
609.888245	1301.597900	14367.638672	4512.357910	24.573320
610.226318	1349.383789	14570.160156	4564.694824	24.320137
610.564392	1312.975464	14793.161133	4500.979980	23.649559
610.902344	1303.873413	14715.792969	4416.785645	23.210041
611.240295	1297.046875	14504.169922	4432.714355	23.742245
611.578247	1253.812012	14385.842773	4373.550781	23.756712
611.916138	1285.669312	13989.902344	4332.591797	23.983521
612.253845	1317.526489	13671.329102	4125.519043	22.729784
612.591675	1269.740601	13496.114258	4148.274414	23.543642
612.929382	1290.220337	13038.734375	4020.845215	23.242302
613.267090	1328.904175	12674.650391	3991.263428	23.465706
613.604736	1215.128052	12387.935547	3818.323975	23.299389
613.942261	1328.904175	12328.771484	3850.181152	22.920975
614.279785	1322.077637	12162.658203	3861.558838	23.425695
614.617310	1301.597900	11939.657227	3843.354736	23.893049
614.954712	1281.118164	11914.626953	3624.904541	22.041515
615.292175	1251.536499	11828.157227	3754.609375	23.666090
615.629517	1233.332275	11627.911133	3711.374512	23.839756
615.966797	1256.087524	11762.166992	3699.996826	23.261858
616.304138	1235.607788	11734.860352	3533.883789	21.889898
616.641296	1328.904175	11768.993164	3677.241699	22.493462
616.978516	1308.424438	11507.308594	3847.905762	24.899601
617.315552	1285.669312	11623.360352	3618.078125	22.562181
617.652771	1322.077637	11470.900391	3747.782715	23.901346
617.989685	1269.740601	11480.002930	3718.200928	23.980387
618.326721	1262.914063	11864.565430	3725.027588	23.223867
618.663696	1276.567139	11555.094727	3570.292236	22.315699
619.000549	1256.087524	11703.003906	3681.792725	23.219341
619.337463	1276.567139	11586.952148	3672.690674	23.239904
619.674194	1347.108276	11345.747070	3595.322754	22.485205
620.010986	1331.179688	11539.166016	3615.802490	22.380739
620.347778	1265.189575	11566.472656	3572.567627	22.398937
620.684387	1285.669312	11318.440430	3622.629150	23.293264
621.020996	1297.046875	11502.757813	3618.078125	22.742476
621.357605	1283.393677	11382.155273	3663.588379	23.569176
621.694214	1285.669312	11252.450195	3502.026611	22.237444
622.030579	1285.669312	11206.940430	3627.180176	23.600914
622.367065	1249.260864	11179.633789	3556.638916	23.235561
622.703430	1265.189575	11275.206055	3442.863037	21.754942
623.039795	1253.812012	11120.469727	3481.546875	22.578413
623.376160	1228.781250	11068.132813	3608.976074	24.190565
623.712402	1287.944824	10945.254883	3417.832275	22.054665
624.048645	1246.985352	11079.510742	3322.260254	21.106224
624.384766	1290.220337	10988.490234	3458.791504	22.360394
624.720886	1240.158813	11056.755859	3568.016602	23.713493
625.057007	1253.812012	11084.061523	3568.016602	23.541666
625.392944	1340.281738	11059.031250	3360.944336	20.791384
625.729004	1221.954712	11165.980469	3497.475586	22.883299
626.064941	1260.638550	11313.889648	3558.914551	22.861021
626.400818	1322.077637	11366.226563	3531.608398	21.998190
626.736633	1315.250977	11812.228516	3586.220703	21.634510
627.072449	1224.230225	11912.351563	3684.068115	23.014690
627.408264	1251.536499	12406.139648	3634.006836	21.358627
627.743896	1237.883301	12028.403320	3734.129639	23.133699
628.079590	1251.536499	12094.392578	3772.813477	23.252884
628.415161	1287.944824	11998.821289	3709.098877	22.604630
628.750793	1278.842651	11932.831055	3649.935303	22.255447
629.086365	1174.168701	11803.125977	3684.068115	23.613789
629.421753	1185.546387	11414.012695	3627.180176	23.870966
629.757263	1299.322388	11373.052734	3593.047363	22.769371
630.092651	1317.526489	10983.938477	3413.281250	21.680794
630.427917	1260.638550	11065.857422	3458.791504	22.418192
630.763184	1287.944824	10920.224609	3461.067139	22.560831
631.098511	1292.495850	10863.335938	3372.321777	21.730862
631.433716	1278.842651	10640.334961	3486.097900	23.578030
631.768799	1310.699951	10367.272461	3360.944336	22.638193
632.103943	1287.944824	10258.047852	3297.229736	22.399796
632.438965	1274.291626	10201.160156	3279.025391	22.457302
632.773987	1228.781250	10337.691406	3333.637939	23.107668
633.109070	1317.526489	10319.487305	3251.719238	21.486349
633.443848	1235.607788	10237.568359	3260.821289	22.497471
633.778870	1299.322388	10098.761719	3263.096924	22.317041
634.113708	1290.220337	10301.282227	3383.699463	23.232325
634.448425	1262.914063	10417.333984	3308.607178	22.346508
634.783264	1237.883301	10522.007813	3313.158203	22.352940
635.117859	1269.740601	10276.251953	3213.035400	21.576553
635.452576	1290.220337	10456.018555	3235.790527	21.226414
635.787170	1242.434326	10242.119141	3310.882813	22.983566
636.121704	1240.158813	9821.147461	3242.617188	23.335987
636.456177	1290.220337	10057.801758	3203.933350	21.827148
636.790588	1285.669312	9755.157227	3326.811523	24.099947
637.125122	1265.189575	9673.239258	3119.739014	22.056831
637.459412	1310.699951	9791.566406	3142.494141	21.599140
637.793762	1190.097412	9516.227539	3074.228516	22.629135
638.128052	1240.158813	9306.879883	3056.024414	22.510578
638.462280	1303.873413	9368.319336	3026.442627	21.360044
638.796509	1251.536499	9466.166992	2980.932129	21.052628
639.130615	1292.495850	8915.490234	3044.646729	22.985075
639.464722	1324.353149	9236.338867	3021.891602	21.455276
639.798767	1285.669312	9154.419922	3069.677490	22.672064
640.132751	1281.118164	8872.255859	3083.330566	23.741005
640.466736	1262.914063	9140.766602	3060.575439	22.819180
640.800598	1246.985352	9106.633789	3024.167236	22.611467
641.134521	1285.669312	8961.000977	2830.747803	20.130445
641.468262	1326.628662	8883.632813	2908.115479	20.927431
641.802063	1340.281738	8833.571289	2878.533936	20.528397
642.135803	1237.883301	8678.835938	2912.666504	22.507645
642.469421	1262.914063	8749.377930	2955.901611	22.613981
642.803101	1276.567139	8606.019531	2880.809326	21.887613
643.136658	1260.638550	8722.071289	2871.707275	21.591949
643.470215	1246.985352	8526.375977	2976.381104	23.757425
643.803711	1278.842651	8449.008789	2823.921387	21.548716
644.137085	1217.403687	8464.937500	2855.778564	22.605965
644.470581	1310.699951	8410.325195	2885.360352	22.179487
644.803833	1292.495850	8408.049805	2903.564453	22.641508
645.137207	1228.781250	8385.293945	2844.401123	22.575520
645.470459	1233.332275	8371.640625	2855.778564	22.728722
645.803589	1253.812012	8367.089844	2833.023438	22.200895
646.136780	1256.087524	8487.692383	2787.512939	21.176840
646.469849	1256.087524	8455.834961	2730.625000	20.480406
646.802979	1290.220337	8392.121094	2867.156250	22.204420
647.135986	1190.097412	8553.682617	2873.982666	22.867737
647.468994	1226.505737	8371.640625	2817.094727	22.261148
647.801941	1251.536499	8489.967773	2769.308838	20.968250
648.134766	1203.750488	8362.539063	2819.370361	22.568342
648.467651	1292.495850	8492.243164	2971.830078	23.324905
648.800354	1253.812012	8453.559570	2817.094727	21.713020
649.133179	1265.189575	8514.999023	2780.686523	20.903955
649.465881	1274.291626	8455.834961	2805.717041	21.324461
649.798462	1292.495850	8533.203125	2905.840088	22.281584
650.131104	1256.087524	8451.284180	2860.329590	22.296013
650.463623	1351.659302	8410.325195	2785.237549	20.309479
650.796143	1297.046875	8314.752930	2844.401123	22.049288
651.128662	1278.842651	8360.263672	2894.462402	22.814909
651.461060	1306.148926	8389.844727	2842.125488	21.683266
651.793396	1310.699951	8483.141602	2858.054199	21.573606
652.125732	1269.740601	8355.711914	2930.870850	23.442520
652.458008	1306.148926	8596.917969	2914.942139	22.066166
652.790222	1310.699951	8521.825195	2928.595215	22.436100
653.122437	1326.628662	8387.569336	2942.248291	22.881083
653.454529	1326.628662	8337.507813	2828.472412	21.421619
653.786621	1276.567139	8587.815430	2933.146240	22.657953
654.118713	1244.709839	8398.947266	2844.401123	22.360054
654.450623	1253.812012	8269.242188	2803.441650	22.088875
654.782654	1253.812012	8173.670898	2810.268311	22.492601
655.114502	1242.434326	8182.772949	2789.788574	22.295082
655.446350	1262.914063	8046.241699	2807.992676	22.777592
655.778198	1287.944824	8037.139648	2864.880615	23.364799
656.109863	1276.567139	8030.312988	2899.013428	24.022909
656.441650	1249.260864	8037.139648	2764.757813	22.326517
656.773254	1358.485962	8107.680664	2780.686523	21.072151
657.104919	1276.567139	8203.252930	2757.931152	21.386333
657.436462	1283.393677	8037.139648	2853.503174	23.247980
657.767944	1265.189575	8082.649902	2823.921387	22.863819
658.099548	1303.873413	8182.772949	2760.206787	21.171022
658.430908	1256.087524	8285.170898	2858.054199	22.790548
658.762268	1326.628662	8342.059570	2924.044189	22.770027
659.093628	1251.536499	8526.375977	2980.932129	23.772285
659.424927	1237.883301	8758.479492	3017.340576	23.661119
659.756226	1342.557251	9197.655273	3021.891602	21.378910
660.087341	1267.465088	9300.053711	3074.228516	22.492916
660.418518	1274.291626	9529.880859	3087.881836	21.968029
660.749573	1265.189575	9538.983398	3083.330566	21.974695
661.080627	1276.567139	9279.574219	3201.657715	24.054590
661.411621	1276.567139	9179.451172	3015.064941	21.998272
661.742554	1249.260864	8931.418945	2978.656738	22.511848
662.073547	1319.802124	8844.949219	2862.605225	20.501966
662.404297	1297.046875	8592.366211	2980.932129	23.081720
662.735229	1297.046875	8417.151367	2971.830078	23.521891
663.065979	1226.505737	8492.243164	2862.605225	22.518011
663.396667	1297.046875	8144.088867	2810.268311	22.100367
663.727417	1246.985352	8005.282227	2707.869873	21.616163
664.057922	1185.546387	7707.188965	2801.166016	24.773201
664.388611	1301.597900	7454.605957	2730.625000	23.224854
664.719116	1287.944824	7625.270020	2739.727051	22.908438
665.049622	1203.750488	7595.688477	2682.839111	23.139910
665.380005	1262.914063	7516.045410	2655.532715	22.270741
665.710388	1310.699951	7404.544922	2721.522949	23.151608
666.040771	1294.771362	7522.871582	2751.104736	23.383268
666.371033	1290.220337	7456.881836	2680.563477	22.546124
666.701294	1297.046875	7359.034180	2821.645752	25.150150
667.031555	1283.393677	7338.554688	2710.145264	23.562571
667.361633	1258.363037	7543.351563	2650.981689	22.157856
667.691772	1276.567139	7293.043945	2696.492188	23.600609
668.021790	1215.128052	7447.779785	2753.380127	24.680538
668.351807	1276.567139	7440.953125	2732.900391	23.624954
668.681763	1292.495850	7352.207520	2730.625000	23.732632
669.011719	1319.802124	7370.412109	2701.043213	22.828131
669.341614	1324.353149	7461.432617	2694.216553	22.321096
669.671387	1272.016113	7552.453613	2716.971924	23.007248
670.001221	1306.148926	7436.401855	2714.696289	22.976986
670.330933	1315.250977	7443.228516	2817.094727	24.507984
670.660583	1294.771362	7552.453613	2819.370361	24.363638
670.990173	1297.046875	7461.432617	2753.380127	23.624954
671.319763	1310.699951	7388.616211	2623.675537	21.602398
671.649292	1283.393677	7320.350586	2685.114502	23.218996
671.978821	1333.455200	7286.217773	2764.757813	24.044342
672.308289	1224.230225	7147.410645	2762.482178	25.970032
672.637695	1244.709839	7108.727051	2819.370361	26.852932
672.966980	1324.353149	7231.604980	2696.492188	23.228043
673.296326	1317.526489	6974.471191	2789.788574	26.025745
673.625610	1294.771362	7076.869629	2669.185791	23.770168
673.954773	1262.914063	7156.512695	2682.839111	24.092667
674.283936	1299.322388	7035.910156	2650.981689	23.562078
674.613037	1210.577026	6992.675293	2637.328613	24.675327
674.942078	1224.230225	6931.236328	2655.532715	25.079744
675.271118	1249.260864	6865.246094	2637.328613	24.716370
675.600098	1315.250977	6938.062988	2641.879639	23.593687
675.928955	1253.812012	6885.726074	2655.532715	24.888887
676.257813	1319.802124	6767.398926	2685.114502	25.062654
676.586670	1292.495850	6767.398926	2666.910400	25.103905
676.915466	1312.975464	6771.949707	2748.829102	26.302628
677.244141	1342.557251	6724.164063	2569.062988	22.790697
677.572876	1226.505737	6769.674316	2644.155273	25.574715
677.901489	1253.812012	6999.501953	2707.869873	25.306932
678.230042	1262.914063	6901.654785	2648.706299	24.576271
678.558594	1306.148926	6997.226563	2671.461426	23.990404
678.887085	1244.709839	6831.113281	2739.727051	26.761713
679.215515	1292.495850	6862.970703	2701.043213	25.285950
679.543945	1249.260864	6858.419922	2817.094727	27.951317
679.872253	1303.873413	6958.542480	2794.339600	26.358150
680.200562	1312.975464	7088.247070	2773.859863	25.295511
680.528809	1331.179688	7279.391113	2851.227539	25.554705
680.856995	1235.607788	7472.810547	2914.942139	26.924480
681.185120	1212.852539	7611.617188	2810.268311	24.964439
681.513306	1312.975464	7522.871582	2951.350586	26.383293
681.841309	1390.343262	7625.270020	2939.972900	24.854015
682.169373	1331.179688	7388.616211	2794.339600	24.154772
682.497314	1285.669312	7422.749023	2819.370361	24.990730
682.825134	1360.761475	7388.616211	2899.013428	25.519062
683.153076	1308.424438	7268.013672	2801.166016	25.047726
683.480896	1249.260864	7063.216797	2814.819336	26.927593
683.808655	1276.567139	7156.512695	2762.482178	25.270899
684.136414	1240.158813	7088.247070	2757.931152	25.953306
684.464050	1221.954712	6922.134277	2605.471436	24.271458
684.791626	1272.016113	6735.541504	2723.798340	26.572262
685.119263	1285.669312	6783.327637	2760.206787	26.821192
685.446838	1287.944824	6665.000488	2744.278076	27.084213
685.774292	1283.393677	6569.428711	2703.318604	26.861814
686.101685	1297.046875	6521.642578	2662.359375	26.132404
686.429077	1285.669312	6494.336426	2666.910400	26.518129
686.756348	1231.056763	6441.999512	2612.297852	26.506548
687.083679	1194.648438	6426.070801	2619.124512	27.229231
687.410950	1276.567139	6441.999512	2728.349365	28.105724
687.738159	1315.250977	6496.611816	2594.093750	24.681601
688.065308	1328.904175	6569.428711	2673.737061	25.662182
688.392395	1265.189575	6587.632813	2782.961914	28.516459
688.719421	1256.087524	6596.734863	2751.104736	27.993183
689.046448	1276.567139	6594.459473	2764.757813	27.984594
689.373413	1244.709839	6692.306641	2760.206787	27.819551
689.700317	1285.669312	6510.265137	2548.583252	24.172472
690.027100	1290.220337	6298.641602	2612.297852	26.397091
690.353943	1297.046875	6401.040039	2753.380127	28.533213
690.680725	1235.607788	6182.589844	2662.359375	28.840849
691.007446	1308.424438	6325.947754	2569.062988	25.124716
691.334106	1278.842651	6180.314453	2644.155273	27.855156
691.660645	1260.638550	6105.222168	2559.960938	26.820105
691.987244	1308.424438	6021.027832	2662.359375	28.730083
692.313721	1249.260864	5980.068848	2591.818115	28.379026
692.640259	1253.812012	5914.078613	2539.481201	27.587889
692.966675	1267.465088	5941.384766	2487.144287	26.095423
693.293030	1353.934937	5866.292480	2594.093750	27.483612
693.619324	1228.781250	5807.128906	2509.899414	27.982107
693.945618	1158.240112	5941.384766	2550.858887	29.115131
694.271851	1278.842651	5727.485840	2546.307861	28.491053
694.598083	1283.393677	5663.771484	2591.818115	29.870127
694.924194	1335.730713	5479.454102	2439.358398	26.633718
695.250244	1244.709839	5675.148926	2434.807373	26.861843
695.576294	1242.434326	5600.056641	2489.419678	28.616188
695.902283	1285.669312	5668.322266	2544.032227	28.712357
696.228210	1283.393677	5452.147949	2464.388916	28.329691
696.554138	1319.802124	5766.169922	2480.317627	26.100304
696.879944	1242.434326	5738.863281	2487.144287	27.682190
697.205750	1319.802124	5775.271973	2564.511963	27.936668
697.531433	1274.291626	5827.608887	2591.818115	28.935530
697.857178	1206.026001	5893.598633	2493.970703	27.475727
698.182739	1256.087524	6032.405762	2573.614014	27.584562
698.508423	1242.434326	6391.937988	2701.043213	28.325232
698.833984	1251.536499	6528.469238	2682.839111	27.123762
699.159485	1272.016113	6753.745605	2812.543701	28.102947
699.484924	1267.465088	6922.134277	2899.013428	28.853119
699.810303	1272.016113	7249.809082	2887.635986	27.027029
700.135681	1226.505737	7158.788574	2894.462402	28.116608
700.460999	1310.699951	7042.736816	2969.554688	28.940056
700.786255	1299.322388	6944.889648	2880.809326	28.012896
701.111450	1246.985352	6696.857910	2696.492188	26.597078
701.436646	1240.158813	6653.623047	2719.247314	27.322403
701.761719	1235.607788	6376.009277	2696.492188	28.419657
702.086792	1244.709839	6139.354980	2707.869873	29.893078
702.411865	1285.669312	5977.792969	2562.236328	27.206594
702.736816	1290.220337	5877.670410	2646.430664	29.563488
703.061646	1287.944824	5697.904297	2500.797363	27.502579
703.386536	1242.434326	5559.097168	2471.215576	28.465998
703.711365	1281.118164	5452.147949	2500.797363	29.241680
704.036194	1283.393677	5429.392578	2482.593262	28.924261
704.360901	1287.944824	5249.626465	2291.449463	25.330269
704.685547	1237.883301	5131.299316	2448.460449	31.092932
705.010132	1258.363037	5195.014160	2400.674561	29.017342
705.334717	1253.812012	5265.555176	2364.266113	27.680090
705.659302	1246.985352	5097.166504	2302.827148	27.423172
705.983765	1231.056763	4992.492676	2343.786377	29.582575
706.308228	1253.812012	4899.196289	2248.214600	27.278402
706.632568	1178.719727	5101.717773	2311.929199	28.886312
706.956909	1246.985352	4974.288574	2361.990479	29.914528
707.281189	1278.842651	5081.237793	2364.266113	28.545784
707.605408	1262.914063	5038.002930	2236.836914	25.798674
707.929626	1240.158813	4815.001953	2375.643799	31.763210
708.253784	1365.312500	4978.839355	2371.092773	27.833757
708.577820	1317.526489	4978.839355	2371.092773	28.775640
708.901855	1246.985352	5008.421387	2373.368164	29.945553
709.225830	1312.975464	5131.299316	2325.582275	26.519669
709.549805	1322.077637	5169.983398	2357.439453	26.907150
709.873718	1303.873413	5060.758301	2336.959961	27.498489
710.197510	1242.434326	5058.482910	2314.204590	28.085865
710.521362	1372.139038	5138.125977	2321.031250	25.196377
710.845093	1331.179688	5024.350098	2418.878662	29.451632
711.168701	1278.842651	5210.942871	2346.062012	27.141205
711.492432	1212.852539	5208.666992	2439.358398	30.694765
711.816040	1246.985352	5261.003906	2314.204590	26.587301
712.139587	1246.985352	5392.984375	2396.123291	27.716793
712.463074	1267.465088	5470.352051	2448.460449	28.099625
712.786499	1226.505737	5438.494629	2450.735840	29.065369
713.109924	1308.424438	5395.259766	2478.042236	28.619156
713.433350	1235.607788	5340.647461	2448.460449	29.545456
713.756592	1340.281738	5301.963379	2371.092773	26.019533
714.079834	1249.260864	5251.901855	2412.052002	29.050596
714.403015	1272.016113	5119.921875	2366.541748	28.444710
714.726196	1231.056763	5133.574707	2280.071777	26.880465
715.049255	1208.301514	5199.564941	2327.857666	28.050169
715.372375	1274.291626	4956.084473	2336.959961	28.862795
715.695435	1303.873413	4994.768066	2293.724854	26.818741
716.018311	1260.638550	5069.860352	2293.724854	27.120667
716.341248	1262.914063	5179.085449	2268.694336	25.682745
716.664063	1317.526489	5069.860352	2361.990479	27.835049
716.987000	1256.087524	5126.748535	2321.031250	27.513226
717.309692	1283.393677	5247.351074	2236.836914	24.052813
717.632385	1244.709839	5017.523438	2396.123291	30.518696
717.955078	1281.118164	4896.920898	2314.204590	28.571426
718.277649	1328.904175	4874.165527	2305.102539	27.535301
718.600220	1221.954712	4880.992188	2230.010498	27.549751
718.922791	1219.679199	4758.113770	2225.459229	28.424435
719.245300	1262.914063	4541.939453	2250.489990	30.117971
719.567688	1317.526489	4582.898926	2152.642578	25.574909
719.890015	1335.730713	4512.357910	2189.051025	26.862463
720.212341	1292.495850	4639.787109	2250.489990	28.619982
720.534607	1294.771362	4464.571777	2079.825928	24.766689
720.856873	1237.883301	4241.570801	2107.132324	28.939396
721.179016	1219.679199	4339.417969	2157.193604	30.051054
721.501160	1340.281738	4250.672852	1956.947876	21.188429
721.823242	1267.465088	4241.570801	2043.417725	26.090284
722.145264	1274.291626	4205.162598	2066.172852	27.018631
722.467224	1303.873413	4214.264648	2072.999512	26.426899
722.789185	1306.148926	4218.815430	2120.785400	27.968752
723.111023	1276.567139	4241.570801	2118.509766	28.396006
723.432861	1256.087524	4080.008789	2029.764526	27.397257
723.754578	1240.158813	4070.906738	2098.030273	30.305470
724.076294	1360.761475	4093.661865	2047.968750	25.145712
724.397949	1319.802124	4125.519043	1991.080688	23.925386
724.719666	1260.638550	4093.661865	2022.937988	26.907629
725.041260	1215.128052	4118.692871	2020.662476	27.742945
725.362732	1249.260864	4134.621094	2047.968750	27.681391
725.684265	1283.393677	4036.773926	2066.172852	28.429750
726.005676	1290.220337	4107.314941	2107.132324	28.998386
726.327087	1244.709839	4039.049316	2061.621826	29.234529
726.648438	1217.403687	4268.876953	2059.346436	27.591354
726.969666	1269.740601	4196.060547	2116.234375	28.926907
727.290894	1246.985352	4182.407227	1979.703125	24.961243
727.612061	1301.597900	4216.540039	2050.244141	25.683056
727.933228	1294.771362	4225.642090	2066.172852	26.319876
728.254395	1310.699951	4291.632324	2164.020264	28.625954
728.575378	1262.914063	4252.948242	2100.305664	28.006088
728.896301	1265.189575	4394.030762	2132.163086	27.709091
729.217285	1278.842651	4389.479492	2107.132324	26.627657
729.538147	1201.474976	4355.346680	2173.122314	30.808083
729.858948	1290.220337	4446.367676	2123.060791	26.387882
730.179810	1199.199463	4414.510254	2154.918213	29.723993
730.500549	1174.168701	4364.448730	2143.540527	30.385164
730.821228	1285.669312	4412.234863	2111.683350	26.419214
731.141846	1235.607788	4291.632324	2107.132324	28.518246
731.462402	1237.883301	4391.755371	2116.234375	27.849928
731.782898	1262.914063	4366.724609	2175.397949	29.398827
732.103455	1297.046875	4516.908691	2143.540527	26.289751
732.423889	1294.771362	4343.969238	2129.887451	27.388060
732.744263	1276.567139	4259.774902	2159.469238	29.595730
733.064636	1274.291626	4455.469727	2113.958740	26.394846
733.384888	1301.597900	4475.949219	2116.234375	25.663084
733.705200	1199.199463	4405.408203	2220.908203	31.866570
734.025330	1285.669312	4405.408203	2189.051025	28.956966
734.345520	1235.607788	4544.214844	2150.367188	27.647871
734.665527	1301.597900	4296.183105	2093.479248	26.443773
734.985596	1308.424438	4282.530273	2145.816162	28.156082
735.305542	1253.812012	4405.408203	2061.621826	25.631767
735.625549	1308.424438	4287.081055	2123.060791	27.349117
735.945435	1240.158813	4186.958496	2066.172852	28.030884
736.265259	1301.597900	4293.907715	2118.509766	27.300377
736.585083	1301.597900	4155.101074	2047.968750	26.156300
736.904785	1276.567139	4000.365479	1945.570313	24.561407
737.224426	1308.424438	4073.182129	2022.937988	25.843622
737.544128	1256.087524	4000.365479	1997.907227	27.031509
737.863708	1310.699951	3975.334961	2059.346436	28.095648
738.183289	1201.474976	4007.192139	2016.111450	29.034874
738.502808	1294.771362	4105.039551	2007.009399	25.344131
738.822205	1294.771362	3995.814453	2036.591064	27.464195
739.141541	1303.873413	4029.947266	2009.284912	25.876465
739.460938	1287.944824	4004.916504	2007.009399	26.465664
739.780212	1283.393677	4209.713379	2111.683350	28.304825
740.099426	1287.944824	4132.345703	1968.325439	23.919998
740.418640	1299.322388	4118.692871	2050.244141	26.634375
740.737793	1226.505737	4148.274414	2057.070801	28.426792
741.056885	1244.709839	3988.988037	2027.489014	28.524044
741.375977	1290.220337	3934.375488	2043.417725	28.485369
741.694946	1287.944824	4039.049316	2070.723877	28.453264
742.013855	1208.301514	4023.120850	1979.703125	27.405014
742.332703	1281.118164	3925.273438	2084.376953	30.378654
742.651550	1208.301514	3886.589600	2068.448486	32.115551
742.970398	1267.465088	3800.119629	1956.947876	27.223721
743.289124	1292.495850	3909.344727	2043.417725	28.695654
743.607788	1253.812012	3795.568604	2054.795166	31.512976
743.926453	1324.353149	3763.711426	1979.703125	26.865669
744.245056	1219.679199	3843.354736	2045.693237	31.483086
744.563599	1237.883301	3884.313965	1988.805176	28.374893
744.882141	1281.118164	3763.711426	2063.897461	31.530710
745.200500	1260.638550	3634.006836	1966.049927	29.721952
745.518860	1278.842651	3634.006836	1988.805176	30.144928
745.837219	1251.536499	3661.312988	1956.947876	29.272898
746.155518	1276.567139	3586.220703	1963.774414	29.753695
746.473755	1312.975464	3654.486328	1902.335449	25.170074
746.791992	1283.393677	3588.496338	2002.458252	31.194473
747.110107	1292.495850	3474.720215	1968.325439	30.969757
747.428162	1301.597900	3568.016602	1979.703125	29.919680
747.746216	1285.669312	3608.976074	2009.284912	31.145937
748.064148	1281.118164	3588.496338	1927.366089	28.007889
748.382080	1176.444214	3686.343750	1895.508789	28.649139
748.700073	1242.434326	3693.170166	1913.713013	27.390903
749.017822	1276.567139	3629.455566	1954.672363	28.820118
749.335632	1319.802124	3672.690674	1856.824951	22.823980
749.653320	1294.771362	3654.486328	1959.223389	28.158150
749.971008	1306.148926	3629.455566	1895.508789	25.367287
750.288696	1274.291626	3704.547852	1966.049927	28.464417
750.606262	1278.842651	3813.772949	1986.529663	27.917416
750.923828	1283.393677	3661.312988	1975.152100	29.090910
751.241272	1246.985352	3629.455566	1970.601074	30.372498
751.558716	1260.638550	3699.996826	1952.396851	28.358208
751.876038	1249.260864	3590.771729	2029.764526	33.333336
752.193481	1306.148926	3636.282227	1988.805176	29.296875
752.510681	1281.118164	3615.802490	1961.498901	29.142302
752.827942	1269.740601	3536.159424	1915.988525	28.514053
753.145081	1246.985352	3659.037354	1981.978638	30.471701
753.462219	1285.669312	3608.976074	1972.876587	29.578846
753.779297	1328.904175	3574.843262	2075.274902	33.232014
754.096375	1340.281738	3634.006836	1961.498901	27.083332
754.413330	1203.750488	3570.292236	1950.121338	31.538462
754.730286	1237.883301	3461.067139	1895.508789	29.580347
755.047119	1269.740601	3583.945313	1975.152100	30.481812
755.363892	1276.567139	3454.240479	1968.325439	31.765936
755.680725	1287.944824	3554.363525	1997.907227	31.325298
755.997498	1276.567139	3360.944336	1886.406738	29.257641
756.314148	1260.638550	3438.312012	1975.152100	32.810867
756.630737	1235.607788	3411.005615	1902.335449	30.648539
756.947327	1290.220337	3577.118652	1877.304688	25.671640
757.263855	1301.597900	3522.506104	2004.733887	31.659840
757.580261	1242.434326	3385.974854	1859.100464	28.768578
757.896729	1333.455200	3463.342773	1872.753662	25.320511
758.213074	1215.128052	3431.485352	1877.304688	29.876799
758.529419	1269.740601	3506.577637	1961.498901	30.925737
758.845642	1290.220337	3536.159424	1795.385864	22.492397
759.161865	1292.495850	3554.363525	1961.498901	29.577461
759.478149	1310.699951	3608.976074	1961.498901	28.316830
759.794189	1276.567139	3558.914551	1947.845825	29.411766
760.110229	1246.985352	3595.322754	2011.560425	32.558144
760.426270	1208.301514	3604.425049	1929.641602	30.104462
760.742249	1269.740601	3649.935303	1991.080688	30.305925
761.058105	1290.220337	3652.210938	1991.080688	29.672443
761.374023	1199.199463	3652.210938	1991.080688	32.282001
761.689819	1310.699951	3561.189941	1988.805176	30.131449
762.005554	1281.118164	3581.669678	2002.458252	31.355093
762.321289	1299.322388	3563.465576	1931.917114	27.939697
762.636902	1240.158813	3659.037354	1963.774414	29.915337
762.952515	1278.842651	3645.384277	1963.774414	28.942308
763.268127	1299.322388	3715.925537	2100.305664	33.145008
763.583618	1344.832764	3775.089111	2075.274902	30.056177
763.899048	1256.087524	4125.519043	2088.927979	29.024578
764.214478	1287.944824	4398.581543	2261.867676	31.309437
764.529785	1276.567139	4728.532227	2373.368164	31.773237
764.845093	1360.761475	4994.768066	2400.674561	28.616159
765.160400	1297.046875	5001.594727	2330.133301	27.886978
765.475586	1269.740601	4885.542969	2334.684326	29.452488
765.790771	1331.179688	4701.226074	2314.204590	29.169477
766.105835	1349.383789	4514.633301	2239.112549	28.109278
766.420837	1356.210449	4332.591797	2223.183838	29.128437
766.735840	1303.873413	4266.601563	2179.948975	29.569895
767.050842	1322.077637	4105.039551	2132.163086	29.108751
767.365662	1260.638550	3886.589600	2152.642578	33.968796
767.680542	1292.495850	3872.936523	2054.795166	29.541439
767.995300	1235.607788	3795.568604	2013.835938	30.400002
768.309998	1260.638550	3645.384277	2002.458252	31.106869
768.624817	1190.097412	3768.262451	1918.264038	28.243601
768.939392	1267.465088	3579.394287	1993.356201	31.397636
769.254028	1322.077637	3549.812500	1988.805176	29.928495
769.568481	1342.557251	3586.220703	1991.080688	28.904665
769.882935	1312.975464	3467.893799	2002.458252	31.995771
770.197388	1240.158813	3404.179199	1993.356201	34.805466
770.511841	1260.638550	3399.628174	1911.437500	30.425529
770.826172	1299.322388	3249.443604	1888.682251	30.221704
771.140442	1306.148926	3304.056152	1868.202637	28.132122
771.454651	1262.914063	3235.790527	1872.753662	30.911190
771.768860	1212.852539	3258.545898	1811.314575	29.254728
772.082886	1381.241089	3213.035400	1900.059814	28.322979
772.397034	1292.495850	3224.413086	1927.366089	32.862186
772.711060	1299.322388	3313.158203	1852.273926	27.457628
773.025024	1272.016113	3263.096924	1802.212524	26.628572
773.338928	1226.505737	3258.545898	1829.518677	29.675247
773.652771	1228.781250	3162.973877	1900.059814	34.705879
773.966614	1290.220337	3103.810303	1859.100464	31.367626
774.280457	1283.393677	3144.769775	1777.181763	26.528120
774.594116	1274.291626	3169.800537	1774.906250	26.410566
774.907776	1237.883301	3151.596191	1836.345337	31.272301
775.221375	1253.812012	3167.524902	1877.304688	32.580261
775.534912	1310.699951	3185.729004	1820.416626	27.184467
775.848450	1274.291626	3112.912354	1824.967651	29.950497
776.161926	1267.465088	3078.779541	1804.488037	29.648245
776.475342	1299.322388	3101.534912	1802.212524	27.904041
776.788696	1322.077637	3144.769775	1804.488037	26.466917
777.101990	1274.291626	3005.962891	1804.488037	30.617613
777.415283	1301.597900	2987.758789	1786.283813	28.744938
777.728516	1310.699951	3071.953125	1768.079712	25.968996
778.041626	1303.873413	2958.177002	1793.110352	29.573589
778.354736	1262.914063	3005.962891	1758.977539	28.459528
778.667725	1317.526489	3053.749023	1793.110352	27.391872
778.980774	1333.455200	2960.452637	1831.794189	30.629366
779.293640	1210.577026	2974.105713	1781.732788	32.387096
779.606567	1256.087524	2994.585449	1870.478149	35.340313
779.919434	1324.353149	2978.656738	1702.089600	22.833563
780.232239	1333.455200	2901.289063	1827.243164	31.494917
780.544983	1251.536499	2912.666504	1790.834839	32.465752
780.857666	1201.474976	2958.177002	1843.171875	36.528500
781.170227	1233.332275	2958.177002	1774.906250	31.398418
781.482849	1267.465088	2919.493164	1811.314575	32.920113
781.795410	1237.883301	2955.901611	1777.181763	31.390728
782.107910	1297.046875	2792.063965	1683.885376	25.875189
782.420288	1256.087524	2887.635986	1731.671387	29.149233
782.732666	1283.393677	2794.339600	1688.436401	26.807228
783.044983	1265.189575	2730.625000	1790.834839	35.869560
783.357300	1240.158813	2860.329590	1613.344238	23.033709
783.669495	1258.363037	2744.278076	1715.742676	30.781010
783.981689	1281.118164	2787.512939	1745.324463	30.815714
784.293762	1267.465088	2757.931152	1727.120239	30.839693
784.605835	1276.567139	2835.298828	1715.742676	28.175184
784.917908	1258.363037	2764.757813	1781.732788	34.743198
785.229858	1251.536499	2767.033203	1713.467163	30.480480
785.541748	1253.812012	2778.410889	1706.640625	29.701492
785.853577	1285.669312	2757.931152	1731.671387	30.293665
786.165405	1319.802124	2662.359375	1695.262939	27.966093
786.477173	1301.597900	2701.043213	1631.548462	23.577238
786.788879	1260.638550	2685.114502	1601.966675	23.961662
787.100525	1242.434326	2671.461426	1702.089600	32.165607
787.412109	1308.424438	2644.155273	1738.497925	32.197617
787.723694	1242.434326	2678.288086	1654.303589	28.684626
788.035156	1262.914063	2666.910400	1695.262939	30.794159
788.346558	1272.016113	2810.268311	1727.120239	29.585794
788.658081	1260.638550	2798.890625	1743.048950	31.360947
788.969360	1292.495850	2739.727051	1720.293701	29.559746
789.280640	1258.363037	2780.686523	1827.243164	37.369202
789.591919	1331.179688	2869.431641	1777.181763	28.994085
789.903076	1310.699951	2926.319824	1765.804199	28.169018
790.214172	1292.495850	2883.084961	1738.497925	28.040056
790.525269	1301.597900	2812.543701	1699.814087	26.355425
790.836365	1276.567139	2876.258301	1747.599976	29.445236
791.147339	1269.740601	2780.686523	1777.181763	33.584335
791.458191	1315.250977	2694.216553	1768.079712	32.838291
791.769104	1274.291626	2830.747803	1724.844727	28.947369
792.079895	1324.353149	2598.644775	1793.110352	36.785709
792.390686	1262.914063	2671.461426	1724.844727	32.794827
792.701416	1331.179688	2655.532715	1645.201538	23.711340
793.012085	1251.536499	2646.430664	1626.997314	26.916796
793.322693	1240.158813	2694.216553	1667.956787	29.420975
793.633240	1251.536499	2623.675537	1695.262939	32.338299
793.943787	1251.536499	2603.195801	1663.405762	30.471382
794.254272	1217.403687	2628.226563	1706.640625	34.677418
794.564636	1260.638550	2605.471436	1681.609863	31.302872
794.875000	1278.842651	2575.889648	1572.384888	22.631580
795.185303	1262.914063	2619.124512	1672.507813	30.201342
795.495544	1253.812012	2596.369141	1608.793213	26.440678
795.805786	1306.148926	2596.369141	1667.956787	28.042334
796.115906	1376.690063	2612.297852	1654.303589	22.467772
796.426025	1249.260864	2553.134277	1645.201538	30.366497
796.736023	1269.740601	2673.737061	1654.303589	27.390594
797.045959	1262.914063	2739.727051	1686.160889	28.659473
797.355896	1276.567139	2646.430664	1715.742676	32.059803
797.665833	1262.914063	2694.216553	1754.426514	34.340221
797.975708	1285.669312	2773.859863	1745.324463	30.886848
798.285461	1206.026001	2812.543701	1708.916138	31.303118
798.595154	1233.332275	2671.461426	1663.405762	29.905067
798.904846	1262.914063	2644.155273	1718.018188	32.948925
799.214478	1335.730713	2607.746826	1777.181763	34.704830
799.524109	1287.944824	2612.297852	1681.609863	29.725082
799.833557	1262.914063	2694.216553	1670.232300	28.457872
800.143005	1315.250977	2623.675537	1599.691162	21.739136
800.452393	1240.158813	2605.471436	1715.742676	34.833332
800.761780	1274.291626	2646.430664	1667.956787	28.689888
801.071106	1272.016113	2455.286865	1656.579102	32.500000
801.380371	1308.424438	2455.286865	1629.272949	27.976198
801.689575	1319.802124	2537.205811	1631.548462	25.607475
801.998718	1244.709839	2509.899414	1615.619751	29.316547
802.307800	1299.322388	2427.980713	1606.517700	27.217743
802.616882	1312.975464	2448.460449	1720.293701	35.871742
802.925903	1342.557251	2603.195801	1665.681274	25.631775
803.234863	1253.812012	2359.715088	1652.028076	36.008224
803.543701	1274.291626	2387.021240	1745.324463	42.331295
803.852539	1228.781250	2484.868652	1713.467163	38.586956
804.161316	1258.363037	2484.868652	1601.966675	28.014845
804.470032	1317.526489	2348.337402	1620.170776	29.359825
804.778809	1256.087524	2425.705078	1688.436401	36.964977
805.087341	1228.781250	2407.500977	1697.538574	39.768345
805.395935	1244.709839	2375.643799	1606.517700	31.991953
805.704468	1258.363037	2446.184814	1595.140137	28.352493
806.012939	1237.883301	2389.296875	1611.068726	32.411068
806.321350	1299.322388	2455.286865	1556.456177	22.244091
806.629761	1258.363037	2489.419678	1626.997314	29.944542
806.938049	1326.628662	2466.664551	1633.823975	26.946110
807.246277	1299.322388	2423.429688	1670.232300	32.995953
807.554504	1294.771362	2500.797363	1561.007324	22.075474
807.862671	1251.536499	2500.797363	1679.334351	34.244076
808.170715	1260.638550	2357.439453	1592.864502	30.290453
808.478821	1262.914063	2400.674561	1656.579102	34.599991
808.786804	1260.638550	2393.847900	1608.793213	30.722891
809.094727	1274.291626	2355.164063	1601.966675	30.315792
809.402649	1274.291626	2455.286865	1604.242188	27.938349
809.710510	1253.812012	2398.398926	1683.885376	37.574547
810.018311	1385.792114	2466.664551	1715.742676	30.526318
810.326050	1256.087524	2409.776611	1640.650513	33.333328
810.633667	1258.363037	2393.847900	1620.170776	31.863722
810.941345	1242.434326	2368.817139	1570.109375	29.090914
811.248901	1246.985352	2307.378174	1583.762451	31.759655
811.556396	1267.465088	2339.235352	1547.354126	26.114649
811.863892	1283.393677	2334.684326	1592.864502	29.437227
812.171326	1347.108276	2316.480225	1599.691162	26.056343
812.478699	1308.424438	2280.071777	1565.558350	26.463707
812.786011	1228.781250	2250.489990	1638.375000	40.089092
813.093262	1297.046875	2259.592041	1554.180664	26.713945
813.400391	1235.607788	2302.827148	1629.272949	36.886997
813.707642	1331.179688	2216.357178	1488.190552	17.737783
814.014709	1190.097412	2239.112549	1579.211426	37.093269
814.321716	1338.006226	2182.224365	1574.660400	28.032349
814.628723	1249.260864	2327.857666	1549.629639	27.848104
814.935669	1283.393677	2232.285889	1615.619751	35.011993
815.242554	1310.699951	2223.183838	1538.252075	24.937660
815.549438	1274.291626	2236.836914	1565.558350	30.260054
815.856201	1262.914063	2277.796387	1626.997314	35.874432
816.162964	1322.077637	2286.898438	1561.007324	24.764153
816.469604	1206.026001	2275.520752	1545.078613	31.702129
816.776184	1294.771362	2261.867676	1549.629639	26.352936
817.082825	1251.536499	2357.439453	1556.456177	27.572010
817.389343	1212.852539	2346.062012	1586.037964	32.931725
817.695801	1347.108276	2309.653564	1647.477051	31.205677
818.002197	1331.179688	2377.919189	1686.160889	33.913040
818.308533	1319.802124	2311.929199	1574.660400	25.688068
818.614868	1315.250977	2275.520752	1649.752563	34.834126
818.921143	1303.873413	2352.888428	1558.731689	24.295008
819.227356	1297.046875	2225.459229	1629.272949	35.784325
819.533447	1262.914063	2332.408936	1592.864502	30.851053
819.839539	1326.628662	2230.010498	1692.987427	40.554142
820.145569	1281.118164	2409.776611	1583.762451	26.814514
820.451538	1212.852539	2514.450439	1688.436401	36.538464
820.757568	1315.250977	2653.257324	1706.640625	29.251703
821.063416	1226.505737	2641.879639	1681.609863	32.154339
821.369263	1269.740601	2796.614990	1686.160889	27.272728
821.675049	1297.046875	2871.707275	1799.937012	31.936419
821.980713	1265.189575	3017.340576	1863.651489	34.155842
822.286438	1301.597900	3226.688477	1888.682251	30.496454
822.592102	1299.322388	3754.609375	2189.051025	36.237255
822.897583	1310.699951	5192.738281	2548.583252	31.887457
823.203125	1242.434326	7254.360352	3263.096924	33.610905
823.508545	1322.077637	9429.757813	3866.109863	31.378054
823.813965	1258.363037	10540.211914	4205.162598	31.747982
824.119263	1276.567139	10035.046875	3993.539063	31.021046
824.424622	1244.709839	8651.530273	3659.037354	32.596008
824.729858	1292.495850	7363.585449	3185.729004	31.184404
825.035095	1308.424438	6391.937988	2965.003662	32.587288
825.340149	1237.883301	5595.505859	2696.492188	33.472584
825.645264	1308.424438	5106.268555	2505.348389	31.515879
825.950256	1283.393677	4642.062500	2375.643799	32.520329
826.255310	1267.465088	4337.142578	2327.857666	34.544106
826.560242	1308.424438	4200.611328	2239.112549	32.179390
826.865112	1351.659302	3918.446777	2125.336426	30.141844
827.169922	1265.189575	3820.599365	2052.519775	30.810331
827.474670	1333.455200	3677.241699	2034.315552	29.902908
827.779419	1290.220337	4009.467773	2255.041016	35.481163
828.084045	1287.944824	4516.908691	2336.959961	32.487671
828.388672	1356.210449	5024.350098	2566.787354	33.002476
828.693176	1315.250977	5231.422363	2616.848877	33.236488
828.997681	1240.158813	4683.021973	2384.745850	33.245209
829.302124	1210.577026	4346.244629	2286.898438	34.325111
829.606567	1244.709839	3888.864990	2041.142212	30.120483
829.910828	1242.434326	3495.199951	2025.213501	34.747475
830.215149	1287.944824	3313.158203	1961.498901	33.258427
830.519348	1308.424438	3035.544678	1790.834839	27.931490
830.823547	1299.322388	3028.718262	1795.385864	28.684206
831.127686	1240.158813	2848.952148	1877.304688	39.603962
831.431763	1258.363037	2650.981689	1706.640625	32.189545
831.735779	1290.220337	2525.828125	1649.752563	29.097601
832.039734	1299.322388	2559.960938	1629.272949	26.173288
832.343628	1246.985352	2425.705078	1658.854614	34.942085
832.647461	1212.852539	2425.705078	1599.691162	31.894943
832.951233	1272.016113	2402.949951	1708.916138	38.631794
833.255127	1251.536499	2371.092773	1667.956787	37.195118
833.558777	1242.434326	2468.940186	1663.405762	34.322823
833.862366	1260.638550	2537.205811	1679.334351	32.798569
834.165955	1246.985352	2680.563477	1781.732788	37.301590
834.469482	1349.383789	3076.504150	1815.865601	27.009224
834.773010	1312.975464	3347.291016	1963.774414	31.991053
835.076416	1224.230225	3722.751953	2084.376953	34.426228
835.379822	1235.607788	3652.210938	2116.234375	36.440681
835.683105	1299.322388	3542.985840	2061.621826	33.975658
835.986389	1244.709839	3274.474365	1947.845825	34.641258
836.289612	1251.536499	3124.290039	1865.927002	32.806801
836.592773	1253.812012	2930.870850	1699.814087	26.594301
836.895874	1253.812012	2755.655762	1724.844727	31.363630
837.198914	1256.087524	2562.236328	1711.191650	34.843208
837.501892	1317.526489	2498.521729	1649.752563	28.131025
837.804871	1349.383789	2423.429688	1674.783325	30.296614
838.107666	1249.260864	2450.735840	1592.864502	28.598484
838.410583	1299.322388	2355.164063	1590.588989	27.586201
838.713379	1287.944824	2245.938965	1592.864502	31.828972
839.016052	1231.056763	2220.908203	1540.527588	31.264370
839.318787	1294.771362	2041.142212	1565.558350	36.280487
839.621338	1269.740601	2084.376953	1586.037964	38.826817
839.923889	1258.363037	2068.448486	1535.976563	34.269661
840.226440	1249.260864	2123.060791	1540.527588	33.333344
840.528931	1226.505737	2093.479248	1522.323364	34.120724
840.831299	1196.923950	2191.326416	1540.527588	34.553780
841.133606	1278.842651	2311.929199	1604.242188	31.497801
841.435913	1251.536499	2318.755615	1586.037964	31.343279
841.738220	1303.873413	2341.510986	1679.334351	36.184208
842.040405	1249.260864	2154.918213	1611.068726	39.949753
842.342529	1338.006226	2143.540527	1549.629639	26.271185
842.644592	1324.353149	2057.070801	1547.354126	30.434776
842.946594	1258.363037	2034.315552	1533.701050	35.483875
843.248596	1251.536499	2027.489014	1485.915039	30.205269
843.550598	1276.567139	1986.529663	1476.812988	28.205130
843.852478	1258.363037	1918.264038	1492.741699	35.517246
844.154236	1303.873413	1904.610962	1397.169800	15.530307
844.455994	1251.536499	1893.233276	1476.812988	35.106377
844.757690	1294.771362	1843.171875	1460.884399	30.290461
845.059326	1378.965576	1827.243164	1415.373901	8.121826
845.360962	1322.077637	1868.202637	1422.200562	18.333334
845.662476	1312.975464	1752.151001	1474.537476	36.787571
845.963989	1274.291626	1758.977539	1465.435425	39.436630
846.265381	1233.332275	1811.314575	1383.516602	25.984243
846.566772	1292.495850	1859.100464	1479.088501	32.931721
846.868042	1176.444214	1840.896362	1469.986450	44.178085
847.169373	1240.158813	1845.447388	1492.741699	41.729332
847.470581	1265.189575	1840.896362	1415.373901	26.086946
847.771729	1276.567139	1856.824951	1438.129150	27.843143
848.072815	1272.016113	1754.426514	1456.333252	38.207539
848.373901	1281.118164	1733.946899	1438.129150	34.673370
848.674866	1301.597900	1761.253052	1399.445313	21.287134
848.975891	1256.087524	1633.823975	1422.200562	43.975910
849.276794	1287.944824	1706.640625	1369.863525	19.565207
849.577637	1274.291626	1770.355225	1433.578125	32.110096
849.878357	1317.526489	1756.702026	1415.373901	22.279795
850.179077	1365.312500	1809.039063	1438.129150	16.410254
850.479736	1231.056763	1779.457275	1449.506714	39.834015
850.780396	1274.291626	1706.640625	1358.485962	19.473698
851.080994	1260.638550	1708.916138	1347.108276	19.289326
851.381470	1244.709839	1727.120239	1463.159912	45.283035
851.681946	1285.669312	1788.559326	1422.200562	27.149326
851.982361	1297.046875	1631.548462	1399.445313	30.612242
852.282715	1301.597900	1688.436401	1444.955688	37.058823
852.583008	1235.607788	1756.702026	1388.067749	29.257656
852.883240	1267.465088	1720.293701	1360.761475	20.603024
853.183411	1242.434326	1608.793213	1388.067749	39.751575
853.483521	1324.353149	1713.467163	1467.710938	36.842102
853.783630	1249.260864	1718.018188	1390.343262	30.097107
854.083679	1290.220337	1663.405762	1369.863525	21.341452
854.383667	1281.118164	1711.191650	1451.782227	39.682537
854.683533	1260.638550	1674.783325	1388.067749	30.769239
854.983337	1278.842651	1702.089600	1367.588013	20.967751
855.283203	1256.087524	1749.875488	1417.649414	32.718880
855.582886	1287.944824	1633.823975	1438.129150	43.421040
855.882629	1312.975464	1620.170776	1449.506714	44.444443
856.182312	1315.250977	1706.640625	1397.169800	20.930248
856.481873	1249.260864	1649.752563	1353.934937	26.136391
856.781372	1331.179688	1640.650513	1342.557251	3.676458
857.080872	1349.383789	1665.681274	1456.333252	33.812935
857.380310	1306.148926	1654.303589	1495.017212	54.248386
857.679688	1253.812012	1702.089600	1401.720825	32.994915
857.979004	1260.638550	1713.467163	1369.863525	24.120600
858.278259	1258.363037	1745.324463	1358.485962	20.560751
858.577454	1256.087524	1620.170776	1353.934937	26.875010
858.876648	1338.006226	1679.334351	1388.067749	14.666686
859.175720	1292.495850	1749.875488	1353.934937	13.432842
859.474792	1251.536499	1672.507813	1347.108276	22.702682
859.773743	1217.403687	1724.844727	1417.649414	39.461872
860.072693	1276.567139	1647.477051	1408.547363	35.582825
860.371521	1308.424438	1652.028076	1340.281738	9.271525
860.670349	1244.709839	1654.303589	1333.455200	21.666679
860.969116	1317.526489	1686.160889	1331.179688	3.703723
861.267883	1272.016113	1554.180664	1394.894287	43.548409
861.566589	1269.740601	1706.640625	1353.934937	19.270847
861.865112	1297.046875	1656.579102	1408.547363	31.012655
862.163635	1294.771362	1642.926025	1310.699951	4.575147
862.462158	1315.250977	1649.752563	1376.690063	18.367353
862.760620	1249.260864	1670.232300	1417.649414	39.999992
863.059021	1285.669312	1597.415649	1444.955688	51.094868
863.357361	1262.914063	1688.436401	1431.302612	39.572201
863.655640	1301.597900	1677.058838	1342.557251	10.909084
863.953857	1260.638550	1549.629639	1369.863525	37.795273
864.251953	1212.852539	1661.130127	1372.139038	35.533005
864.550110	1221.954712	1617.895264	1392.618774	43.103455
864.848206	1310.699951	1613.344238	1338.006226	9.022564
865.146179	1281.118164	1626.997314	1388.067749	30.921085
865.444092	1278.842651	1686.160889	1335.730713	13.966490
865.741943	1251.536499	1633.823975	1333.455200	21.428560
866.039795	1276.567139	1729.395752	1317.526489	9.045221
866.337646	1226.505737	1647.477051	1415.373901	44.864853
866.635376	1253.812012	1677.058838	1360.761475	25.268816
866.933044	1233.332275	1695.262939	1369.863525	29.556654
867.230652	1285.669312	1622.446289	1408.547363	36.486477
867.528198	1283.393677	1688.436401	1372.139038	21.910124
867.825745	1262.914063	1599.691162	1426.751587	48.648655
868.123230	1287.944824	1638.375000	1360.761475	20.779219
868.420593	1274.291626	1640.650513	1333.455200	16.149076
868.717896	1276.567139	1658.854614	1415.373901	36.309525
869.015198	1265.189575	1649.752563	1394.894287	33.727821
869.312439	1285.669312	1620.170776	1397.169800	33.333332
869.609619	1306.148926	1631.548462	1442.680176	41.958035
869.906738	1249.260864	1718.018188	1433.578125	39.320400
870.203796	1233.332275	1758.977539	1388.067749	29.437243
870.500854	1267.465088	1640.650513	1338.006226	18.902437
870.797791	1297.046875	1611.068726	1429.027100	42.028996
871.094666	1251.536499	1633.823975	1426.751587	45.833332
871.391602	1301.597900	1652.028076	1356.210449	15.584431
871.688293	1294.771362	1681.609863	1406.271851	28.823524
871.985107	1224.230225	1686.160889	1353.934937	28.078827
872.281738	1301.597900	1681.609863	1449.506714	38.922146
872.578369	1340.281738	1652.028076	1460.884399	38.686153
872.874939	1342.557251	1665.681274	1408.547363	20.422533
873.171509	1240.158813	1606.517700	1365.312500	34.161499
873.467957	1290.220337	1674.783325	1399.445313	28.402363
873.764343	1344.832764	1597.415649	1342.557251	-0.900897
874.060669	1235.607788	1613.344238	1449.506714	56.626499
874.356995	1322.077637	1692.987427	1358.485962	9.815951
874.653198	1240.158813	1711.191650	1458.608887	46.376823
874.949463	1267.465088	1636.099487	1369.863525	27.777777
875.245544	1221.954712	1620.170776	1422.200562	50.285728
875.541626	1246.985352	1688.436401	1376.690063	29.381449
875.837646	1201.474976	1667.956787	1374.414551	37.073166
876.133606	1312.975464	1692.987427	1392.618774	20.958107
876.429565	1338.006226	1649.752563	1413.098389	24.087585
876.725403	1269.740601	1633.823975	1390.343262	33.125011
877.021179	1294.771362	1667.956787	1417.649414	32.926807
877.316956	1244.709839	1615.619751	1381.241089	36.809814
877.612610	1301.597900	1681.609863	1378.965576	20.359274
877.908203	1208.301514	1647.477051	1408.547363	45.595856
878.203857	1217.403687	1642.926025	1390.343262	40.641716
878.499390	1294.771362	1695.262939	1442.680176	36.931816
878.794800	1347.108276	1667.956787	1315.250977	-9.929078
879.090271	1235.607788	1649.752563	1442.680176	50.000000
879.385559	1272.016113	1736.222412	1326.628662	11.764715
879.680847	1192.372925	1715.742676	1399.445313	39.565220
879.976196	1285.669312	1708.916138	1440.404663	36.559128
880.271301	1278.842651	1845.447388	1472.261963	34.136551
880.566467	1265.189575	1838.620850	1472.261963	36.111107
880.861572	1215.128052	1847.722900	1451.782227	37.410069
881.156555	1322.077637	1975.152100	1529.150024	31.707317
881.451477	1283.393677	2227.734863	1538.252075	26.987957
881.746460	1226.505737	2509.899414	1704.365112	37.234043
882.041321	1326.628662	3169.800537	1975.152100	35.185184
882.336121	1274.291626	4039.049316	2134.438477	31.111111
882.630798	1283.393677	4569.245605	2321.031250	31.578949
882.925537	1246.985352	4821.828613	2505.348389	35.200508
883.220215	1306.148926	4651.164551	2284.622803	29.251698
883.514771	1215.128052	4309.836426	2311.929199	35.441177
883.809326	1299.322388	3973.059326	2145.816162	31.659576
884.103760	1285.669312	3643.108887	2084.376953	33.880302
884.398132	1260.638550	3552.087891	1993.356201	31.976168
884.692505	1226.505737	3192.555664	1950.121338	36.805557
884.986816	1278.842651	3067.402100	1890.957764	34.223919
885.281067	1312.975464	3065.126465	1738.497925	24.285719
885.575256	1251.536499	2826.196777	1770.355225	32.947979
885.869385	1328.904175	2562.236328	1745.324463	33.763840
886.163452	1301.597900	2380.194824	1749.875488	41.561176
886.457458	1253.812012	2211.806152	1615.619751	37.767220
886.751465	1281.118164	2179.948975	1456.333252	19.493668
887.045410	1283.393677	2032.040039	1469.986450	24.924021
887.339233	1240.158813	2082.101563	1517.772339	32.972969
887.632996	1221.954712	1975.152100	1476.812988	33.836849
887.926758	1297.046875	1927.366089	1440.404663	22.743681
888.220398	1274.291626	1802.212524	1515.496826	45.689648
888.514099	1269.740601	1784.008301	1378.965576	21.238934
888.807678	1294.771362	1774.906250	1417.649414	25.592402
889.101196	1299.322388	1768.079712	1440.404663	30.097082
889.394653	1324.353149	1715.742676	1444.955688	30.813942
889.688049	1251.536499	1588.313477	1433.578125	54.054058
889.981384	1272.016113	1736.222412	1312.975464	8.823524
890.274719	1310.699951	1622.446289	1417.649414	34.306564
890.567932	1256.087524	1679.334351	1417.649414	38.172028
>>>>>End Processed Spectral Data<<<<<
