Jaz Data File
++++++++++++++++++++++++++++++++++++
Date: Wed Feb 07 06:41:47 2024
User: jaz
Dark Spectrum Present: Yes
Reference Spectrum Present: Yes
Processed Spectrum Present: Yes
Spectrometers: JAZA3692
Integration Time (usec): 40000 (JAZA3692)
Spectra Averaged: 1 (JAZA3692)
Boxcar Smoothing: 0 (JAZA3692)
Correct for Electrical Dark: No (JAZA3692)
Strobe/Lamp Enabled: Yes (JAZA3692)
Correct for Detector Non-linearity: No (JAZA3692)
Correct for Stray Light: No (JAZA3692)
Number of Pixels in Processed Spectrum: 2048
>>>>>Begin Processed Spectral Data<<<<<
W	D	R	S	P
190.244385	0.000000	0.000000	0.000000	0.000000
190.627136	0.000000	0.000000	0.000000	0.000000
191.009842	1133.209351	1160.515625	1094.525513	-141.666473
191.392532	1219.679199	1183.270874	1092.250000	350.000153
191.775177	1244.709839	1165.066650	1099.076538	182.857193
192.157791	1153.689087	1171.893188	1126.382813	-150.000671
192.540390	1174.168701	1199.199463	1171.893188	-9.090865
192.922943	1128.658325	1212.852539	1115.005249	-16.216169
193.305481	1171.893188	1212.852539	1144.586914	-66.666763
193.687958	1210.577026	1221.954712	1162.791138	-419.996552
194.070419	1153.689087	1167.342163	1158.240112	33.333332
194.452866	1206.026001	1203.750488	1155.964600	2200.005371
194.835251	1194.648438	1260.638550	1105.903076	-134.482819
195.217621	1242.434326	1187.821899	1199.199463	79.166710
195.599960	1226.505737	1178.719727	1221.954712	9.523761
195.982254	1228.781250	1260.638550	1176.444214	-164.285858
196.364517	1208.301514	1178.719727	1101.352051	361.538208
196.746750	1240.158813	1149.138062	1226.505737	14.999960
197.128952	1224.230225	1199.199463	1212.852539	45.454811
197.511139	1180.995239	1171.893188	1167.342163	150.000000
197.893280	1224.230225	1187.821899	1212.852539	31.250231
198.275391	1192.372925	1224.230225	1178.719727	-42.857361
198.657471	1206.026001	1251.536499	1183.270874	-49.999733
199.039520	1203.750488	1237.883301	1167.342163	-106.666641
199.421539	1208.301514	1210.577026	1201.474976	-300.000000
199.803513	1180.995239	1153.689087	1067.219238	416.667999
200.185471	1180.995239	1196.923950	1183.270874	14.286371
200.567383	1221.954712	1244.709839	1217.403687	-20.000000
200.949265	1119.556274	1208.301514	1162.791138	48.717953
201.331131	1167.342163	1199.199463	1124.107300	-135.714142
201.712967	1192.372925	1183.270874	1099.076538	1025.004028
202.094742	1176.444214	1171.893188	1219.679199	-950.005371
202.476517	1226.505737	1240.158813	1233.332275	50.000000
202.858231	1153.689087	1158.240112	1146.862427	-150.002686
203.239944	1183.270874	1167.342163	1167.342163	100.000000
203.621582	1192.372925	1190.097412	1185.546387	300.000000
204.003235	1237.883301	1194.648438	1251.536499	-31.579140
204.384827	1219.679199	1251.536499	1183.270874	-114.285660
204.766388	1167.342163	1228.781250	1144.586914	-37.037090
205.147934	1185.546387	1176.444214	1146.862427	424.996979
205.529449	1146.862427	1231.056763	1153.689087	8.108218
205.910904	1201.474976	1242.434326	1124.107300	-188.888916
206.292343	1117.280762	1201.474976	1105.903076	-13.513619
206.673767	1267.465088	1233.332275	1142.311401	366.666779
207.055115	1176.444214	1237.883301	1167.342163	-14.814756
207.436462	1251.536499	1199.199463	1121.831787	247.825867
207.817780	1151.413574	1224.230225	1169.617676	24.999916
208.199051	1235.607788	1217.403687	1210.577026	137.500671
208.580307	1080.872437	1219.679199	1130.933838	36.065536
208.961517	1212.852539	1187.821899	1140.035889	290.910065
209.342712	1174.168701	1215.128052	1160.515625	-33.333233
209.723846	1246.985352	1190.097412	1176.444214	124.000160
210.104965	1167.342163	1144.586914	1160.515625	29.999840
210.486069	1224.230225	1194.648438	1153.689087	238.461380
210.867111	1128.658325	1231.056763	1217.403687	86.666718
211.248123	1233.332275	1201.474976	1185.546387	149.999802
211.629120	1115.005249	1212.852539	1199.199463	86.046547
212.010071	1219.679199	1167.342163	1160.515625	113.043419
212.390991	1171.893188	1180.995239	1110.454102	-675.002686
212.771881	1126.382813	1187.821899	1149.138062	37.037090
213.152756	1208.301514	1265.189575	1140.035889	-119.999916
213.533569	1142.311401	1176.444214	1121.831787	-59.999786
213.914368	1165.066650	1137.760376	1126.382813	141.666473
214.295135	1215.128052	1174.168701	1171.893188	105.555542
214.675858	1128.658325	1151.413574	1140.035889	49.999733
215.056549	1203.750488	1160.515625	1089.974487	263.157990
215.437225	1124.107300	1199.199463	1153.689087	39.393974
215.817841	1212.852539	1237.883301	1124.107300	-354.544708
216.198441	1183.270874	1178.719727	1105.903076	1699.962402
216.579025	1183.270874	1242.434326	1135.484863	-80.769478
216.959549	1206.026001	1199.199463	1144.586914	900.003601
217.340057	1140.035889	1258.363037	1124.107300	-13.461483
217.720535	1217.403687	1146.862427	1124.107300	132.257904
218.100967	1135.484863	1235.607788	1151.413574	15.909155
218.481369	1190.097412	1169.617676	1119.556274	344.443573
218.861740	1226.505737	1185.546387	1144.586914	200.000305
219.242065	1231.056763	1274.291626	1194.648438	-84.210571
219.622391	1212.852539	1178.719727	1101.352051	326.666565
220.002670	1162.791138	1201.474976	1142.311401	-52.941326
220.382919	1146.862427	1217.403687	1094.525513	-74.193336
220.763123	1262.914063	1233.332275	1146.862427	392.307739
221.143295	1226.505737	1165.066650	1167.342163	96.296310
221.523453	1165.066650	1130.933838	1137.760376	80.000069
221.903549	1162.791138	1160.515625	1160.515625	100.000000
222.283630	1089.974487	1221.954712	1119.556274	22.413803
222.663696	1237.883301	1192.372925	1196.923950	90.000031
223.043701	1155.964600	1235.607788	1135.484863	-25.714359
223.423676	1158.240112	1206.026001	1146.862427	-23.809719
223.803635	1178.719727	1206.026001	1158.240112	-74.999664
224.183548	1190.097412	1165.066650	1190.097412	-0.000000
224.563431	1196.923950	1253.812012	1260.638550	111.999947
224.943283	1194.648438	1167.342163	1183.270874	41.666481
225.323105	1178.719727	1228.781250	1176.444214	-4.545433
225.702881	1215.128052	1210.577026	1096.801025	2600.008057
226.082642	1187.821899	1246.985352	1212.852539	42.307606
226.462357	1203.750488	1226.505737	1278.842651	329.999298
226.842041	1167.342163	1287.944824	1190.097412	18.867949
227.221695	1233.332275	1233.332275	1133.209351	0.000000
227.601318	1151.413574	1233.332275	1155.964600	5.555539
227.980911	1183.270874	1283.393677	1174.168701	-9.091009
228.360474	1237.883301	1206.026001	1212.852539	78.571510
228.739990	1167.342163	1242.434326	1128.658325	-51.515148
229.119476	1137.760376	1226.505737	1233.332275	107.692276
229.498932	1126.382813	1338.006226	1130.933838	2.150530
229.878372	1199.199463	1385.792114	1196.923950	-1.219508
230.257736	1190.097412	1472.261963	1201.474976	4.032244
230.637115	1133.209351	1426.751587	1187.821899	18.604664
231.016449	1190.097412	1372.139038	1162.791138	-15.000017
231.395737	1206.026001	1372.139038	1180.995239	-15.068511
231.774994	1199.199463	1299.322388	1171.893188	-27.272749
232.154221	1201.474976	1438.129150	1142.311401	-25.000013
232.533417	1171.893188	1240.158813	1119.556274	-76.666573
232.912582	1201.474976	1347.108276	1210.577026	6.249979
233.291702	1206.026001	1322.077637	1190.097412	-13.725432
233.670792	1201.474976	1285.669312	1144.586914	-67.567566
234.049866	1196.923950	1267.465088	1165.066650	-45.161308
234.428894	1144.586914	1347.108276	1158.240112	6.741609
234.807892	1174.168701	1317.526489	1146.862427	-19.047640
235.186874	1219.679199	1422.200562	1142.311401	-38.202290
235.565781	1151.413574	1429.027100	1167.342163	5.737685
235.944687	1174.168701	1397.169800	1162.791138	-5.102021
236.323547	1135.484863	1347.108276	1121.831787	-6.451591
236.702377	1160.515625	1342.557251	1171.893188	6.249979
237.081177	1155.964600	1388.067749	1194.648438	16.666658
237.459946	1119.556274	1417.649414	1121.831787	0.763356
237.838669	1267.465088	1344.832764	1162.791138	-135.294159
238.217361	1149.138062	1342.557251	1165.066650	8.235269
238.596039	1217.403687	1278.842651	1112.729614	-170.370819
238.974670	1160.515625	1315.250977	1169.617676	5.882334
239.353271	1208.301514	1383.516602	1160.515625	-27.272701
239.731842	1149.138062	1422.200562	1190.097412	14.999991
240.110367	1180.995239	1335.730713	1115.005249	-42.646969
240.488876	1187.821899	1422.200562	1228.781250	17.475716
240.867340	1201.474976	1390.343262	1160.515625	-21.686728
241.245789	1219.679199	1438.129150	1278.842651	27.083298
241.624176	1089.974487	1508.670288	1221.954712	31.521746
242.002548	1171.893188	1413.098389	1242.434326	29.245281
242.380890	1155.964600	1542.803101	1190.097412	8.823530
242.759186	1210.577026	1672.507813	1180.995239	-6.403944
243.137451	1171.893188	1788.559326	1242.434326	11.439114
243.515686	1158.240112	1784.008301	1165.066650	1.090905
243.893890	1140.035889	1733.946899	1237.883301	16.475096
244.272049	1160.515625	1790.834839	1190.097412	4.693144
244.650192	1135.484863	1686.160889	1130.933838	-0.826443
245.028290	1221.954712	1647.477051	1312.975464	21.390358
245.406357	1103.627563	1642.926025	1253.812012	27.848114
245.784393	1171.893188	1654.303589	1215.128052	8.962257
246.162384	1208.301514	1570.109375	1192.372925	-4.402499
246.540359	1219.679199	1661.130127	1158.240112	-13.917535
246.918289	1167.342163	1722.569214	1203.750488	6.557376
247.296204	1130.933838	1909.161987	1221.954712	11.695911
247.674057	1208.301514	2143.540527	1242.434326	3.649635
248.051895	1183.270874	2275.520752	1319.802124	12.500001
248.429703	1244.709839	2387.021240	1256.087524	0.996023
248.807465	1153.689087	2341.510986	1301.597900	12.452104
249.185196	1185.546387	2177.673340	1215.128052	2.981641
249.562897	1178.719727	2038.866699	1217.403687	4.497366
249.940567	1199.199463	1929.641602	1192.372925	-0.934576
250.318192	1174.168701	1925.090576	1283.393677	14.545451
250.695801	1203.750488	1790.834839	1253.812012	8.527143
251.073349	1165.066650	1688.436401	1221.954712	10.869574
251.450882	1155.964600	1697.538574	1221.954712	12.184875
251.828400	1203.750488	1793.110352	1135.484863	-11.583013
252.205872	1201.474976	1749.875488	1174.168701	-4.979258
252.583313	1169.617676	1752.151001	1240.158813	12.109374
252.960693	1101.352051	1881.855713	1194.648438	11.953357
253.338074	1151.413574	1906.886475	1212.852539	8.132518
253.715408	1185.546387	1897.784302	1212.852539	3.833853
254.092682	1180.995239	1836.345337	1221.954712	6.250014
254.469955	1180.995239	1774.906250	1276.567139	16.091957
254.847198	1190.097412	1642.926025	1192.372925	0.502511
255.224365	1165.066650	1706.640625	1267.465088	18.907562
255.601563	1217.403687	1638.375000	1228.781250	2.702693
255.978683	1192.372925	1672.507813	1219.679199	5.687209
256.355743	1140.035889	1636.099487	1242.434326	20.642199
256.732819	1183.270874	1713.467163	1196.923950	2.575099
257.109894	1206.026001	1729.395752	1224.230225	3.478272
257.486877	1158.240112	1722.569214	1272.016113	20.161285
257.863831	1208.301514	1772.630737	1235.607788	4.838714
258.240753	1171.893188	1861.375977	1249.260864	11.221118
258.617645	1178.719727	1834.069824	1283.393677	15.972219
258.994507	1112.729614	1961.498901	1240.158813	15.013409
259.371307	1171.893188	2070.723877	1219.679199	5.316464
259.748108	1128.658325	2202.704102	1219.679199	8.474581
260.124878	1112.729614	2380.194824	1358.485962	19.389593
260.501617	1169.617676	2614.573486	1262.914063	6.456695
260.878296	1162.791138	2728.349365	1365.312500	12.936048
261.254944	1194.648438	2960.452637	1454.057739	14.690718
261.631561	1135.484863	2883.084961	1340.281738	11.718749
262.008179	1117.280762	2639.604248	1344.832764	14.947678
262.384735	1174.168701	2341.510986	1367.588013	16.569202
262.761261	1124.107300	2189.051025	1226.505737	9.615385
263.137695	1105.903076	2050.244141	1290.220337	19.518082
263.514191	1174.168701	2070.723877	1326.628662	17.005083
263.890594	1190.097412	2107.132324	1297.046875	11.662529
264.267029	1215.128052	1938.743774	1192.372925	-3.144642
264.643341	1192.372925	2041.142212	1203.750488	1.340478
265.019653	1185.546387	1922.815063	1221.954712	4.938271
265.395935	1169.617676	2007.009399	1199.199463	3.532610
265.772217	1212.852539	1986.529663	1253.812012	5.294130
266.148407	1158.240112	1929.641602	1224.230225	8.554574
266.524597	1144.586914	2068.448486	1283.393677	15.024628
266.900726	1146.862427	2109.407715	1272.016113	13.002369
267.276855	1219.679199	2136.714111	1219.679199	0.000000
267.652924	1085.423462	2327.857666	1235.607788	12.087910
268.028992	1140.035889	2298.276123	1251.536499	9.626726
268.404999	1217.403687	2239.112549	1333.455200	11.358570
268.781006	1194.648438	2223.183838	1251.536499	5.530978
269.156921	1174.168701	2268.694336	1285.669312	10.187118
269.532837	1231.056763	2266.418701	1192.372925	-3.736262
269.908661	1203.750488	2273.245361	1192.372925	-1.063826
270.284546	1160.515625	2264.143311	1165.066650	0.412370
270.660339	1146.862427	2316.480225	1292.495850	12.451368
271.036133	1183.270874	2227.734863	1312.975464	12.418292
271.411835	1187.821899	2250.489990	1303.873413	10.920768
271.787537	1180.995239	2489.419678	1251.536499	5.391313
272.163239	1130.933838	2744.278076	1274.291626	8.885754
272.538849	1160.515625	2924.044189	1338.006226	10.064515
272.914459	1108.178589	2703.318604	1278.842651	10.699002
273.290070	1208.301514	2666.910400	1292.495850	5.772235
273.665588	1190.097412	2571.338623	1335.730713	10.543654
274.041046	1142.311401	2594.093750	1324.353149	12.539190
274.416565	1226.505737	2464.388916	1312.975464	6.985290
274.791962	1167.342163	2525.828125	1283.393677	8.542709
275.167389	1124.107300	2402.949951	1301.597900	13.879003
275.542755	1203.750488	2482.593262	1363.036987	12.455519
275.918060	1178.719727	2514.450439	1249.260864	5.281090
276.293365	1155.964600	2532.654541	1249.260864	6.776854
276.668640	1158.240112	2377.919189	1363.036987	16.791046
277.043854	1087.698975	2421.154053	1328.904175	18.088737
277.419037	1215.128052	2503.072998	1338.006226	9.540639
277.794189	1194.648438	2564.511963	1281.118164	6.312288
278.169312	1183.270874	2625.950928	1303.873413	8.359618
278.544373	1115.005249	2539.481201	1258.363037	10.063897
278.919464	1251.536499	2491.695313	1249.260864	-0.183495
279.294464	1151.413574	2553.134277	1267.465088	8.279218
279.669464	1133.209351	2498.521729	1283.393677	10.999997
280.044403	1146.862427	2466.664551	1292.495850	11.034490
280.419312	1190.097412	2414.327637	1317.526489	10.408915
280.794189	1167.342163	2582.716064	1292.495850	8.842447
281.169037	1158.240112	2559.960938	1258.363037	7.142858
281.543854	1196.923950	2591.818115	1297.046875	7.177815
281.918671	1196.923950	2716.971924	1285.669312	5.838326
282.293365	1171.893188	2883.084961	1303.873413	7.712767
282.668091	1206.026001	2880.809326	1292.495850	5.163047
283.042786	1192.372925	2949.074951	1383.516602	10.880825
283.417419	1192.372925	3076.504150	1299.322388	5.676328
283.792053	1217.403687	2949.074951	1372.139038	8.935608
284.166595	1221.954712	2773.859863	1356.210449	8.651028
284.541138	1126.382813	2801.166016	1367.588013	14.402175
284.915619	1199.199463	2835.298828	1342.557251	8.762169
285.290100	1101.352051	2880.809326	1426.751587	18.286448
285.664520	1167.342163	2949.074951	1413.098389	13.793102
286.038940	1160.515625	2953.625977	1403.996338	13.578680
286.413300	1167.342163	2983.207764	1360.761475	10.651631
286.787628	1135.484863	3242.617188	1419.924927	13.498918
287.161896	1190.097412	3342.739990	1369.863525	8.350950
287.536194	1217.403687	3315.433838	1392.618774	8.351409
287.910400	1137.760376	3183.453613	1472.261963	16.351503
288.284607	1190.097412	3008.238525	1349.383789	8.760947
288.658752	1142.311401	2924.044189	1403.996338	14.687103
289.032867	1165.066650	2796.614990	1476.812988	19.107391
289.406921	1137.760376	2976.381104	1449.506714	16.955446
289.781006	1067.219238	2867.156250	1442.680176	20.859671
290.154999	1155.964600	2930.870850	1499.568237	19.358974
290.529022	1162.791138	2971.830078	1451.782227	15.974841
290.902954	1149.138062	3178.902588	1454.057739	15.022416
291.276825	1185.546387	3162.973877	1554.180664	18.642113
291.650757	1133.209351	3376.872803	1570.109375	19.472618
292.024597	1201.474976	3269.923340	1465.435425	12.761279
292.398407	1174.168701	3208.484375	1540.527588	18.008949
292.772156	1185.546387	3060.575439	1647.477051	24.635920
293.145905	1199.199463	3081.055176	1590.588989	20.798063
293.519592	1146.862427	3003.687500	1556.456177	22.058823
293.893280	1167.342163	3001.411865	1481.364014	17.121588
294.266907	1203.750488	3094.708252	1474.537476	14.320097
294.640533	1128.658325	3188.004639	1549.629639	20.441988
295.014069	1128.658325	3365.495361	1572.384888	19.837233
295.387604	1144.586914	3379.148438	1647.477051	22.505093
295.761078	1196.923950	3558.914551	1629.272949	18.304432
296.134552	1176.444214	3502.026611	1606.517700	18.493151
296.507996	1212.852539	3476.995850	1576.935913	16.080402
296.881378	1242.434326	3476.995850	1604.242188	16.191448
297.254730	1160.515625	3647.659912	1704.365112	21.866423
297.628021	1221.954712	3957.130615	1765.804199	19.883530
298.001282	1194.648438	3866.109863	1729.395752	20.017033
298.374573	1176.444214	3963.957275	1731.671387	19.918369
298.747803	1108.178589	3727.302979	1686.160889	22.067768
299.121002	1155.964600	3709.098877	1633.823975	18.716578
299.494141	1162.791138	3536.159424	1658.854614	20.901245
299.867188	1115.005249	3602.149414	1715.742676	24.153706
300.240265	1176.444214	3483.822266	1702.089600	22.781071
300.613312	1124.107300	3333.637939	1608.793213	21.936148
300.986328	1149.138062	3308.607178	1588.313477	20.337193
301.359314	1206.026001	3374.597412	1556.456177	16.159494
301.732239	1215.128052	3283.576416	1540.527588	15.731578
302.105103	1169.617676	3231.239502	1617.895264	21.743929
302.477997	1183.270874	3281.301025	1565.558350	18.221256
302.850830	1140.035889	3322.260254	1608.793213	21.480711
303.223602	1133.209351	3210.759766	1463.159912	15.881712
303.596375	1196.923950	3108.361328	1590.588989	20.595236
303.969116	1087.698975	3065.126465	1638.375000	27.848103
304.341766	1196.923950	3026.442627	1538.252075	18.656717
304.714478	1135.484863	3140.218750	1529.150024	19.636780
305.087067	1196.923950	2987.758789	1574.660400	21.092758
305.459656	1201.474976	3233.515137	1570.109375	18.141098
305.832214	1208.301514	3128.841064	1586.037964	19.668247
306.204681	1171.893188	3147.045166	1586.037964	20.967743
306.577148	1185.546387	3069.677490	1606.517700	22.342995
306.949646	1174.168701	3124.290039	1604.242188	22.053679
307.322021	1185.546387	3074.228516	1561.007324	19.879520
307.694397	1210.577026	3149.320801	1556.456177	17.840374
308.066742	1144.586914	3165.249512	1520.047852	18.581079
308.439026	1133.209351	3156.147461	1540.527588	20.134983
308.811279	1130.933838	3342.739990	1524.598877	17.798351
309.183502	1176.444214	3376.872803	1574.660400	18.097210
309.555695	1117.280762	3429.209961	1647.477051	22.933067
309.927887	1192.372925	3445.138428	1645.201538	20.101009
310.299988	1171.893188	3422.383301	1604.242188	19.211325
310.672058	1194.648438	3495.199951	1649.752563	19.782393
311.044128	1210.577026	3524.781738	1688.436401	20.648968
311.416168	1212.852539	3497.475586	1670.232300	20.019922
311.788147	1185.546387	3470.169189	1595.140137	17.928288
312.160065	1258.363037	3506.577637	1695.262939	19.433193
312.531982	1233.332275	3506.577637	1567.833862	14.714715
312.903870	1194.648438	3379.148438	1640.650513	20.416666
313.275696	1199.199463	3345.015625	1642.926025	20.678684
313.647491	1144.586914	3356.393066	1652.028076	22.942389
314.019318	1165.066650	3276.750000	1611.068726	21.120689
314.391022	1237.883301	3299.505127	1620.170776	18.543045
314.762726	1158.240112	3331.362549	1533.701050	17.277485
315.134369	1194.648438	3604.425049	1702.089600	21.057602
315.505981	1160.515625	3572.567627	1629.272949	19.433964
315.877594	1171.893188	3690.894775	1652.028076	19.060524
316.249146	1115.005249	3558.914551	1606.517700	20.111731
316.620636	1196.923950	3322.260254	1674.783325	22.483940
316.992157	1140.035889	3345.015625	1640.650513	22.703819
317.363586	1185.546387	3190.280273	1554.180664	18.388189
317.735016	1206.026001	3201.657715	1592.864502	19.384264
318.106354	1206.026001	3156.147461	1579.211426	19.136522
318.477722	1167.342163	3231.239502	1581.486938	20.066151
318.849060	1162.791138	3240.341553	1517.772339	17.086527
319.220306	1183.270874	3251.719238	1570.109375	18.701870
319.591522	1215.128052	3404.179199	1611.068726	18.087318
319.962738	1178.719727	3399.628174	1601.966675	19.057379
320.333923	1126.382813	3347.291016	1601.966675	21.413937
320.705017	1212.852539	3292.678711	1581.486938	17.724289
321.076111	1190.097412	3440.587402	1520.047852	14.661271
321.447144	1269.740601	3256.270264	1515.496826	12.371133
321.818176	1219.679199	3276.750000	1590.588989	18.030968
322.189178	1210.577026	3092.432861	1463.159912	13.422010
322.560120	1135.484863	3317.709229	1549.629639	18.978102
322.931030	1190.097412	3301.780762	1499.568237	14.655172
323.301910	1162.791138	3322.260254	1413.098389	11.591146
323.672729	1128.658325	3529.332764	1554.180664	17.725117
324.043549	1249.260864	3629.455566	1606.517700	15.009562
324.414337	1130.933838	3649.935303	1617.895264	19.331526
324.785095	1140.035889	3884.313965	1588.313477	16.334991
325.155792	1115.005249	3927.548828	1654.303589	19.174755
325.526428	1217.403687	3909.344727	1672.507813	16.906170
325.897034	1149.138062	3891.140625	1652.028076	18.340246
326.267670	1105.903076	3831.977051	1608.793213	18.447412
326.638184	1221.954712	3813.772949	1629.272949	15.715540
327.008728	1155.964600	3879.762939	1588.313477	15.873013
327.379211	1215.128052	3779.640137	1656.579102	17.213840
327.749634	1176.444214	3688.619141	1572.384888	15.760873
328.120026	1151.413574	3661.312988	1592.864502	17.588390
328.490417	1224.230225	3656.761963	1654.303589	17.680073
328.860748	1174.168701	3686.343750	1531.425537	14.221017
329.231079	1212.852539	3529.332764	1620.170776	17.583498
329.601318	1203.750488	3538.434814	1574.660400	15.886941
329.971558	1128.658325	3661.312988	1561.007324	17.070980
330.341736	1190.097412	3627.180176	1567.833862	15.499533
330.711914	1190.097412	3695.445801	1542.803101	14.078110
331.082062	1133.209351	3645.384277	1547.354126	16.485508
331.452148	1180.995239	3722.751953	1601.966675	16.562223
331.822174	1094.525513	3461.067139	1499.568237	17.115387
332.192200	1158.240112	3745.507324	1588.313477	16.622688
332.562134	1171.893188	3740.956299	1599.691162	16.651907
332.932129	1171.893188	3800.119629	1640.650513	17.835499
333.302063	1174.168701	3900.242676	1538.252075	13.355594
333.671906	1165.066650	3979.885986	1640.650513	16.895716
334.041718	1190.097412	4098.212891	1599.691162	14.084508
334.411499	1155.964600	4102.764160	1681.609863	17.837835
334.781281	1221.954712	4027.671875	1715.742676	17.599348
335.151001	1183.270874	4075.457764	1727.120239	18.804087
335.520721	1149.138062	4004.916504	1620.170776	16.494022
335.890350	1142.311401	3993.539063	1674.783325	18.675182
336.259979	1187.821899	4016.294189	1611.068726	14.963797
336.629547	1160.515625	3911.620361	1608.793213	16.294456
336.999084	1137.760376	4016.294189	1658.854614	18.102766
337.368622	1130.933838	4000.365479	1565.558350	15.146710
337.738098	1249.260864	3943.477539	1604.242188	13.175677
338.107513	1194.648438	3991.263428	1556.456177	12.937346
338.476898	1219.679199	3950.304199	1579.211426	13.166664
338.846252	1158.240112	4027.671875	1663.405762	17.605078
339.215576	1151.413574	4064.080078	1692.987427	18.593748
339.584869	1219.679199	4127.794922	1595.140137	12.910798
339.954132	1185.546387	3970.783691	1674.783325	17.565359
340.323334	1167.342163	3925.273438	1583.762451	15.099010
340.692505	1165.066650	3948.028564	1576.935913	14.799673
341.061646	1206.026001	3879.762939	1677.058838	17.617023
341.430786	1121.831787	4027.671875	1551.905151	14.800311
341.799896	1176.444214	3973.059326	1654.303589	17.087061
342.168915	1178.719727	4116.416992	1763.528564	19.907049
342.537903	1144.586914	4168.753906	1620.170776	15.726111
342.906830	1226.505737	4166.478516	1592.864502	12.461298
343.275757	1233.332275	4400.857422	1604.242188	11.709770
343.644684	1208.301514	4409.959473	1629.272949	13.148545
344.013550	1231.056763	4289.356934	1654.303589	13.839283
344.382355	1201.474976	4498.704590	1654.303589	13.733609
344.751129	1176.444214	4785.420410	1754.426514	16.015133
345.119873	1128.658325	4871.890137	1715.742676	15.683889
345.488586	1149.138062	4940.155762	1809.039063	17.406961
345.857269	1165.066650	5019.798828	1715.742676	14.285714
346.225891	1244.709839	5292.861328	1747.599976	12.422710
346.594482	1190.097412	5199.564941	1779.457275	14.699205
346.963043	1174.168701	5179.085449	1720.293701	13.636363
347.331543	1194.648438	5012.972168	1756.702026	14.719904
347.700043	1103.627563	4815.001953	1702.089600	16.125078
348.068512	1162.791138	4651.164551	1604.242188	12.654924
348.436951	1212.852539	4544.214844	1702.089600	14.685796
348.805328	1158.240112	4610.205078	1692.987427	15.491099
349.173645	1099.076538	4478.225098	1674.783325	17.037037
349.541931	1144.586914	4580.623535	1688.436401	15.827814
349.910217	1187.821899	4667.093262	1640.650513	13.015041
350.278473	1208.301514	4753.562988	1740.773438	15.019257
350.646667	1153.689087	4824.104004	1756.702026	16.429012
351.014801	1165.066650	4903.747559	1720.293701	14.850881
351.382935	1178.719727	4794.522461	1756.702026	15.984896
351.751007	1112.729614	4892.369629	1683.885376	15.111380
352.119049	1183.270874	4917.400391	1670.232300	13.040829
352.487091	1190.097412	4853.686035	1731.671387	14.782609
352.855072	1237.883301	5010.696777	1713.467163	12.605549
353.222992	1210.577026	5076.687012	1733.946899	13.537377
353.590881	1187.821899	5012.972168	1740.773438	14.455681
353.958740	1178.719727	5113.095215	1777.181763	15.211106
354.326599	1217.403687	5272.381836	1745.324463	13.019078
354.694397	1110.454102	5454.423340	1802.212524	15.924570
355.062134	1187.821899	5581.852539	1811.314575	14.189538
355.429840	1190.097412	5452.147949	1856.824951	15.643351
355.797516	1185.546387	5606.883301	1822.692139	14.410704
356.165192	1235.607788	5854.915039	1827.243164	12.807881
356.532776	1194.648438	5934.558105	1806.763550	12.914067
356.900360	1169.617676	6091.569336	1829.518677	13.407304
357.267883	1169.617676	6234.926758	1927.366089	14.959569
357.635376	1249.260864	6548.948730	2068.448486	15.457280
358.002808	1160.515625	6874.348145	1963.774414	14.058144
358.370270	1144.586914	7145.135254	2066.172852	15.358362
358.737640	1228.781250	7190.645508	1997.907227	12.900763
359.105011	1187.821899	7074.594238	2063.897461	14.882103
359.472321	1162.791138	6715.062012	2034.315552	15.696720
359.839569	1178.719727	6599.010254	1938.743774	14.021832
360.206787	1160.515625	6564.877441	2002.458252	15.578946
360.574005	1144.586914	6808.358398	1950.121338	14.222580
360.941193	1124.107300	7136.033203	2022.937988	14.950795
361.308319	1201.474976	7648.025391	2118.509766	14.225202
361.675415	1167.342163	8053.068359	2216.357178	15.234632
362.042450	1174.168701	8631.050781	2186.775391	13.579493
362.409424	1171.893188	9054.296875	2350.613037	14.953812
362.776428	1174.168701	9184.001953	2432.531738	15.710228
363.143402	1196.923950	8726.622070	2302.827148	14.687218
363.510284	1206.026001	8291.998047	2216.357178	14.258187
363.877136	1144.586914	7534.249512	2127.612061	15.384618
364.243988	1142.311401	7004.053223	1977.427612	14.246896
364.610779	1244.709839	6760.572266	2070.723877	14.975247
364.977539	1208.301514	6587.632813	1979.703125	14.340103
365.344269	1176.444214	6314.570313	1961.498901	15.279008
365.710938	1128.658325	6294.090332	1861.375977	14.185021
366.077576	1151.413574	6257.682129	1802.212524	12.745098
366.444183	1231.056763	6191.691895	1902.335449	13.532111
366.810760	1142.311401	6148.457031	1988.805176	16.909092
367.177277	1246.985352	6153.008301	1888.682251	13.079778
367.543823	1171.893188	6050.609863	1963.774414	16.231342
367.910248	1212.852539	6209.896484	1913.713013	14.025501
368.276642	1176.444214	6039.232422	1902.335449	14.927470
368.643036	1199.199463	5957.313477	1906.886475	14.873266
369.009399	1149.138062	5955.038086	1829.518677	14.157195
369.375671	1158.240112	5852.639648	1774.906250	13.136209
369.741974	1180.995239	5729.761230	1897.784302	15.757879
370.108215	1162.791138	5873.119141	1811.314575	13.768116
370.474396	1203.750488	5823.057617	1886.406738	14.778326
370.840546	1180.995239	5866.292480	1890.957764	15.152987
371.206665	1160.515625	5993.721680	1922.815063	15.772128
371.572784	1169.617676	6121.150879	1893.233276	14.613971
371.938843	1140.035889	6298.641602	2013.835938	16.938686
372.304840	1121.831787	6303.192383	1895.508789	14.931928
372.670807	1180.995239	6269.059570	1984.254150	15.787122
373.036713	1167.342163	6200.793945	1836.345337	13.291142
373.402649	1165.066650	6107.498047	1904.610962	14.963167
373.768524	1155.964600	6225.824707	1913.713013	14.946139
374.134308	1169.617676	6121.150879	1954.672363	15.854780
374.500122	1140.035889	6250.855469	1888.682251	14.648265
374.865875	1135.484863	6289.539551	1938.743774	15.584991
375.231567	1262.914063	6139.354980	1849.998413	12.039198
375.597260	1140.035889	6350.978516	1943.294800	15.414849
375.962891	1171.893188	6576.254883	2004.733887	15.410528
376.328461	1160.515625	6803.807129	1950.121338	13.991936
376.694031	1167.342163	6926.685547	1950.121338	13.591466
377.059540	1201.474976	7183.819336	2095.754639	14.948649
377.425049	1121.831787	7468.259277	2093.479248	15.310147
377.790497	1246.985352	7538.800293	2132.163086	14.068719
378.155945	1142.311401	8043.965820	2136.714111	14.408179
378.521301	1153.689087	7784.556641	2057.070801	13.623884
378.886597	1219.679199	7636.647949	2072.999512	13.297873
379.251892	1194.648438	7365.860840	2086.652588	14.454277
379.617157	1149.138062	6949.440430	2045.693237	15.457043
379.982422	1135.484863	6872.072754	1954.672363	14.280048
380.347595	1210.577026	6844.766602	1888.682251	12.035542
380.712738	1180.995239	6685.479980	1922.815063	13.476644
381.077820	1174.168701	6844.766602	2009.284912	14.727129
381.442902	1210.577026	6944.889648	1970.601074	13.253970
381.807953	1135.484863	6808.358398	1997.907227	15.202566
382.172974	1169.617676	6883.450195	1977.427612	14.137795
382.537933	1165.066650	6669.551270	2050.244141	16.081024
382.902832	1240.158813	6812.909180	1941.019287	12.576563
383.267700	1185.546387	6851.593262	1972.876587	13.895582
383.632538	1199.199463	6856.144043	1977.427612	13.757041
383.997345	1180.995239	7101.900391	2002.458252	13.873942
384.362152	1155.964600	7172.441406	1995.631714	13.956127
384.726898	1219.679199	7402.269043	2107.132324	14.354068
385.091553	1174.168701	7399.993652	2016.111450	13.523392
385.456238	1158.240112	7568.382324	2007.009399	13.241037
385.820862	1153.689087	7570.657715	2036.591064	13.758863
386.185425	1167.342163	7477.361328	2082.101563	14.496936
386.549988	1231.056763	7440.953125	2079.825928	13.668008
386.914490	1199.199463	7636.647949	2113.958740	14.209967
387.278961	1215.128052	7877.853027	2016.111450	12.021859
387.643372	1133.209351	7773.179199	2038.866699	13.639480
388.007782	1137.760376	7925.639160	2061.621826	13.610458
388.372101	1158.240112	7836.893555	2007.009399	12.708689
388.736450	1194.648438	7855.097656	2093.479248	13.495048
389.100739	1121.831787	7704.913574	2013.835938	13.549948
389.464966	1201.474976	7723.117676	2011.560425	12.421494
389.829163	1171.893188	7745.873047	1991.080688	12.461059
390.193329	1171.893188	7693.535645	2050.244141	13.468247
390.557495	1085.423462	7814.138672	1925.090576	12.478862
390.921570	1158.240112	7759.525879	1981.978638	12.478456
391.285614	1183.270874	7914.261230	2029.764526	12.576064
391.649597	1155.964600	8460.386719	2095.754639	12.866043
392.013550	1119.556274	8910.939453	2173.122314	13.522195
392.377502	1219.679199	9049.746094	2164.020264	12.060447
392.741455	1171.893188	8844.949219	2218.632813	13.641756
393.105316	1105.903076	8892.735352	2179.948975	13.793105
393.469086	1187.821899	8867.704102	2095.754639	11.822222
393.832886	1165.066650	8521.825195	2036.591064	11.846581
394.196655	1171.893188	8703.867188	2157.193604	13.081570
394.560333	1203.750488	8867.704102	2111.683350	11.846795
394.924042	1140.035889	8935.969727	2047.968750	11.646236
395.287659	1160.515625	8979.205078	2041.142212	11.263097
395.651245	1206.026001	8983.755859	2029.764526	10.590989
396.014771	1153.689087	8685.663086	2061.621826	12.054379
396.378296	1210.577026	8285.170898	2029.764526	11.579287
396.741791	1219.679199	8271.518555	2032.040039	11.519843
397.105255	1217.403687	8125.884766	2016.111450	11.561265
397.468628	1169.617676	7859.648926	1963.774414	11.870748
397.832001	1142.311401	7736.770508	1913.713013	11.697724
398.195313	1217.403687	8194.150391	1988.805176	11.056751
398.558624	1210.577026	7984.802734	1900.059814	10.178031
398.921844	1194.648438	8012.108887	2025.213501	12.182910
399.285095	1192.372925	7907.434570	1963.774414	11.487631
399.648254	1226.505737	8050.792480	1929.641602	10.303434
400.011383	1221.954712	8251.038086	1913.713013	9.841372
400.374451	1267.465088	8078.098633	2013.835938	10.958904
400.737549	1160.515625	8198.701172	1993.356201	11.833172
401.100586	1140.035889	8112.231445	1890.957764	10.770236
401.463562	1212.852539	7893.781738	1888.682251	10.115804
401.826508	1144.586914	8428.529297	1915.988525	10.590441
402.189392	1180.995239	7882.404297	1861.375977	10.152801
402.552246	1206.026001	8200.976563	1941.019287	10.507483
402.915070	1158.240112	8355.711914	1954.672363	11.065445
403.277893	1208.301514	8508.171875	1888.682251	9.320450
403.640656	1176.444214	8501.345703	1922.815063	10.189501
404.003326	1144.586914	8753.928711	2002.458252	11.273923
404.366028	1096.801025	9033.817383	2052.519775	12.041285
404.728699	1158.240112	9172.624023	1947.845825	9.852357
405.091248	1190.097412	9427.482422	2016.111450	10.027625
405.453857	1203.750488	9372.870117	2047.968750	10.334263
405.816345	1130.933838	9479.819336	1993.356201	10.329790
406.178833	1160.515625	9204.481445	2036.591064	10.891088
406.541260	1215.128052	9536.708008	1988.805176	9.297238
406.903687	1192.372925	9120.287109	1820.416626	7.921929
407.266052	1306.148926	8826.745117	1956.947876	8.653555
407.628387	1240.158813	8979.205078	1877.304688	8.232873
407.990662	1208.301514	8954.174805	1877.304688	8.636898
408.352905	1167.342163	8940.521484	1868.202637	9.016394
408.715118	1135.484863	8872.255859	1925.090576	10.205882
409.077332	1206.026001	8869.980469	1834.069824	8.194775
409.439484	1176.444214	8776.683594	1852.273926	8.892217
409.801575	1224.230225	8708.417969	1900.059814	9.030100
410.163605	1217.403687	8935.969727	1904.610962	8.903302
410.525635	1212.852539	9388.798828	1893.233276	8.321737
410.887604	1224.230225	9591.320313	1881.855713	7.859668
411.249573	1260.638550	9466.166992	1845.447388	7.127010
411.611481	1119.556274	9372.870117	1795.385864	8.188585
411.973328	1153.689087	9379.696289	1824.967651	8.160442
412.335144	1203.750488	9427.482422	1793.110352	7.166574
412.696930	1201.474976	9277.297852	1758.977539	6.903353
413.058685	1237.883301	9143.042969	1786.283813	6.937248
413.420410	1133.209351	9193.104492	1727.120239	7.368717
413.782104	1185.546387	9181.726563	1743.048950	6.972111
414.143707	1162.791138	9186.277344	1697.538574	6.664777
414.505310	1192.372925	9270.471680	1761.253052	7.042253
414.866852	1203.750488	9320.533203	1784.008301	7.148865
415.228394	1135.484863	9488.921875	1777.181763	7.681830
415.589874	1142.311401	9620.902344	1809.039063	7.863661
415.951324	1224.230225	9807.495117	1777.181763	6.442205
416.312683	1187.821899	10253.497070	1799.937012	6.752008
416.674072	1228.781250	10267.149414	1745.324463	5.715005
417.035370	1121.831787	10644.886719	1811.314575	7.240143
417.396667	1151.413574	10688.121094	1786.283813	6.657122
417.757935	1140.035889	10669.916992	1836.345337	7.306592
418.119141	1203.750488	11222.868164	1827.243164	6.223030
418.480286	1196.923950	11498.207031	1938.743774	7.201237
418.841400	1137.760376	12032.954102	1877.304688	6.787804
419.202484	1171.893188	12369.731445	1943.294800	6.888844
419.563568	1194.648438	12952.264648	1909.161987	6.077027
419.924591	1130.933838	13537.073242	1986.529663	6.896552
420.285553	1199.199463	13839.717773	1979.703125	6.174617
420.646484	1158.240112	14913.763672	2016.111450	6.236559
421.007355	1142.311401	14695.313477	1966.049927	6.077905
421.368225	1140.035889	16028.768555	1995.631714	5.746600
421.729065	1140.035889	16040.146484	2029.764526	5.971289
422.089874	1112.729614	16411.056641	2059.346436	6.187715
422.450592	1199.199463	16652.261719	2093.479248	5.787072
422.811279	1171.893188	16281.351563	2029.764526	5.677711
423.171936	1183.270874	16040.146484	2066.172852	5.942716
423.532593	1133.209351	16067.452148	2052.519775	6.155722
423.893127	1167.342163	16390.576172	2038.866699	5.724963
424.253723	1149.138062	16395.126953	2120.785400	6.373134
424.614197	1174.168701	16490.699219	2095.754639	6.016937
424.974670	1217.403687	17150.599609	2145.816162	5.826907
425.335052	1162.791138	17489.652344	2098.030273	5.728224
425.695496	1155.964600	16431.535156	2086.652588	6.092656
426.055817	1180.995239	16540.759766	2177.673340	6.488889
426.416168	1140.035889	16602.199219	2079.825928	6.077999
426.776398	1162.791138	15680.614258	2036.591064	6.018808
427.136627	1194.648438	14765.854492	2057.070801	6.354795
427.496826	1178.719727	14777.232422	2057.070801	6.459170
427.856995	1178.719727	14313.025391	1997.907227	6.237007
428.217102	1240.158813	13534.797852	1938.743774	5.682029
428.577179	1208.301514	13518.869141	2082.101563	7.097967
428.937195	1135.484863	13380.062500	2047.968750	7.452147
429.297180	1169.617676	12576.803711	1941.019287	6.762418
429.657135	1160.515625	12686.028320	1929.641602	6.673247
430.017059	1121.831787	13254.908203	1970.601074	6.995500
430.376984	1237.883301	12588.180664	1920.539551	6.014435
430.736786	1158.240112	12306.016602	1861.375977	6.307409
431.096588	1208.301514	12608.661133	1904.610962	6.107785
431.456360	1130.933838	12588.180664	1959.223389	7.229394
431.816071	1219.679199	12492.609375	1843.171875	5.530884
432.175781	1185.546387	12321.945313	1929.641602	6.681651
432.535400	1146.862427	12595.007813	1950.121338	7.016498
432.895020	1169.617676	12201.342773	1820.416626	5.899340
433.254578	1185.546387	12508.538086	1852.273926	5.888263
433.614105	1180.995239	12647.344727	1836.345337	5.715421
433.973602	1194.648438	13111.550781	1893.233276	5.862134
434.333038	1151.413574	13075.142578	1997.907227	7.099236
434.692444	1085.423462	13068.316406	1829.518677	6.209646
435.051819	1137.760376	13480.185547	1945.570313	6.544986
435.411133	1256.087524	13234.428711	1952.396851	5.813070
435.770416	1178.719727	12806.630859	1890.957764	6.125245
436.129669	1096.801025	13234.428711	1868.202637	6.355456
436.488861	1165.066650	12790.702148	1827.243164	5.695830
436.848083	1124.107300	12836.212891	1888.682251	6.528074
437.207184	1185.546387	12861.243164	1743.048950	4.774898
437.566254	1258.363037	13216.224609	1859.100464	5.023787
437.925293	1246.985352	13220.775391	1763.528564	4.313949
438.284363	1203.750488	13512.042969	1838.620850	5.158070
438.643311	1237.883301	13523.419922	1802.212524	4.593444
439.002258	1258.363037	13355.031250	1938.743774	5.624530
439.361145	1171.893188	14201.525391	1893.233276	5.536151
439.719971	1146.862427	14299.373047	1845.447388	5.311419
440.078827	1215.128052	14852.324219	1836.345337	4.555315
440.437592	1165.066650	15132.212891	1988.805176	5.897686
440.796295	1158.240112	15464.439453	1879.580200	5.042150
441.155029	1278.842651	15874.033203	1795.385864	3.539133
441.513672	1201.474976	16463.392578	1997.907227	5.218428
441.872253	1224.230225	16502.076172	1895.508789	4.393804
442.230865	1201.474976	16158.473633	1931.917114	4.883614
442.589386	1196.923950	15976.431641	1981.978638	5.311778
442.947876	1155.964600	16110.687500	1845.447388	4.610468
443.306335	1115.005249	15487.194336	1913.713013	5.557314
443.664764	1155.964600	15179.999023	1863.651489	5.046243
444.023102	1162.791138	15334.734375	1840.896362	4.784843
444.381500	1108.178589	15220.958984	1827.243164	5.095130
444.739777	1174.168701	15216.407227	1827.243164	4.650786
445.098022	1108.178589	15503.123047	1906.886475	5.548531
445.456238	1176.444214	15446.235352	1752.151001	4.034444
445.814423	1183.270874	15723.848633	1854.549438	4.616588
446.172577	1171.893188	16761.486328	1904.610962	4.700044
446.530701	1217.403687	16741.005859	1890.957764	4.338903
446.888733	1135.484863	17293.958984	1859.100464	4.478242
447.246765	1158.240112	18106.318359	1859.100464	4.135338
447.604736	1130.933838	17489.652344	1966.049927	5.105021
447.962677	1171.893188	17537.439453	1920.539551	4.574527
448.320587	1190.097412	17676.246094	2138.989502	5.755693
448.678436	1165.066650	17619.357422	2059.346436	5.434934
449.036255	1142.311401	17341.744141	2041.142212	5.548532
449.394043	1258.363037	16317.759766	2036.591064	5.167724
449.751770	1146.862427	16360.994141	2018.386963	5.728388
450.109467	1119.556274	16067.452148	1931.917114	5.434617
450.467163	1210.577026	15967.329102	2009.284912	5.412491
450.824768	1167.342163	15776.185547	1997.907227	5.685358
451.182343	1137.760376	15737.501953	1997.907227	5.891521
451.539886	1196.923950	14970.651367	1979.703125	5.683133
451.897369	1219.679199	15352.938477	2077.550537	6.069876
452.254822	1183.270874	15321.082031	2004.733887	5.810397
452.612274	1142.311401	15389.347656	2095.754639	6.692222
452.969635	1130.933838	15209.581055	2107.132324	6.933894
453.326965	1206.026001	15088.978516	2118.509766	6.572692
453.684326	1149.138062	14970.651367	2125.336426	7.062891
454.041534	1121.831787	14804.538086	2184.500000	7.766506
454.398773	1146.862427	14479.138672	2175.397949	7.714628
454.755951	1217.403687	14308.474609	2157.193604	7.178862
455.113098	1217.403687	13484.736328	2179.948975	7.846410
455.470215	1217.403687	13907.983398	2182.224365	7.602652
455.827240	1224.230225	13741.870117	2220.908203	7.962188
456.184265	1233.332275	13871.575195	2232.285889	7.904212
456.541260	1190.097412	13600.788086	2371.092773	9.515952
456.898193	1133.209351	13475.633789	2361.990479	9.955751
457.255096	1246.985352	13771.452148	2400.674561	9.211484
457.611969	1119.556274	13582.583984	2430.256104	10.516706
457.968781	1180.995239	14010.381836	2600.920166	11.067754
458.325531	1108.178589	14055.891602	2650.981689	11.915642
458.682312	1208.301514	14720.343750	2755.655762	11.451669
459.039001	1158.240112	15466.714844	3019.616211	13.008906
459.395630	1133.209351	16106.136719	3149.320801	13.465045
459.752289	1212.852539	17375.876953	3185.729004	12.206110
460.108856	1192.372925	18224.646484	3502.026611	13.560455
460.465363	1064.943726	19285.039063	3670.415039	14.299986
460.821899	1190.097412	19087.068359	3743.231689	14.265735
461.178345	1210.577026	18875.445313	3859.283203	14.994202
461.534760	1185.546387	18288.361328	3788.742188	15.220862
461.891144	1133.209351	17541.990234	3793.293213	16.211344
462.247467	1194.648438	16738.730469	3674.966064	15.956669
462.603760	1144.586914	16445.189453	3620.353516	16.180843
462.960052	1169.617676	15714.747070	3665.864014	17.162077
463.316254	1208.301514	15223.234375	3620.353516	17.210587
463.672424	1196.923950	14802.262695	3634.006836	17.912697
464.028564	1192.372925	14435.904297	3652.210938	18.573883
464.384644	1144.586914	14570.160156	3640.833252	18.593220
464.740723	1146.862427	14699.864258	3786.466553	19.476158
465.096741	1149.138062	14308.474609	3754.609375	19.799412
465.452698	1192.372925	14203.800781	3809.221924	20.111929
465.808655	1180.995239	14576.986328	4007.192139	21.097332
466.164520	1126.382813	14367.638672	4034.498291	21.962536
466.520355	1201.474976	15050.294922	4132.345703	21.163322
466.876190	1167.342163	15191.376953	4241.570801	21.921141
467.231964	1246.985352	14979.753906	4396.306152	22.932890
467.587677	1160.515625	15769.359375	4446.367676	22.492212
467.943390	1124.107300	16033.319336	4623.858398	23.473749
468.299011	1162.791138	15257.367188	4375.826660	22.796255
468.654633	1146.862427	15202.754883	4498.704590	23.846527
469.010223	1190.097412	15195.927734	4642.062500	24.646629
469.365723	1171.893188	14793.161133	4555.592773	24.841299
469.721191	1221.954712	14895.559570	4480.500488	23.830921
470.076660	1215.128052	14287.995117	4500.979980	25.134899
470.432068	1217.403687	14611.119141	4721.705566	26.163776
470.787445	1244.709839	14272.066406	4698.950684	26.515285
471.142792	1158.240112	14281.168945	4717.154785	27.119820
471.498016	1144.586914	14488.241211	4842.308105	27.711458
471.853271	1224.230225	14627.047852	4687.572754	25.840406
472.208496	1233.332275	14718.068359	4812.726563	26.544044
472.563660	1185.546387	14681.660156	4935.604492	27.786207
472.918762	1199.199463	15248.264648	5147.228027	28.101717
473.273865	1176.444214	15484.918945	5192.738281	28.069338
473.628876	1187.821899	15639.654297	5388.433105	29.066290
473.983917	1228.781250	15748.879883	5242.799805	27.644567
474.338837	1199.199463	15801.216797	5352.024902	28.440079
474.693787	1117.280762	15789.838867	5258.728516	28.225805
475.048645	1190.097412	15250.540039	5363.402344	29.681177
475.403503	1110.454102	16067.452148	5593.229980	29.971094
475.758270	1178.719727	16017.390625	5618.260742	29.918724
476.113037	1215.128052	15985.533203	5629.638672	29.887539
476.467773	1203.750488	16144.820313	5652.393555	29.774593
476.822418	1176.444214	16893.466797	6066.538574	31.113363
477.177063	1183.270874	16745.556641	5973.242188	30.779354
477.531647	1253.812012	17255.273438	6203.069824	30.930037
477.886200	1194.648438	17530.611328	6428.346191	32.037891
478.240723	1208.301514	18006.195313	6637.694336	32.321865
478.595184	1203.750488	18176.859375	6599.010254	31.787104
478.949585	1194.648438	18320.218750	6721.888672	32.274780
479.303986	1212.852539	18559.148438	6940.338379	33.018494
479.658325	1219.679199	18579.626953	7019.981445	33.411980
480.012634	1142.311401	19077.966797	6940.338379	32.326817
480.366913	1155.964600	19571.753906	7183.819336	32.731991
480.721130	1194.648438	19744.693359	7286.217773	32.838570
481.075317	1176.444214	20534.298828	7661.678711	33.501823
481.429474	1165.066650	21512.773438	7937.016602	33.281147
481.783569	1158.240112	22523.105469	8471.763672	34.231544
482.137604	1135.484863	23280.853516	8710.693359	34.206738
482.491669	1226.505737	25210.494141	9397.901367	34.070210
482.845612	1165.066650	27838.720703	10401.405273	34.627197
483.199554	1196.923950	31686.626953	11855.462891	34.957832
483.553436	1196.923950	37134.222656	13632.645508	34.603943
483.907318	1228.781250	43544.367188	16267.698242	35.539902
484.261139	1196.923950	49763.363281	18547.769531	35.726002
484.614899	1149.138062	52830.765625	20272.615234	37.002464
484.968628	1130.933838	52482.613281	20117.878906	36.974342
485.322357	1165.066650	49918.101563	19039.283203	36.662777
485.675964	1183.270874	46502.542969	17405.458984	35.795341
486.029572	1149.138062	42233.667969	16411.056641	37.147602
486.383148	1203.750488	39669.152344	15075.325195	36.062469
486.736694	1153.689087	37177.457031	14369.914063	36.687511
487.090149	1160.515625	37480.101563	14501.894531	36.733292
487.443604	1256.087524	38369.832031	14836.395508	36.591045
487.796997	1194.648438	39826.164063	15405.275391	36.785061
488.150360	1235.607788	41298.425781	16231.290039	37.430424
488.503693	1190.097412	42256.421875	16618.128906	37.568573
488.856964	1185.546387	41266.570313	16099.309570	37.209038
489.210175	1149.138062	39098.000000	15516.776367	37.860523
489.563416	1167.342163	37081.886719	14624.772461	37.470699
489.916565	1174.168701	34701.691406	14135.535156	38.658882
490.269653	1199.199463	32696.958984	13031.907227	37.566826
490.622772	1155.964600	31570.576172	12861.243164	38.485706
490.975769	1240.158813	31952.863281	12895.375977	37.949169
491.328735	1215.128052	32678.753906	13209.398438	38.121071
491.681732	1112.729614	34417.253906	13917.084961	38.446297
492.034607	1167.342163	36895.292969	14749.925781	38.016689
492.387482	1121.831787	37532.441406	15143.590820	38.510090
492.740326	1162.791138	36861.160156	14938.793945	38.590008
493.093079	1169.617676	35413.929688	14299.373047	38.341419
493.445862	1267.465088	32062.087891	12993.223633	38.077293
493.798523	1169.617676	29852.556641	12087.566406	38.064262
494.151215	1192.372925	27474.638672	11398.083984	38.831169
494.503815	1135.484863	25519.964844	10724.529297	39.324375
494.856384	1185.546387	23724.580078	10162.475586	39.828369
495.208923	1117.280762	22796.167969	9634.554688	39.288334
495.561432	1101.352051	22386.574219	9325.083984	38.635876
495.913879	1144.586914	22047.521484	9295.502930	38.994125
496.266296	1137.760376	22159.021484	9447.961914	39.532360
496.618683	1142.311401	22281.900391	9577.666992	39.903118
496.970978	1146.862427	22994.138672	9659.585938	38.964691
497.323273	1165.066650	22620.953125	9827.974609	40.375439
497.675507	1240.158813	22866.708984	10080.557617	40.877525
498.027710	1233.332275	22857.607422	9973.607422	40.418812
498.379852	1135.484863	22743.830078	9695.994141	39.616684
498.731995	1219.679199	22691.494141	9825.699219	40.080544
499.084076	1146.862427	22184.052734	9579.942383	40.086533
499.436096	1158.240112	22045.246094	9436.584961	39.633945
499.788086	1221.954712	21590.140625	9352.390625	39.917332
500.140106	1262.914063	21180.546875	9209.032227	39.894894
500.491943	1199.199463	20666.279297	8940.521484	39.766220
500.843842	1146.862427	20434.177734	8792.612305	39.641342
501.195679	1228.781250	19922.185547	8540.029297	39.111378
501.547455	1178.719727	19580.857422	8417.151367	39.334736
501.899231	1151.413574	19380.611328	8621.948242	40.981152
502.250885	1149.138062	19155.333984	8426.253906	40.414509
502.602600	1178.719727	19191.742188	8587.815430	41.131882
502.954193	1219.679199	19139.406250	8401.222656	40.076187
503.305786	1137.760376	19159.884766	8342.059570	39.974751
503.657379	1183.270874	19027.904297	8628.774414	41.724049
504.008820	1176.444214	19476.181641	8567.335938	40.387962
504.360291	1212.852539	19430.671875	8519.549805	40.107418
504.711700	1246.985352	19756.072266	8731.172852	40.435207
505.063080	1221.954712	19765.173828	8788.061523	40.802555
505.414368	1137.760376	19478.458984	8694.764648	41.203468
505.765656	1199.199463	19423.845703	8553.682617	40.354603
506.116943	1199.199463	19564.927734	8494.519531	39.722466
506.468109	1144.586914	19216.773438	8485.416992	40.619488
506.819305	1160.515625	19278.212891	8446.733398	40.216026
507.170410	1210.577026	19244.080078	8628.774414	41.135639
507.521484	1178.719727	19264.558594	8439.906250	40.148460
507.872559	1149.138062	19182.640625	8617.397461	41.413250
508.223480	1124.107300	19346.478516	8594.641602	40.996498
508.574493	1199.199463	19619.541016	8653.805664	40.469425
508.925385	1076.321289	20045.062500	8856.327148	41.014874
509.276245	1130.933838	20349.982422	8915.490234	40.504379
509.627045	1155.964600	20543.402344	8981.480469	40.363846
509.977814	1187.821899	21037.189453	9234.063477	40.536514
510.328613	1165.066650	20773.228516	9265.920898	41.313686
510.679260	1135.484863	20950.720703	9163.522461	40.514469
511.029999	1185.546387	21098.628906	9454.789063	41.526680
511.380585	1233.332275	21153.242188	9288.675781	40.438656
511.731140	1199.199463	21294.324219	9552.636719	41.569473
512.081726	1171.893188	21660.681641	9502.575195	40.659706
512.432129	1176.444214	21885.958984	9714.198242	41.226238
512.782654	1144.586914	22195.429688	9607.249023	40.201057
513.133057	1158.240112	21965.601563	9602.698242	40.583992
513.483398	1158.240112	22263.695313	9550.360352	39.762802
513.833801	1219.679199	22015.664063	9793.841797	41.229893
514.183960	1133.209351	21537.804688	9673.239258	41.853466
514.534302	1190.097412	21455.884766	9441.135742	40.714127
514.884460	1130.933838	21278.394531	9600.421875	42.037498
515.234619	1217.403687	21201.027344	9498.023438	41.437031
515.584717	1146.862427	21419.476563	9334.186523	40.386131
515.934753	1121.831787	21417.201172	9566.289063	41.607803
516.284851	1115.005249	21556.007813	9500.299805	41.021938
516.634766	1165.066650	21881.408203	9730.126953	41.344463
516.984741	1196.923950	21751.703125	9875.760742	42.222961
517.334595	1153.689087	22805.269531	10039.597656	41.040462
517.684448	1160.515625	23417.384766	10405.957031	41.539722
518.034363	1162.791138	24336.695313	10779.141602	41.496464
518.384094	1246.985352	25142.228516	11459.522461	42.738789
518.733826	1183.270874	26377.837891	11414.012695	40.606937
519.083496	1146.862427	27121.931641	11894.147461	41.375389
519.433167	1146.862427	27256.187500	11832.708008	40.927315
519.782776	1203.750488	27085.523438	11696.176758	40.539825
520.132324	1171.893188	26361.908203	11773.544922	42.086720
520.481873	1180.995239	26214.000000	11641.564453	41.787113
520.831299	1176.444214	25224.148438	11079.510742	41.180920
521.180786	1192.372925	24675.748047	11011.245117	41.812016
521.530151	1208.301514	24534.666016	10729.081055	40.815529
521.879517	1192.372925	24373.103516	10462.844727	39.992146
522.228882	1221.954712	23845.181641	10667.641602	41.752163
522.578064	1153.689087	23581.222656	10519.732422	41.761360
522.927307	1167.342163	23904.345703	10592.549805	41.453167
523.276489	1224.230225	24136.449219	10390.028320	40.003975
523.625610	1146.862427	24090.939453	10585.722656	41.138550
523.974792	1208.301514	24700.777344	10774.590820	40.720650
524.323792	1196.923950	24976.117188	11065.857422	41.502392
524.672852	1221.954712	25390.261719	11127.296875	40.984840
525.021790	1206.026001	26350.531250	11468.625000	40.814476
525.370728	1149.138062	27674.884766	12167.209961	41.537277
525.719604	1149.138062	29035.644531	12752.018555	41.607510
526.068420	1201.474976	30826.480469	13220.775391	40.571472
526.417297	1151.413574	31848.189453	13989.902344	41.823574
526.765991	1105.903076	33004.152344	14203.800781	41.061493
527.114746	1185.546387	33698.187500	14506.445313	40.971443
527.463379	1155.964600	35099.910156	14997.958008	40.778976
527.812012	1183.270874	37138.773438	16051.523438	41.351814
528.160706	1112.729614	39696.460938	17330.367188	42.032322
528.509155	1158.240112	44566.074219	19050.660156	41.219334
528.857727	1171.893188	49729.230469	21062.220703	40.962559
529.206177	1219.679199	52525.847656	23025.994141	42.502327
529.554565	1124.107300	53058.320313	23262.648438	42.628048
529.902893	1176.444214	51515.515625	22199.980469	41.763855
530.251221	1265.189575	48841.777344	21246.537109	41.998280
530.599548	1226.505737	45178.191406	19371.507813	41.283970
530.947876	1190.097412	41475.917969	17974.337891	41.662899
531.296021	1176.444214	38005.750000	16333.688477	41.155392
531.644165	1155.964600	36187.605469	15484.918945	40.902893
531.992249	1219.679199	34369.464844	14838.670898	41.083199
532.340454	1194.648438	32985.949219	14404.046875	41.550354
532.688354	1206.026001	33568.484375	14208.351563	40.177185
533.036438	1176.444214	33825.617188	14613.394531	41.155560
533.384338	1151.413574	36239.945313	15764.808594	41.647209
533.732239	1183.270874	38246.953125	16213.085938	40.551327
534.080139	1144.586914	39032.007813	16718.251953	41.105106
534.427917	1217.403687	37928.378906	16408.781250	41.381023
534.775757	1180.995239	36888.468750	15619.174805	40.434616
535.123474	1162.791138	35409.378906	15020.712891	40.465118
535.471191	1199.199463	33074.695313	14051.340820	40.319817
535.818848	1203.750488	31789.025391	13489.287109	40.168144
536.166382	1167.342163	30869.714844	13191.194336	40.481117
536.513977	1165.066650	30935.705078	13395.991211	41.083851
536.861511	1183.270874	30949.359375	13302.694336	40.715542
537.208984	1155.964600	31149.603516	13598.512695	41.483955
537.556396	1171.893188	31088.166016	13216.224609	40.260132
537.903809	1126.382813	30225.742188	13232.153320	41.601501
538.251160	1128.658325	29634.107422	12667.824219	40.480560
538.598389	1167.342163	28439.458984	12376.557617	41.101376
538.945740	1162.791138	27547.455078	12108.045898	41.483398
539.292969	1144.586914	27131.035156	11771.269531	40.893169
539.640137	1099.076538	26673.654297	11666.594727	41.320404
539.987244	1153.689087	26962.646484	11687.075195	40.812908
540.334351	1203.750488	28018.488281	12142.178711	40.792595
540.681458	1180.995239	29351.943359	12824.834961	41.332794
541.028442	1140.035889	31964.240234	14042.239258	41.857376
541.375366	1212.852539	34974.753906	15277.846680	41.659367
541.722290	1194.648438	37782.746094	16684.119141	42.334724
542.069153	1190.097412	39619.093750	17403.183594	42.189720
542.416016	1137.760376	39762.449219	17751.337891	43.012848
542.762756	1162.791138	38975.121094	17348.570313	42.805561
543.109558	1130.933838	37664.421875	16442.914063	41.912178
543.456299	1228.781250	36057.902344	15860.379883	42.009670
543.802917	1151.413574	34806.367188	14991.130859	41.122375
544.149536	1178.719727	32890.378906	14417.700195	41.747990
544.496094	1130.933838	30635.335938	13482.460938	41.863338
544.842651	1174.168701	29094.808594	12940.886719	42.143436
545.189148	1233.332275	27988.906250	12456.201172	41.945911
545.535583	1258.363037	26894.380859	12117.148438	42.357536
545.882019	1208.301514	26364.183594	12053.433594	43.111713
546.228333	1176.444214	25861.292969	11935.106445	43.584068
546.574707	1135.484863	25831.712891	12007.922852	44.024689
546.920898	1155.964600	25783.925781	12096.668945	44.423912
547.267212	1146.862427	25929.558594	11821.330078	43.072262
547.613342	1153.689087	25906.804688	11939.657227	43.574184
547.959473	1237.883301	25501.761719	11741.687500	43.289883
548.305664	1240.158813	24436.818359	11238.796875	43.103783
548.651611	1194.648438	23826.978516	10663.090820	41.835915
548.997742	1180.995239	22616.400391	10287.629883	42.484081
549.343689	1226.505737	22204.531250	9787.014648	40.807030
549.689575	1151.413574	21055.394531	9368.319336	41.282730
550.035522	1183.270874	20070.093750	9161.247070	42.240967
550.381287	1171.893188	19715.111328	8612.846680	40.127628
550.727173	1206.026001	19341.927734	8610.570313	40.828102
551.072876	1185.546387	19137.130859	8430.804688	40.359993
551.418640	1203.750488	18893.648438	8230.558594	39.722149
551.764282	1183.270874	18672.923828	8187.323730	40.046837
552.109863	1178.719727	18814.005859	8212.354492	39.883873
552.455505	1078.596802	18759.392578	8273.793945	40.694988
552.801025	1158.240112	19321.447266	8396.671875	39.852169
553.146545	1226.505737	19107.548828	8144.088867	38.686687
553.491943	1210.577026	19692.357422	8387.569336	38.832794
553.837341	1199.199463	19826.613281	8214.629883	37.661861
554.182800	1201.474976	19148.507813	8180.497070	38.886772
554.528015	1187.821899	19032.455078	7989.353516	38.115280
554.873352	1144.586914	18600.107422	7952.945313	39.004044
555.218628	1142.311401	18381.656250	7987.078125	39.704330
555.563721	1128.658325	18236.023438	7650.300781	38.121841
555.908875	1174.168701	18024.400391	7422.749023	37.083050
556.254028	1176.444214	17655.765625	7409.095703	37.821041
556.599121	1176.444214	17594.326172	7374.962891	37.754677
556.944031	1144.586914	17175.630859	7263.462402	38.168915
557.289063	1183.270874	17212.039063	7265.737793	37.947186
557.633972	1185.546387	17016.343750	7040.461426	36.984337
557.978882	1074.045776	16970.833984	7060.940918	37.661037
558.323792	1130.933838	16863.884766	6953.991699	37.011860
558.668518	1169.617676	16645.435547	7015.430664	37.773853
559.013306	1231.056763	16727.353516	7045.012207	37.518353
559.358032	1203.750488	16852.507813	7045.012207	37.327320
559.702637	1178.719727	16777.414063	6824.287109	36.192562
560.047363	1249.260864	16556.689453	7006.328613	37.609634
560.391846	1267.465088	16590.822266	6908.480957	36.813183
560.736450	1180.995239	16474.771484	6858.419922	37.122452
561.080933	1221.954712	16825.201172	6913.032227	36.473679
561.425354	1221.954712	16806.996094	6926.685547	36.603889
561.769775	1210.577026	16863.884766	6974.471191	36.822212
562.114136	1176.444214	17011.792969	6908.480957	36.197731
562.458496	1174.168701	16895.742188	6988.124512	36.980751
562.802673	1187.821899	16777.414063	6883.450195	36.534813
563.146912	1133.209351	16857.058594	6867.521973	36.468884
563.491150	1155.964600	16595.373047	6771.949707	36.374355
563.835266	1174.168701	16527.107422	6812.909180	36.727432
564.179443	1196.923950	16784.242188	6753.745605	35.649632
564.523438	1146.862427	16602.199219	6674.102539	35.762665
564.867493	1126.382813	16836.578125	6703.684082	35.501160
565.211426	1135.484863	16968.558594	6851.593262	36.102329
565.555359	1158.240112	17159.703125	6792.429688	35.210464
565.899231	1144.586914	17673.970703	7151.961914	36.343613
566.243042	1144.586914	18040.328125	6994.951172	34.626263
566.586914	1201.474976	18263.330078	7256.635742	35.489460
566.930603	1169.617676	18775.322266	7295.319824	34.793846
567.274292	1142.311401	18980.119141	7356.758789	34.838627
567.617981	1162.791138	18841.312500	7402.269043	35.294117
567.961609	1187.821899	18547.769531	7272.564453	35.050468
568.305237	1124.107300	18140.451172	7181.543457	35.597752
568.648682	1146.862427	17892.419922	7045.012207	35.222179
568.992188	1169.617676	17758.164063	7017.706055	35.253773
569.335632	1167.342163	17318.988281	6867.521973	35.291634
569.679016	1174.168701	17325.814453	6785.603027	34.742184
570.022461	1169.617676	17166.529297	6696.857910	34.551918
570.365662	1146.862427	17633.009766	6762.847656	34.064877
570.708984	1190.097412	17466.898438	6724.164063	33.999718
571.052185	1101.352051	17587.500000	6724.164063	34.106281
571.395386	1196.923950	17539.714844	6958.542480	35.254803
571.738525	1165.066650	18210.992188	6990.399902	34.174343
572.081604	1187.821899	18606.933594	6976.746582	33.233181
572.424683	1210.577026	18732.087891	7254.360352	34.493504
572.767578	1208.301514	19298.691406	7122.379883	32.691822
573.110596	1185.546387	18989.220703	7343.105469	34.585892
573.453552	1221.954712	19037.007813	7067.767578	32.813896
573.796387	1137.760376	18784.423828	7158.788574	34.119923
574.139282	1144.586914	18402.136719	6908.480957	33.399258
574.481995	1224.230225	18204.166016	6803.807129	32.859825
574.824768	1165.066650	18240.574219	6903.930176	33.608742
575.167480	1119.556274	18261.054688	6774.225586	32.988186
575.510132	1199.199463	17746.787109	6667.275879	33.044552
575.852722	1146.862427	18113.146484	6730.990723	32.913094
576.195251	1210.577026	17883.318359	6633.143066	32.523540
576.537842	1165.066650	17617.082031	6580.806152	32.918392
576.880188	1171.893188	17387.253906	6432.897461	32.444572
577.222717	1201.474976	17187.007813	6426.070801	32.683273
577.565063	1192.372925	16606.750000	6184.865723	32.388546
577.907410	1158.240112	16137.993164	6102.946777	33.009266
578.249756	1121.831787	15962.778320	6116.600098	33.655323
578.591919	1151.413574	15769.359375	6018.752441	33.297012
578.934204	1224.230225	15362.041016	5775.271973	32.190571
579.276306	1174.168701	15491.746094	5661.495605	31.341387
579.618469	1137.760376	14895.559570	5518.138184	31.839235
579.960571	1151.413574	14904.661133	5311.065430	30.244869
580.302551	1165.066650	14340.332031	5433.943848	32.400688
580.644531	1301.597900	14276.617188	5472.627441	32.146614
580.986511	1187.821899	14178.770508	5411.188477	32.510071
581.328369	1149.138062	14051.340820	5233.697754	31.657846
581.670227	1176.444214	13921.636719	5210.942871	31.655062
582.012024	1112.729614	13880.676758	5090.339844	31.153091
582.353821	1215.128052	13882.952148	5072.135742	30.447279
582.695496	1151.413574	13616.716797	5113.095215	31.781672
583.037231	1190.097412	13646.297852	5183.636230	32.060650
583.378845	1146.862427	13744.145508	5081.237793	31.231937
583.720398	1137.760376	13578.032227	4987.941406	30.949333
584.062012	1158.240112	13471.083008	4953.808594	30.826094
584.403442	1108.178589	13373.235352	5017.523438	31.873842
584.744934	1146.862427	13327.725586	4940.155762	31.141417
585.086365	1133.209351	13593.960938	4953.808594	30.661064
585.427734	1158.240112	13345.929688	4860.512207	30.377144
585.768982	1203.750488	13375.511719	4833.206055	29.818655
586.110291	1165.066650	13227.602539	4871.890137	30.730051
586.451599	1192.372925	13471.083008	4755.838379	29.021496
586.792725	1183.270874	13225.327148	4801.349121	30.045351
587.133850	1176.444214	13302.694336	4669.368652	28.804653
587.474915	1178.719727	13380.062500	4701.226074	28.869825
587.815979	1192.372925	13304.969727	4855.961426	30.246101
588.157043	1235.607788	13350.480469	4687.572754	28.493612
588.497925	1133.209351	13361.858398	4646.613281	28.730923
588.838867	1199.199463	13393.715820	4742.185547	29.053928
589.179749	1199.199463	13286.765625	4730.807617	29.216867
589.520569	1219.679199	13578.032227	4703.501465	28.190020
589.861450	1212.852539	13985.350586	4737.634277	27.596651
590.202087	1208.301514	13871.575195	4644.337891	27.133871
590.542847	1185.546387	13985.350586	4778.593750	28.071112
590.883484	1215.128052	13958.044922	4789.971191	28.053572
591.224121	1242.434326	13755.523438	4630.685059	27.077652
591.564636	1149.138062	13980.799805	4537.388672	26.405390
591.905151	1187.821899	13509.766602	4610.205078	27.774702
592.245667	1251.536499	13425.572266	4505.531250	26.728971
592.585999	1180.995239	13553.001953	4605.654297	27.680708
592.926453	1235.607788	13641.747070	4466.847168	26.045485
593.266724	1160.515625	13482.460938	4389.479492	26.204985
593.607056	1112.729614	13357.306641	4230.193359	25.459955
593.947388	1155.964600	13500.665039	4364.448730	25.990782
594.287476	1196.923950	13700.911133	4416.785645	25.750681
594.627686	1187.821899	13675.879883	4396.306152	25.692421
594.967773	1178.719727	13933.013672	4630.685059	27.065123
595.307861	1096.801025	13864.748047	4496.429199	26.626270
595.647888	1194.648438	14067.269531	4560.143555	26.144598
595.987854	1201.474976	14151.463867	4510.082031	25.549110
596.327820	1196.923950	14481.414063	4546.490723	25.214117
596.667725	1199.199463	14840.946289	4637.511230	25.204336
597.007568	1196.923950	15391.623047	4705.776855	24.719460
597.347351	1155.964600	15600.970703	4764.940430	24.984245
597.687073	1146.862427	16051.523438	4874.165527	25.007635
598.026794	1178.719727	16106.136719	4867.338867	24.710365
598.366455	1190.097412	15648.756836	4726.256836	24.457035
598.706116	1162.791138	15129.937500	4758.113770	25.741283
599.045654	1215.128052	14825.017578	4416.785645	23.524494
599.385193	1196.923950	14226.555664	4316.663086	23.943419
599.724731	1146.862427	13632.645508	4303.009766	25.277929
600.064087	1151.413574	13466.532227	4141.447754	24.279377
600.403564	1149.138062	13061.489258	4098.212891	24.756445
600.742920	1206.026001	13097.897461	4016.294189	23.631842
601.082153	1130.933838	12827.110352	3954.855225	24.143970
601.421387	1274.291626	12756.569336	3920.722412	23.047960
601.760620	1192.372925	12742.916016	3909.344727	23.522459
602.099854	1212.852539	12854.416992	3918.446777	23.240812
602.438843	1201.474976	12699.681641	3786.466553	22.481693
602.778015	1169.617676	13177.541016	4009.467773	23.649801
603.117065	1187.821899	13077.417969	3957.130615	23.291864
603.456055	1244.709839	13725.941406	3950.304199	21.677301
603.794983	1099.076538	13860.197266	4093.661865	23.466476
604.133850	1178.719727	14740.824219	4095.937500	21.510067
604.472778	1126.382813	15220.958984	4323.489746	22.683243
604.811584	1119.556274	15437.132813	4268.876953	21.996187
605.150330	1153.689087	15899.063477	4546.490723	23.009262
605.489075	1165.066650	16320.035156	4462.296387	21.756758
605.827698	1162.791138	15924.094727	4569.245605	23.076921
606.166382	1215.128052	15960.502930	4339.417969	21.188271
606.504883	1142.311401	15205.030273	4268.876953	22.233007
606.843445	1103.627563	14829.569336	4300.734375	23.292442
607.181946	1151.413574	14465.485352	3970.783691	21.175865
607.520386	1171.893188	13930.738281	3882.038574	21.241308
607.858826	1133.209351	13170.714844	3907.069336	23.043476
608.197083	1187.821899	13598.512695	3802.395264	21.067106
608.535461	1178.719727	13261.735352	3695.445801	20.828625
608.873718	1117.280762	13211.673828	3793.293213	22.126059
609.211914	1142.311401	13343.654297	3715.925537	21.092876
609.550171	1185.546387	13832.890625	3888.864990	21.374596
609.888245	1144.586914	14456.383789	3802.395264	19.965813
610.226318	1210.577026	14447.281250	3838.803711	19.855597
610.564392	1199.199463	14360.811523	4025.396240	21.473028
610.902344	1235.607788	14488.241211	3995.814453	20.827608
611.240295	1160.515625	14324.403320	3831.977051	20.293863
611.578247	1160.515625	14001.279297	3747.782715	20.148857
611.916138	1160.515625	13548.451172	3697.721191	20.481262
612.253845	1203.750488	13188.918945	3604.425049	20.030378
612.591675	1158.240112	12831.662109	3634.006836	21.208576
612.929382	1151.413574	12629.140625	3681.792725	22.045996
613.267090	1155.964600	12212.719727	3483.822266	21.053715
613.604736	1180.995239	11991.994141	3331.362549	19.890551
613.942261	1151.413574	11910.076172	3495.199951	21.785110
614.279785	1203.750488	11807.677734	3417.832275	20.879827
614.617310	1233.332275	11630.186523	3331.362549	20.179472
614.954712	1103.627563	11666.594727	3306.331787	20.853083
615.292175	1128.658325	11495.930664	3354.117676	21.466200
615.629517	1121.831787	11457.247070	3258.545898	20.673714
615.966797	1194.648438	11454.971680	3313.158203	20.647593
616.304138	1146.862427	11236.521484	3269.923340	21.041950
616.641296	1187.821899	11436.767578	3313.158203	20.737123
616.978516	1149.138062	11231.970703	3272.198975	21.056196
617.315552	1199.199463	11263.828125	3242.617188	20.302961
617.652771	1140.035889	11277.481445	3158.422852	19.910213
617.989685	1174.168701	11607.431641	3244.892578	19.847328
618.326721	1199.199463	11461.797852	3122.014648	18.736143
618.663696	1180.995239	11354.848633	3301.780762	20.845451
619.000549	1221.954712	11307.062500	3297.229736	20.577618
619.337463	1153.689087	11484.553711	3176.626953	19.581497
619.674194	1196.923950	11165.980469	3174.351563	19.835655
620.010986	1210.577026	11352.573242	3231.239502	19.923716
620.347778	1192.372925	11284.307617	3099.259277	18.895151
620.684387	1153.689087	11245.624023	3162.973877	19.909807
621.020996	1219.679199	11097.714844	3103.810303	19.073946
621.357605	1165.066650	11191.011719	3122.014648	19.518837
621.694214	1203.750488	10879.264648	3133.392090	19.943558
622.030579	1215.128052	10890.642578	3122.014648	19.708374
622.367065	1210.577026	10895.193359	3087.881836	19.384401
622.703430	1185.546387	10710.875977	3219.861816	21.356903
623.039795	1196.923950	10808.723633	3062.851074	19.412880
623.376160	1153.689087	10804.172852	3081.055176	19.971704
623.712402	1221.954712	10697.223633	3028.718262	19.068205
624.048645	1155.964600	10888.367188	3142.494141	20.411503
624.384766	1137.760376	10692.671875	3046.922363	19.980949
624.720886	1187.821899	10779.141602	3067.402100	19.596680
625.057007	1176.444214	10902.020508	3174.351563	20.542818
625.392944	1219.679199	10899.745117	2992.309814	18.312174
625.729004	1203.750488	10913.397461	3112.912354	19.662527
626.064941	1158.240112	11034.000000	3108.361328	19.746544
626.400818	1201.474976	11286.583008	3190.280273	19.720217
626.736633	1128.658325	11548.268555	3144.769775	19.349201
627.072449	1190.097412	11712.105469	3206.208740	19.160900
627.408264	1142.311401	11973.790039	3322.260254	20.126049
627.743896	1262.914063	11937.381836	3333.637939	19.398849
628.079590	1174.168701	12060.259766	3260.821289	19.168062
628.415161	1176.444214	11750.789063	3260.821289	19.711641
628.750793	1194.648438	11520.961914	3160.698486	19.039225
629.086365	1224.230225	11414.012695	3119.739014	18.602055
629.421753	1153.689087	11188.735352	3042.371338	18.820864
629.757263	1169.617676	11225.144531	3190.280273	20.095043
630.092651	1162.791138	10776.866211	3015.064941	19.266272
630.427917	1151.413574	10863.335938	3056.024414	19.611059
630.763184	1135.484863	10635.784180	3030.993652	19.952097
631.098511	1146.862427	10501.528320	3019.616211	20.019463
631.433716	1169.617676	10499.252930	2896.738037	18.512197
631.768799	1203.750488	10560.692383	2974.105713	18.920235
632.103943	1174.168701	10116.965820	3060.575439	21.094147
632.438965	1162.791138	10025.944336	2858.054199	19.127087
632.773987	1190.097412	9930.373047	2942.248291	20.046862
633.109070	1142.311401	10005.464844	2873.982666	19.537868
633.443848	1185.546387	9725.576172	2912.666504	20.223820
633.778870	1133.209351	9971.332031	2817.094727	19.052523
634.113708	1228.781250	9900.791016	2830.747803	18.472841
634.448425	1115.005249	10107.863281	2924.044189	20.116396
634.783264	1155.964600	10151.098633	2901.289063	19.402985
635.117859	1180.995239	10157.924805	2899.013428	19.138149
635.452576	1196.923950	10041.873047	2835.298828	18.523281
635.787170	1151.413574	9957.678711	2880.809326	19.638243
636.121704	1190.097412	9773.362305	2742.002686	18.080595
636.456177	1224.230225	9702.820313	2782.961914	18.384327
636.790588	1146.862427	9384.248047	2787.512939	19.917126
637.125122	1124.107300	9513.952148	2666.910400	18.388935
637.459412	1160.515625	9445.686523	2632.777588	17.769844
637.793762	1242.434326	9263.645508	2701.043213	18.184397
638.128052	1124.107300	9147.593750	2773.859863	20.561543
638.462280	1201.474976	9063.399414	2705.594238	19.131693
638.796509	1155.964600	9215.859375	2653.257324	18.577076
639.130615	1108.178589	8983.755859	2710.145264	20.340942
639.464722	1155.964600	8954.174805	2719.247314	20.046686
639.798767	1167.342163	8874.531250	2605.471436	18.659582
640.132751	1192.372925	9081.603516	2682.839111	18.892416
640.466736	1201.474976	8662.907227	2612.297852	18.908205
640.800598	1249.260864	8558.233398	2594.093750	18.399752
641.134521	1117.280762	8637.876953	2623.675537	20.030258
641.468262	1121.831787	8446.733398	2505.348389	18.887854
641.802063	1171.893188	8408.049805	2539.481201	18.899370
642.135803	1208.301514	8396.671875	2598.644775	19.341564
642.469421	1187.821899	8342.059570	2514.450439	18.543255
642.803101	1155.964600	8294.273438	2555.409912	19.604719
643.136658	1153.689087	8200.976563	2512.175049	19.276720
643.470215	1169.617676	8291.998047	2564.511963	19.584663
643.803711	1224.230225	8294.273438	2591.818115	19.343416
644.137085	1110.454102	8200.976563	2509.899414	19.736843
644.470581	1133.209351	8223.732422	2557.685303	20.089857
644.803833	1226.505737	8282.895508	2582.716064	19.219606
645.137207	1169.617676	8189.599121	2625.950928	20.745543
645.470459	1178.719727	8134.986816	2514.450439	19.201832
645.803589	1146.862427	8223.732422	2505.348389	19.196140
646.136780	1167.342163	8134.986816	2523.552490	19.464401
646.469849	1201.474976	8401.222656	2544.032227	18.647282
646.802979	1215.128052	8109.956055	2532.654541	19.108910
647.135986	1251.536499	8330.681641	2509.899414	17.775635
647.468994	1185.546387	8278.344727	2530.379150	18.960539
647.801941	1126.382813	8319.303711	2532.654541	19.550774
648.134766	1126.382813	8239.661133	2525.828125	19.673704
648.467651	1196.923950	8169.119629	2480.317627	18.407310
648.800354	1162.791138	8355.711914	2530.379150	19.012972
649.133179	1126.382813	8205.528320	2466.664551	18.932817
649.465881	1201.474976	8139.538086	2459.837891	18.137093
649.798462	1187.821899	8367.089844	2514.450439	18.478605
650.131104	1201.474976	8264.691406	2530.379150	18.814434
650.463623	1190.097412	8150.915527	2498.521729	18.796989
650.796143	1153.689087	8171.395020	2509.899414	19.325550
651.128662	1158.240112	8235.109375	2603.195801	20.418007
651.461060	1133.209351	8232.833984	2680.563477	21.794872
651.793396	1183.270874	8348.885742	2514.450439	18.577326
652.125732	1194.648438	8237.385742	2457.562500	17.932148
652.458008	1153.689087	8287.446289	2478.042236	18.564594
652.790222	1128.658325	8323.855469	2482.593262	18.817204
653.122437	1201.474976	8087.201172	2482.593262	18.605421
653.454529	1190.097412	8066.721191	2505.348389	19.126406
653.786621	1165.066650	7955.220703	2573.614014	20.743967
654.118713	1183.270874	8066.721191	2478.042236	18.809917
654.450623	1185.546387	8071.272461	2437.082764	18.175808
654.782654	1153.689087	7996.180176	2519.001465	19.953440
655.114502	1287.944824	8057.619141	2466.664551	17.411764
655.446350	1096.801025	7836.893555	2459.837891	20.222820
655.778198	1192.372925	7941.567383	2539.481201	19.959541
656.109863	1196.923950	7984.802734	2421.154053	18.035532
656.441650	1126.382813	7839.168945	2539.481201	21.050848
656.773254	1171.893188	7845.995605	2389.296875	18.240709
657.104919	1190.097412	7784.556641	2398.398926	18.322981
657.436462	1171.893188	7845.995605	2466.664551	19.399933
657.767944	1212.852539	7955.220703	2550.858887	19.844753
658.099548	1228.781250	8055.343750	2478.042236	18.300001
658.430908	1187.821899	8048.517090	2587.267090	20.398008
658.762268	1119.556274	8219.180664	2525.828125	19.807693
659.093628	1101.352051	8489.967773	2569.062988	19.864491
659.424927	1174.168701	8858.602539	2664.634766	19.395914
659.756226	1133.209351	9029.266602	2525.828125	17.636889
660.087341	1219.679199	9270.471680	2689.665527	18.258902
660.418518	1192.372925	9231.788086	2698.767578	18.737616
660.749573	1167.342163	9190.828125	2694.216553	19.030064
661.080627	1128.658325	9040.644531	2648.706299	19.211964
661.411621	1158.240112	8940.521484	2655.532715	19.239765
661.742554	1149.138062	8838.123047	2657.808350	19.621189
662.073547	1169.617676	8378.467773	2571.338623	19.444447
662.404297	1153.689087	8514.999023	2591.818115	19.536320
662.735229	1199.199463	8166.844238	2605.471436	20.182890
663.065979	1199.199463	7950.669922	2503.072998	19.312437
663.396667	1162.791138	7882.404297	2573.614014	20.995596
663.727417	1167.342163	7682.158203	2537.205811	21.026897
664.057922	1221.954712	7761.801270	2423.429688	18.371607
664.388611	1194.648438	7452.330566	2539.481201	21.490910
664.719116	1190.097412	7588.861816	2384.745850	18.669985
665.049622	1208.301514	7459.157227	2432.531738	19.585003
665.380005	1210.577026	7386.340332	2425.705078	19.675755
665.710388	1190.097412	7393.166992	2368.817139	19.002201
666.040771	1165.066650	7156.512695	2321.031250	19.293581
666.371033	1199.199463	7386.340332	2450.735840	20.228025
666.701294	1235.607788	7224.778320	2423.429688	19.832829
667.031555	1105.903076	7176.992676	2393.847900	21.214392
667.361633	1165.066650	7340.830078	2352.888428	19.233601
667.691772	1174.168701	7249.809082	2487.144287	21.610489
668.021790	1244.709839	7206.574219	2418.878662	19.694658
668.351807	1160.515625	7147.410645	2500.797363	22.386925
668.681763	1174.168701	7158.788574	2384.745850	20.228136
669.011719	1117.280762	7147.410645	2446.184814	22.037735
669.341614	1133.209351	7258.911133	2473.491211	21.879646
669.671387	1153.689087	7122.379883	2437.082764	21.502096
670.001221	1199.199463	7304.421875	2498.521729	21.282145
670.330933	1196.923950	7258.911133	2352.888428	19.069067
670.660583	1208.301514	7197.472168	2459.837891	20.896654
670.990173	1242.434326	7447.779785	2466.664551	19.728638
671.319763	1201.474976	7035.910156	2478.042236	21.879877
671.649292	1208.301514	7090.522949	2382.470215	19.961313
671.978821	1133.209351	7051.838867	2475.766602	22.683584
672.308289	1187.821899	7040.461426	2268.694336	18.468119
672.637695	1201.474976	7076.869629	2377.919189	20.023237
672.966980	1096.801025	6801.531738	2352.888428	22.018349
673.296326	1126.382813	6840.215332	2418.878662	22.620472
673.625610	1224.230225	6662.725098	2293.724854	19.665268
673.954773	1178.719727	6819.735840	2355.164063	20.855185
674.283936	1119.556274	6812.909180	2257.316650	19.984013
674.613037	1180.995239	6771.949707	2339.235352	20.716322
674.942078	1196.923950	6751.470215	2373.368164	21.179844
675.271118	1155.964600	6635.418457	2280.071777	20.514948
675.600098	1251.536499	6785.603027	2311.929199	19.161184
675.928955	1203.750488	6435.172852	2425.705078	23.357981
676.257813	1174.168701	6430.621582	2489.419678	25.021645
676.586670	1158.240112	6703.684082	2257.316650	19.819450
676.915466	1215.128052	6610.387695	2321.031250	20.497683
677.244141	1233.332275	6692.306641	2430.256104	21.925800
677.572876	1185.546387	6551.224609	2384.745850	22.349447
677.901489	1208.301514	6564.877441	2352.888428	21.367882
678.230042	1215.128052	6476.132324	2359.715088	21.756056
678.558594	1149.138062	6669.551270	2330.133301	21.393240
678.887085	1165.066650	6580.806152	2311.929199	21.176474
679.215515	1117.280762	6740.092773	2359.715088	22.096315
679.543945	1187.821899	6826.562500	2366.541748	20.903955
679.872253	1221.954712	6963.093750	2448.460449	21.363457
680.200562	1196.923950	7117.829102	2432.531738	20.868563
680.528809	1165.066650	7038.186035	2557.685303	23.711739
680.856995	1192.372925	7208.850098	2537.205811	22.352497
681.185120	1140.035889	7297.595215	2519.001465	22.394676
681.513306	1183.270874	7261.187012	2544.032227	22.388617
681.841309	1115.005249	7329.452637	2587.267090	23.690954
682.169373	1190.097412	7302.146484	2580.440674	22.747581
682.497314	1171.893188	7288.493164	2555.409912	22.619049
682.825134	1155.964600	7190.645508	2530.379150	22.775265
683.153076	1201.474976	7149.686523	2605.471436	23.603674
683.480896	1180.995239	6938.062988	2366.541748	20.592888
683.808655	1162.791138	6906.205566	2559.960938	24.326466
684.136414	1208.301514	6885.726074	2450.735840	21.883766
684.464050	1224.230225	6639.969727	2450.735840	22.647058
684.791626	1155.964600	6507.989258	2427.980713	23.767010
685.119263	1201.474976	6667.275879	2409.776611	22.106581
685.446838	1146.862427	6453.376953	2402.949951	23.670670
685.774292	1119.556274	6339.601074	2368.817139	23.931995
686.101685	1137.760376	6414.693359	2289.173828	21.819748
686.429077	1094.525513	6241.753418	2425.705078	25.862066
686.756348	1137.760376	6216.722656	2391.572266	24.686378
687.083679	1180.995239	6259.957520	2293.724854	21.908602
687.410950	1119.556274	6423.795410	2430.256104	24.710421
687.738159	1180.995239	6394.213379	2357.439453	22.566563
688.065308	1233.332275	6321.396973	2364.266113	22.227192
688.392395	1246.985352	6403.315430	2364.266113	21.668139
688.719421	1183.270874	6441.999512	2407.500977	23.279964
689.046448	1221.954712	6414.693359	2396.123291	22.611740
689.373413	1162.791138	6280.437500	2418.878662	24.544241
689.700317	1208.301514	6364.631836	2307.378174	21.315096
690.027100	1196.923950	6259.957520	2418.878662	24.134832
690.353943	1203.750488	6189.416504	2409.776611	24.189871
690.680725	1142.311401	6064.262695	2291.449463	23.347206
691.007446	1167.342163	6137.079590	2280.071777	22.390110
691.334106	1130.933838	5948.211426	2270.969727	23.665565
691.660645	1062.668213	5927.731445	2179.948975	22.965389
691.987244	1151.413574	5825.333008	2225.459229	22.979549
692.313721	1199.199463	5677.424316	2264.143311	23.780493
692.640259	1087.698975	5638.740723	2296.000488	26.549997
692.966675	1144.586914	5561.373047	2218.632813	24.317362
693.293030	1201.474976	5552.270996	2223.183838	23.483263
693.619324	1206.026001	5461.250000	2245.938965	24.438499
693.945618	1169.617676	5675.148926	2255.041016	24.090906
694.271851	1171.893188	5452.147949	2138.989502	22.594362
694.598083	1212.852539	5436.219238	2152.642578	22.252153
694.924194	1174.168701	5381.606934	2220.908203	24.878307
695.250244	1183.270874	5361.126953	2175.397949	23.747278
695.576294	1190.097412	5424.841797	2200.428711	23.858143
695.902283	1146.862427	5565.923828	2223.183838	24.356335
696.228210	1185.546387	5484.005371	2182.224365	23.186867
696.554138	1183.270874	5504.484863	2264.143311	25.013166
696.879944	1178.719727	5611.434082	2305.102539	25.410679
697.205750	1196.923950	5458.974609	2157.193604	22.530695
697.531433	1151.413574	5618.260742	2305.102539	25.827814
697.857178	1190.097412	5738.863281	2218.632813	22.611307
698.182739	1158.240112	5950.486816	2341.510986	24.691360
698.508423	1206.026001	6155.283691	2402.949951	24.183908
698.833984	1185.546387	6469.305664	2468.940186	24.289408
699.159485	1101.352051	6678.653320	2505.348389	25.173399
699.484924	1153.689087	6740.092773	2555.409912	25.091648
699.810303	1142.311401	6965.369141	2657.808350	26.025793
700.135681	1140.035889	7029.083984	2680.563477	26.159197
700.460999	1219.679199	6851.593262	2589.542725	24.323233
700.786255	1206.026001	6592.183594	2468.940186	23.447405
701.111450	1167.342163	6376.009277	2414.327637	23.940588
701.436646	1144.586914	6244.029297	2482.593262	26.238287
701.761719	1192.372925	5998.272949	2377.919189	24.668560
702.086792	1165.066650	6016.477051	2330.133301	24.015011
702.411865	1155.964600	5807.128906	2298.276123	24.559690
702.736816	1215.128052	5668.322266	2355.164063	25.600410
703.061646	1162.791138	5547.719727	2170.846924	22.989103
703.386536	1194.648438	5251.901855	2104.856689	22.434099
703.711365	1219.679199	5311.065430	2072.999512	20.856508
704.036194	1196.923950	5124.472656	2150.367188	24.275784
704.360901	1174.168701	5022.074219	2154.918213	25.487879
704.685547	1162.791138	4915.125000	2268.694336	29.472408
705.010132	1208.301514	5067.584961	2143.540527	24.233488
705.334717	1121.831787	4960.635254	2141.265137	26.556019
705.659302	1228.781250	4812.726563	2143.540527	25.523808
705.983765	1140.035889	4721.705566	2084.376953	26.365946
706.308228	1274.291626	4821.828613	2123.060791	23.925589
706.632568	1133.209351	4780.869141	2066.172852	25.577044
706.956909	1119.556274	4799.073242	2116.234375	27.087198
707.281189	1140.035889	4815.001953	2143.540527	27.306501
707.605408	1158.240112	4835.481934	2082.101563	25.123762
707.929626	1183.270874	4762.665039	1986.529663	22.441195
708.253784	1167.342163	4958.359863	2118.509766	25.090034
708.577820	1226.505737	4794.522461	2072.999512	23.724491
708.901855	1146.862427	4694.399414	2141.265137	28.030790
709.225830	1221.954712	4787.695801	2193.602051	27.249519
709.549805	1171.893188	4815.001953	2061.621826	24.422235
709.873718	1185.546387	4944.706543	2043.417725	22.820824
710.197510	1153.689087	4944.706543	2123.060791	25.570225
710.521362	1233.332275	5094.891113	2136.714111	23.394226
710.845093	1192.372925	4910.573730	2066.172852	23.500612
711.168701	1160.515625	5001.594727	2141.265137	25.533176
711.492432	1149.138062	5044.829590	2191.326416	26.752333
711.816040	1119.556274	5094.891113	2116.234375	25.071550
712.139587	1199.199463	5103.993164	2118.509766	23.543121
712.463074	1146.862427	5242.799805	2161.744873	24.777782
712.786499	1176.444214	5438.494629	2223.183838	24.559532
713.109924	1155.964600	5245.075684	2134.438477	23.928768
713.433350	1190.097412	5210.942871	2093.479248	22.467461
713.756592	1155.964600	5113.095215	2173.122314	25.704426
714.079834	1196.923950	5074.411621	2157.193604	24.765253
714.403015	1165.066650	4956.084473	2059.346436	23.589437
714.726196	1192.372925	4935.604492	2068.448486	23.404259
715.049255	1171.893188	4903.747559	2100.305664	24.878046
715.372375	1249.260864	4901.471680	2098.030273	23.239880
715.695435	1174.168701	4910.573730	2118.509766	25.274055
716.018311	1187.821899	4896.920898	2061.621826	23.558279
716.341248	1178.719727	4894.645020	2025.213501	22.780161
716.664063	1176.444214	4919.675781	2020.662476	22.553194
716.987000	1210.577026	4924.227051	2018.386963	21.752453
717.309692	1165.066650	4919.675781	2052.519775	23.636366
717.632385	1183.270874	4755.838379	2054.795166	24.394901
717.955078	1105.903076	4794.522461	1977.427612	23.627392
718.277649	1155.964600	4610.205078	1984.254150	23.978920
718.600220	1208.301514	4723.980957	2009.284912	22.783175
718.922791	1226.505737	4683.021973	2020.662476	22.975641
719.245300	1133.209351	4448.643066	1870.478149	22.237478
719.567688	1224.230225	4291.632324	1984.254150	24.777447
719.890015	1224.230225	4355.346680	1956.947876	23.401163
720.212341	1176.444214	4268.876953	1966.049927	25.533482
720.534607	1194.648438	4232.468750	1906.886475	23.445694
720.856873	1121.831787	4141.447754	1820.416626	23.134890
721.179016	1140.035889	4066.355713	1834.069824	23.716955
721.501160	1151.413574	4118.692871	1854.549438	23.696316
721.823242	1171.893188	4109.590332	1915.988525	25.329205
722.145264	1151.413574	4159.651855	1904.610962	25.037823
722.467224	1208.301514	3991.263428	1768.079712	20.114475
722.789185	1155.964600	4073.182129	1888.682251	25.117004
723.111023	1167.342163	4084.559814	1868.202637	24.024961
723.432861	1219.679199	3902.518066	1774.906250	20.695505
723.754578	1149.138062	4052.702637	1863.651489	24.608149
724.076294	1192.372925	3979.885986	1890.957764	25.061220
724.397949	1199.199463	3836.528076	1856.824951	24.935287
724.719666	1133.209351	3988.988037	1690.711914	19.521910
725.041260	1178.719727	4014.018799	1809.039063	22.231140
725.362732	1158.240112	4029.947266	1824.967651	23.217115
725.684265	1096.801025	4043.600586	1824.967651	24.710423
726.005676	1158.240112	3984.437012	1786.283813	22.222221
726.327087	1221.954712	3836.528076	1884.131226	25.326370
726.648438	1169.617676	3968.508301	1834.069824	23.739840
726.969666	1221.954712	3986.712402	1768.079712	19.753086
727.290894	1228.781250	3938.926514	1854.549438	23.089840
727.612061	1126.382813	4050.427002	1818.141113	23.657587
727.933228	1244.709839	4070.906738	1859.100464	21.739132
728.254395	1135.484863	4268.876953	1859.100464	23.093681
728.575378	1144.586914	4257.499512	1847.722900	22.587721
728.896301	1124.107300	4080.008789	1868.202637	25.173212
729.217285	1176.444214	4186.958496	1865.927002	22.902493
729.538147	1158.240112	4289.356934	1847.722900	22.020348
729.858948	1194.648438	4243.846191	1827.243164	20.746267
730.179810	1153.689087	4227.917480	1856.824951	22.871944
730.500549	1226.505737	4202.886719	1913.713013	23.088688
730.821228	1180.995239	4095.937500	1947.845825	26.307573
731.141846	1155.964600	4225.642090	1911.437500	24.610823
731.462402	1235.607788	4250.672852	1920.539551	22.716982
731.782898	1167.342163	4241.570801	1877.304688	23.094006
732.103455	1249.260864	4223.366699	1872.753662	20.964041
732.423889	1235.607788	4159.651855	1902.335449	22.801561
732.744263	1178.719727	4243.846191	1913.713013	23.979216
733.064636	1237.883301	4264.326172	1913.713013	22.330826
733.384888	1201.474976	4202.886719	1954.672363	25.094772
733.705200	1190.097412	4221.091309	1972.876587	25.825825
734.025330	1208.301514	4234.744141	1936.468262	24.060154
734.345520	1224.230225	4330.315918	1954.672363	23.516483
734.665527	1210.577026	4166.478516	1811.314575	20.323328
734.985596	1206.026001	4086.835449	1849.998413	22.353870
735.305542	1171.893188	4180.131836	1956.947876	26.096821
735.625549	1158.240112	4025.396240	1736.222412	20.158730
735.945435	1140.035889	3934.375488	1834.069824	24.837137
736.265259	1219.679199	3995.814453	1781.732788	20.245901
736.585083	1201.474976	3922.997803	1861.375977	24.247490
736.904785	1135.484863	3834.252441	1815.865601	25.210794
737.224426	1196.923950	3888.864990	1818.141113	23.076923
737.544128	1155.964600	3904.793701	1802.212524	23.509935
737.863708	1194.648438	3818.323975	1890.957764	26.539461
738.183289	1153.689087	3816.048340	1770.355225	23.162394
738.502808	1246.985352	3893.416016	1779.457275	20.120380
738.822205	1185.546387	3761.435791	1861.375977	26.236748
739.141541	1178.719727	3970.783691	1784.008301	21.678894
739.460938	1217.403687	3784.191162	1831.794189	23.936165
739.780212	1190.097412	3970.783691	1865.927002	24.304417
740.099426	1228.781250	4007.192139	1906.886475	24.406225
740.418640	1206.026001	3988.988037	1824.967651	22.240393
740.737793	1149.138062	4041.324951	1847.722900	24.154207
741.056885	1169.617676	3991.263428	1831.794189	23.467741
741.375977	1174.168701	3913.895752	1843.171875	24.418606
741.694946	1160.515625	3995.814453	1849.998413	24.317818
742.013855	1199.199463	3888.864990	1761.253052	20.896784
742.332703	1137.760376	3781.915527	1770.355225	23.924271
742.651550	1228.781250	3629.455566	1845.447388	25.687204
742.970398	1158.240112	3611.251465	1827.243164	27.272726
743.289124	1169.617676	3702.272461	1813.590088	25.426775
743.607788	1196.923950	3761.435791	1743.048950	21.295477
743.926453	1190.097412	3524.781738	1802.212524	26.218325
744.245056	1083.147949	3711.374512	1768.079712	26.060606
744.563599	1158.240112	3554.363525	1729.395752	23.836653
744.882141	1171.893188	3652.210938	1818.141113	26.055044
745.200500	1135.484863	3568.016602	1772.630737	26.192705
745.518860	1240.158813	3618.078125	1781.732788	22.775118
745.837219	1130.933838	3508.853027	1806.763550	28.421055
746.155518	1167.342163	3593.047363	1809.039063	26.454037
746.473755	1144.586914	3458.791504	1722.569214	24.975420
746.791992	1240.158813	3572.567627	1777.181763	23.024393
747.110107	1155.964600	3458.791504	1813.590088	28.557314
747.428162	1251.536499	3486.097900	1711.191650	20.570261
747.746216	1149.138062	3495.199951	1779.457275	26.867117
748.064148	1158.240112	3438.312012	1679.334351	22.854292
748.382080	1192.372925	3524.781738	1763.528564	24.487803
748.700073	1119.556274	3508.853027	1704.365112	24.476191
749.017822	1153.689087	3431.485352	1802.212524	28.471529
749.335632	1126.382813	3454.240479	1820.416626	29.814272
749.653320	1206.026001	3538.434814	1765.804199	24.000006
749.971008	1174.168701	3529.332764	1772.630737	25.410631
750.288696	1183.270874	3522.506104	1786.283813	25.778208
750.606262	1105.903076	3595.322754	1768.079712	26.599638
750.923828	1187.821899	3497.475586	1720.293701	23.054182
751.241272	1210.577026	3620.353516	1747.599976	22.285177
751.558716	1199.199463	3533.883789	1695.262939	21.247561
751.876038	1215.128052	3438.312012	1713.467163	22.415558
752.193481	1174.168701	3351.842041	1722.569214	25.182863
752.510681	1137.760376	3422.383301	1704.365112	24.800798
752.827942	1176.444214	3417.832275	1786.283813	27.208120
753.145081	1124.107300	3486.097900	1774.906250	27.552984
753.462219	1151.413574	3345.015625	1642.926025	22.406637
753.779297	1185.546387	3504.302002	1722.569214	23.159958
754.096375	1105.903076	3379.148438	1747.599976	28.228230
754.413330	1201.474976	3349.566650	1720.293701	24.152540
754.730286	1140.035889	3433.760986	1818.141113	29.563492
755.047119	1192.372925	3445.138428	1838.620850	28.686869
755.363892	1085.423462	3342.739990	1715.742676	27.923388
755.680725	1155.964600	3342.739990	1711.191650	25.390219
755.997498	1203.750488	3269.923340	1790.834839	28.414097
756.314148	1219.679199	3306.331787	1722.569214	24.100323
756.630737	1183.270874	3345.015625	1754.426514	26.421051
756.947327	1165.066650	3242.617188	1677.058838	24.644030
757.263855	1174.168701	3253.994629	1752.151001	27.789936
757.580261	1187.821899	3292.678711	1713.467163	24.972969
757.896729	1208.301514	3333.637939	1809.039063	28.265528
758.213074	1180.995239	3420.107666	1758.977539	25.813011
758.529419	1149.138062	3263.096924	1777.181763	29.709360
758.845642	1192.372925	3367.770752	1718.018188	24.163177
759.161865	1199.199463	3372.321777	1856.824951	30.261780
759.478149	1246.985352	3451.965088	1761.253052	23.323013
759.794189	1233.332275	3424.658691	1736.222412	22.949120
760.110229	1162.791138	3442.863037	1838.620850	29.640720
760.426270	1215.128052	3522.506104	1713.467163	21.597637
760.742249	1192.372925	3515.679688	1774.906250	25.073458
761.058105	1162.791138	3472.444824	1768.079712	26.206896
761.374023	1187.821899	3611.251465	1804.488037	25.446009
761.689819	1092.250000	3411.005615	1715.742676	26.889107
762.005554	1192.372925	3449.689453	1836.345337	28.528231
762.321289	1192.372925	3540.710449	1797.661377	25.775190
762.636902	1206.026001	3486.097900	1784.008301	25.349302
762.952515	1126.382813	3599.874023	1786.283813	26.678930
763.268127	1203.750488	3563.465576	1777.181763	24.300869
763.583618	1151.413574	3674.966064	1884.131226	29.035166
763.899048	1185.546387	4127.794922	1888.682251	23.897909
764.214478	1133.209351	4373.550781	2000.182739	26.755619
764.529785	1183.270874	4689.848145	2123.060791	26.800777
764.845093	1201.474976	4912.849609	2136.714111	25.199266
765.160400	1301.597900	4896.920898	2091.203613	21.962025
765.475586	1187.821899	4749.011719	2129.887451	26.453672
765.790771	1178.719727	4357.622559	2025.213501	26.628489
766.105835	1119.556274	4337.142578	2061.621826	29.278641
766.420837	1142.311401	4250.672852	1938.743774	25.622259
766.735840	1190.097412	4050.427002	1872.753662	23.866350
767.050842	1178.719727	3802.395264	1834.069824	24.978321
767.365662	1242.434326	3706.823486	1827.243164	23.730377
767.680542	1137.760376	3613.527100	1879.580200	29.963238
767.995300	1103.627563	3624.904541	1797.661377	27.527077
768.309998	1176.444214	3597.598389	1849.998413	27.819550
768.624817	1158.240112	3445.138428	1804.488037	28.258707
768.939392	1226.505737	3536.159424	1758.977539	23.054182
769.254028	1183.270874	3367.770752	1736.222412	25.312498
769.568481	1210.577026	3363.219727	1736.222412	24.418610
769.882935	1183.270874	3297.229736	1661.130127	22.604944
770.197388	1194.648438	3226.688477	1708.916138	25.307951
770.511841	1140.035889	3240.341553	1784.008301	30.660891
770.826172	1240.158813	3290.403076	1729.395752	23.862375
771.140442	1251.536499	3215.310791	1715.742676	23.638470
771.454651	1140.035889	3267.647949	1708.916138	26.737968
771.768860	1178.719727	3197.106689	1699.814087	25.817366
772.082886	1153.689087	3110.636963	1670.232300	26.395350
772.397034	1155.964600	3208.484375	1683.885376	25.720619
772.711060	1165.066650	3203.933350	1699.814087	26.227680
773.025024	1196.923950	3083.330566	1688.436401	26.055489
773.338928	1178.719727	3035.544678	1713.467163	28.799023
773.652771	1176.444214	3183.453613	1704.365112	26.303858
773.966614	1171.893188	3096.983887	1583.762451	21.394798
774.280457	1178.719727	3037.820313	1620.170776	23.745409
774.594116	1128.658325	2985.483398	1658.854614	28.553917
774.907776	1124.107300	2990.034424	1661.130127	28.780483
775.221375	1119.556274	2951.350586	1706.640625	32.049686
775.534912	1183.270874	2942.248291	1601.966675	23.803364
775.848450	1224.230225	2960.452637	1683.885376	26.474440
776.161926	1137.760376	2992.309814	1626.997314	26.380367
776.475342	1174.168701	2928.595215	1558.731689	21.919584
776.788696	1192.372925	3010.513916	1579.211426	21.276596
777.101990	1231.056763	2903.564453	1620.170776	23.265305
777.415283	1235.607788	2787.512939	1645.201538	26.392963
777.728516	1256.087524	2876.258301	1622.446289	22.612354
778.041626	1210.577026	2885.360352	1601.966675	23.369570
778.354736	1171.893188	2862.605225	1631.548462	27.187082
778.667725	1251.536499	2821.645752	1581.486938	21.014490
778.980774	1135.484863	2880.809326	1570.109375	24.902218
779.293640	1183.270874	2778.410889	1636.099487	28.388016
779.606567	1206.026001	2785.237549	1588.313477	24.207489
779.919434	1180.995239	2848.952148	1629.272949	26.875856
780.232239	1169.617676	2817.094727	1615.619751	27.071823
780.544983	1158.240112	2810.268311	1588.313477	26.033052
780.857666	1272.016113	2785.237549	1510.945801	15.789473
781.170227	1217.403687	2807.992676	1581.486938	22.889839
781.482849	1219.679199	2855.778564	1561.007324	20.862310
781.795410	1190.097412	2753.380127	1652.028076	29.548761
782.107910	1183.270874	2730.625000	1538.252075	22.941174
782.420288	1206.026001	2712.420898	1633.823975	28.398794
782.732666	1180.995239	2641.879639	1522.323364	23.364485
783.044983	1126.382813	2707.869873	1563.282837	27.625900
783.357300	1144.586914	2805.717041	1563.282837	25.205486
783.669495	1171.893188	2598.644775	1588.313477	29.186600
783.981689	1121.831787	2571.338623	1615.619751	34.065929
784.293762	1126.382813	2639.604248	1592.864502	30.827061
784.605835	1196.923950	2628.226563	1517.772339	22.416531
784.917908	1187.821899	2666.910400	1467.710938	18.923077
785.229858	1171.893188	2578.165039	1529.150024	25.404535
785.541748	1180.995239	2578.165039	1574.660400	28.175900
785.853577	1219.679199	2566.787354	1576.935913	26.520269
786.165405	1124.107300	2596.369141	1504.119263	25.811440
786.477173	1233.332275	2621.399902	1554.180664	23.114752
786.788879	1192.372925	2616.848877	1561.007324	25.878597
787.100525	1144.586914	2539.481201	1599.691162	32.626434
787.412109	1180.995239	2582.716064	1526.874512	24.675333
787.723694	1224.230225	2605.471436	1613.344238	28.171329
788.035156	1233.332275	2610.022461	1517.772339	20.661154
788.346558	1208.301514	2630.501953	1567.833862	25.280005
788.658081	1221.954712	2553.134277	1574.660400	26.495726
788.969360	1133.209351	2782.961914	1601.966675	28.413795
789.280640	1185.546387	2712.420898	1586.037964	26.229502
789.591919	1212.852539	2776.135498	1561.007324	22.270746
789.903076	1192.372925	2894.462402	1570.109375	22.192514
790.214172	1219.679199	2755.655762	1613.344238	25.629625
790.525269	1171.893188	2719.247314	1520.047852	22.499998
790.836365	1160.515625	2769.308838	1529.150024	22.913721
791.147339	1196.923950	2655.532715	1563.282837	25.117008
791.458191	1144.586914	2616.848877	1581.486938	29.675426
791.769104	1153.689087	2557.685303	1576.935913	30.145866
792.079895	1180.995239	2550.858887	1529.150024	25.415287
792.390686	1185.546387	2534.930176	1492.741699	22.765600
792.701416	1185.546387	2548.583252	1497.292725	22.871452
793.012085	1199.199463	2537.205811	1515.496826	23.639452
793.322693	1169.617676	2434.807373	1501.843750	26.258993
793.633240	1140.035889	2475.766602	1481.364014	25.553663
793.943787	1171.893188	2505.348389	1526.874512	26.621166
794.254272	1167.342163	2434.807373	1451.782227	22.441647
794.564636	1176.444214	2350.613037	1535.976563	30.620157
794.875000	1133.209351	2519.001465	1492.741699	25.944176
795.185303	1149.138062	2446.184814	1417.649414	20.701748
795.495544	1176.444214	2409.776611	1497.292725	26.014765
795.805786	1221.954712	2402.949951	1529.150024	26.011562
796.115906	1203.750488	2441.633789	1570.109375	29.595592
796.426025	1130.933838	2405.225586	1522.323364	30.714279
796.736023	1192.372925	2523.552490	1554.180664	27.179483
797.045959	1185.546387	2500.797363	1508.670288	24.567471
797.355896	1153.689087	2644.155273	1520.047852	24.580147
797.665833	1185.546387	2559.960938	1517.772339	24.172180
797.975708	1185.546387	2610.022461	1531.425537	24.281149
798.285461	1165.066650	2578.165039	1545.078613	26.892109
798.595154	1142.311401	2453.011475	1454.057739	23.784719
798.904846	1165.066650	2546.307861	1501.843750	24.382208
799.214478	1151.413574	2612.297852	1501.843750	23.987537
799.524109	1140.035889	2457.562500	1517.772339	28.670118
799.833557	1201.474976	2437.082764	1431.302612	18.600370
800.143005	1158.240112	2343.786377	1485.915039	27.639151
800.452393	1146.862427	2437.082764	1426.751587	21.693129
800.761780	1183.270874	2325.582275	1451.782227	23.505968
801.071106	1169.617676	2375.643799	1483.639526	26.037731
801.380371	1142.311401	2346.062012	1517.772339	31.190924
801.689575	1160.515625	2309.653564	1508.670288	30.297029
801.998718	1146.862427	2325.582275	1563.282837	35.328194
802.307800	1183.270874	2321.031250	1499.568237	27.799997
802.616882	1165.066650	2393.847900	1504.119263	27.592594
802.925903	1155.964600	2293.724854	1460.884399	26.800005
803.234863	1203.750488	2300.551514	1447.231201	22.199169
803.543701	1174.168701	2286.898438	1456.333252	25.357870
803.852539	1155.964600	2314.204590	1513.221313	30.844791
804.161316	1110.454102	2248.214600	1488.190552	33.199997
804.470032	1174.168701	2327.857666	1469.986450	25.641031
804.778809	1153.689087	2177.673340	1413.098389	25.333328
805.087341	1190.097412	2293.724854	1426.751587	21.443302
805.395935	1140.035889	2277.796387	1454.057739	27.599997
805.704468	1183.270874	2268.694336	1515.496826	30.607958
806.012939	1130.933838	2325.582275	1469.986450	28.380953
806.321350	1240.158813	2214.081787	1419.924927	18.457939
806.629761	1203.750488	2398.398926	1497.292725	24.571432
806.938049	1151.413574	2273.245361	1438.129150	25.557804
807.246277	1235.607788	2330.133301	1440.404663	18.711020
807.554504	1140.035889	2350.613037	1456.333252	26.127815
807.862671	1185.546387	2409.776611	1435.853638	20.446093
808.170715	1194.648438	2282.347412	1399.445313	18.828451
808.478821	1190.097412	2241.387939	1476.812988	27.272726
808.786804	1174.168701	2350.613037	1444.955688	23.017408
809.094727	1226.505737	2282.347412	1374.414551	14.008616
809.402649	1210.577026	2248.214600	1438.129150	21.929827
809.710510	1206.026001	2327.857666	1451.782227	21.906694
810.018311	1194.648438	2334.684326	1488.190552	25.748497
810.326050	1142.311401	2252.765625	1467.710938	29.303282
810.633667	1137.760376	2220.908203	1449.506714	28.781513
810.941345	1185.546387	2252.765625	1467.710938	26.439230
811.248901	1190.097412	2241.387939	1426.751587	22.510826
811.556396	1135.484863	2127.612061	1435.853638	30.275229
811.863892	1130.933838	2209.530762	1499.568237	34.177216
812.171326	1187.821899	2189.051025	1479.088501	29.090904
812.478699	1224.230225	2166.295898	1488.190552	28.019312
812.786011	1242.434326	2136.714111	1458.608887	24.173035
813.093262	1174.168701	2148.091553	1397.169800	22.897203
813.400391	1210.577026	2098.030273	1399.445313	21.282055
813.707642	1274.291626	2111.683350	1429.027100	18.478266
814.014709	1258.363037	2132.163086	1388.067749	14.843752
814.321716	1158.240112	2118.509766	1385.792114	23.696678
814.628723	1246.985352	2095.754639	1388.067749	16.621996
814.935669	1203.750488	2223.183838	1390.343262	18.303577
815.242554	1174.168701	2166.295898	1415.373901	24.311922
815.549438	1224.230225	2166.295898	1397.169800	18.357487
815.856201	1199.199463	2145.816162	1435.853638	25.000000
816.162964	1196.923950	2116.234375	1454.057739	27.970289
816.469604	1185.546387	2034.315552	1424.476074	28.150137
816.776184	1171.893188	2159.469238	1426.751587	25.806458
817.082825	1162.791138	2225.459229	1472.261963	29.122059
817.389343	1130.933838	2259.592041	1388.067749	22.782267
817.695801	1176.444214	2136.714111	1408.547363	24.170616
818.002197	1178.719727	2161.744873	1438.129150	26.388889
818.308533	1153.689087	2136.714111	1410.822876	26.157400
818.614868	1231.056763	2138.989502	1424.476074	21.303265
818.921143	1146.862427	2223.183838	1469.986450	30.021147
819.227356	1094.525513	2234.561523	1515.496826	36.926144
819.533447	1206.026001	2223.183838	1506.394775	29.530203
819.839539	1196.923950	2305.102539	1567.833862	33.470230
820.145569	1212.852539	2284.622803	1474.537476	24.416142
820.451538	1208.301514	2341.510986	1513.221313	26.907629
820.757568	1171.893188	2537.205811	1549.629639	27.666664
821.063416	1169.617676	2698.767578	1485.915039	20.684523
821.369263	1180.995239	2721.522949	1667.956787	31.610048
821.675049	1146.862427	2764.757813	1649.752563	31.082983
821.980713	1199.199463	2999.136475	1743.048950	30.214918
822.286438	1149.138062	3185.729004	1706.640625	27.374302
822.592102	1192.372925	3863.834229	1890.957764	26.149914
822.897583	1224.230225	5477.178711	2457.562500	28.999466
823.203125	1235.607788	7759.525879	3035.544678	27.589815
823.508545	1199.199463	9411.553711	3424.658691	27.098919
823.813965	1151.413574	10276.251953	3604.425049	26.882795
824.119263	1199.199463	9281.849609	3463.342773	28.012386
824.424622	1133.209351	8112.231445	3151.596191	28.920769
824.729858	1142.311401	6981.297852	2764.757813	27.786440
825.035095	1176.444214	6030.129883	2580.440674	28.926399
825.340149	1167.342163	5169.983398	2296.000488	28.197840
825.645264	1265.189575	4794.522461	2280.071777	28.755638
825.950256	1210.577026	4519.184082	2118.509766	27.441542
826.255310	1192.372925	4196.060547	2132.163086	31.287880
826.560242	1185.546387	3952.579590	2009.284912	29.769737
826.865112	1135.484863	3752.333740	1868.202637	28.000004
827.169922	1140.035889	3663.588379	1856.824951	28.403969
827.474670	1169.617676	3561.189941	1879.580200	29.686016
827.779419	1212.852539	3950.304199	1915.988525	25.685787
828.084045	1199.199463	4453.194336	2173.122314	29.930067
828.388672	1167.342163	4865.063477	2298.276123	30.584620
828.693176	1130.933838	5024.350098	2298.276123	29.982468
828.997681	1208.301514	4607.929688	2200.428711	29.183403
829.302124	1112.729614	4050.427002	1979.703125	29.512011
829.606567	1119.556274	3556.638916	1947.845825	33.986931
829.910828	1199.199463	3338.188965	1752.151001	25.851063
830.215149	1215.128052	3069.677490	1708.916138	26.625771
830.519348	1144.586914	2914.942139	1658.854614	29.048843
830.823547	1099.076538	2712.420898	1620.170776	32.299007
831.127686	1167.342163	2707.869873	1588.313477	27.326435
831.431763	1155.964600	2523.552490	1588.313477	31.613974
831.735779	1210.577026	2478.042236	1549.629639	26.750446
832.039734	1176.444214	2366.541748	1599.691162	35.564056
832.343628	1149.138062	2243.663574	1504.119263	32.432426
832.647461	1124.107300	2232.285889	1454.057739	29.774122
832.951233	1155.964600	2277.796387	1567.833862	36.713993
833.255127	1180.995239	2334.684326	1435.853638	22.090734
833.558777	1146.862427	2230.010498	1501.843750	32.773109
833.862366	1196.923950	2468.940186	1558.731689	28.443642
834.165955	1117.280762	2575.889648	1556.456177	30.109196
834.469482	1155.964600	3026.442627	1727.120239	30.535276
834.773010	1185.546387	3358.668701	1788.559326	27.748688
835.076416	1167.342163	3652.210938	1934.192627	30.860806
835.379822	1199.199463	3549.812500	1888.682251	29.332041
835.683105	1149.138062	3376.872803	1749.875488	26.966290
835.986389	1174.168701	3046.922363	1752.151001	30.862698
836.289612	1121.831787	2926.319824	1665.681274	30.138714
836.592773	1103.627563	2712.420898	1633.823975	32.956154
836.895874	1212.852539	2591.818115	1558.731689	25.082508
837.198914	1133.209351	2505.348389	1601.966675	34.162525
837.501892	1165.066650	2357.439453	1595.140137	36.068710
837.804871	1187.821899	2398.398926	1510.945801	26.691727
838.107666	1121.831787	2202.704102	1508.670288	35.789474
838.410583	1183.270874	2120.785400	1458.608887	29.368933
838.713379	1153.689087	2138.989502	1403.996338	25.404156
839.016052	1219.679199	2000.182739	1385.792114	21.282787
839.318787	1146.862427	1888.682251	1406.271851	34.969330
839.621338	1224.230225	1904.610962	1454.057739	33.779251
839.923889	1206.026001	1886.406738	1360.761475	22.742483
840.226440	1196.923950	1986.529663	1376.690063	22.766567
840.528931	1210.577026	1970.601074	1310.699951	13.173653
840.831299	1226.505737	2123.060791	1369.863525	15.989848
841.133606	1174.168701	2152.642578	1454.057739	28.604650
841.435913	1194.648438	2150.367188	1492.741699	31.190479
841.738220	1201.474976	2123.060791	1545.078613	37.283955
842.040405	1231.056763	2136.714111	1422.200562	21.105532
842.342529	1228.781250	2063.897461	1367.588013	16.621252
842.644592	1194.648438	1995.631714	1356.210449	20.170460
842.946594	1199.199463	1870.478149	1381.241089	27.118637
843.248596	1249.260864	1950.121338	1451.782227	28.896103
843.550598	1162.791138	1795.385864	1406.271851	38.489208
843.852478	1119.556274	1804.488037	1360.761475	35.215946
844.154236	1210.577026	1738.497925	1306.148926	18.103451
844.455994	1178.719727	1740.773438	1317.526489	24.696352
844.757690	1244.709839	1804.488037	1235.607788	-1.626010
845.059326	1233.332275	1779.457275	1356.210449	22.500010
845.360962	1137.760376	1765.804199	1294.771362	25.000006
845.662476	1160.515625	1702.089600	1374.414551	39.495792
845.963989	1135.484863	1674.783325	1237.883301	18.987341
846.265381	1237.883301	1661.130127	1262.914063	5.913987
846.566772	1105.903076	1624.721802	1306.148926	38.596497
846.868042	1171.893188	1647.477051	1374.414551	42.583733
847.169373	1128.658325	1690.711914	1326.628662	35.222679
847.470581	1176.444214	1683.885376	1206.026001	5.829599
847.771729	1208.301514	1613.344238	1381.241089	42.696625
848.072815	1194.648438	1665.681274	1272.016113	16.425114
848.373901	1183.270874	1533.701050	1249.260864	18.831139
848.674866	1171.893188	1645.201538	1287.944824	24.519245
848.975891	1165.066650	1683.885376	1338.006226	33.333332
849.276794	1221.954712	1699.814087	1260.638550	8.095235
849.577637	1235.607788	1677.058838	1338.006226	23.195875
849.878357	1151.413574	1506.394775	1251.536499	28.205133
850.179077	1194.648438	1622.446289	1253.812012	13.829797
850.479736	1146.862427	1667.956787	1224.230225	14.847177
850.780396	1190.097412	1599.691162	1235.607788	11.111101
851.080994	1176.444214	1613.344238	1272.016113	21.875004
851.381470	1133.209351	1556.456177	1299.322388	39.247322
851.681946	1080.872437	1633.823975	1360.761475	50.617283
851.982361	1142.311401	1604.242188	1285.669312	31.034500
852.282715	1155.964600	1558.731689	1306.148926	37.288132
852.583008	1192.372925	1563.282837	1256.087524	17.177917
852.883240	1206.026001	1595.140137	1240.158813	8.771928
853.183411	1174.168701	1661.130127	1231.056763	11.682252
853.483521	1208.301514	1510.945801	1242.434326	11.278194
853.783630	1160.515625	1661.130127	1267.465088	21.363636
854.083679	1196.923950	1551.905151	1299.322388	28.846157
854.383667	1187.821899	1570.109375	1244.709839	14.880932
854.683533	1215.128052	1563.282837	1249.260864	9.803919
854.983337	1178.719727	1554.180664	1274.291626	25.454552
855.283203	1171.893188	1604.242188	1306.148926	31.052631
855.582886	1176.444214	1542.803101	1221.954712	12.422381
855.882629	1233.332275	1510.945801	1249.260864	5.737685
856.182312	1169.617676	1531.425537	1285.669312	32.075489
856.481873	1140.035889	1654.303589	1262.914063	23.893816
856.781372	1183.270874	1570.109375	1272.016113	22.941160
857.080872	1178.719727	1551.905151	1256.087524	20.731731
857.380310	1142.311401	1597.415649	1306.148926	36.000000
857.679688	1133.209351	1579.211426	1206.026001	16.326527
857.979004	1144.586914	1515.496826	1269.740601	33.742340
858.278259	1167.342163	1510.945801	1283.393677	33.774822
858.577454	1165.066650	1549.629639	1276.567139	28.994078
858.876648	1183.270874	1522.323364	1231.056763	14.093950
859.175720	1212.852539	1551.905151	1258.363037	13.422842
859.474792	1146.862427	1529.150024	1278.842651	34.523804
859.773743	1235.607788	1608.793213	1244.709839	2.439016
860.072693	1130.933838	1592.864502	1267.465088	29.556654
860.371521	1215.128052	1538.252075	1290.220337	23.239462
860.670349	1162.791138	1567.833862	1237.883301	18.539320
860.969116	1190.097412	1542.803101	1306.148926	32.903217
861.267883	1180.995239	1524.598877	1262.914063	23.841082
861.566589	1231.056763	1588.313477	1237.883301	1.910821
861.865112	1130.933838	1558.731689	1322.077637	44.680870
862.163635	1196.923950	1581.486938	1233.332275	9.467454
862.462158	1144.586914	1565.558350	1203.750488	14.054059
862.760620	1176.444214	1520.047852	1312.975464	39.735100
863.059021	1262.914063	1492.741699	1287.944824	10.891102
863.357361	1180.995239	1540.527588	1351.659302	47.468346
863.655640	1089.974487	1535.976563	1226.505737	30.612246
863.953857	1158.240112	1545.078613	1258.363037	25.882359
864.251953	1226.505737	1531.425537	1262.914063	11.940295
864.550110	1174.168701	1574.660400	1258.363037	21.022741
864.848206	1194.648438	1574.660400	1312.975464	31.137711
865.146179	1167.342163	1520.047852	1276.567139	30.967739
865.444092	1176.444214	1531.425537	1235.607788	16.666672
865.741943	1278.842651	1576.935913	1249.260864	-9.923669
866.039795	1180.995239	1579.211426	1299.322388	29.714298
866.337646	1233.332275	1581.486938	1283.393677	14.379069
866.635376	1240.158813	1485.915039	1249.260864	3.703691
866.933044	1206.026001	1611.068726	1233.332275	6.741579
867.230652	1212.852539	1479.088501	1281.118164	25.641024
867.528198	1228.781250	1508.670288	1251.536499	8.130096
867.825745	1224.230225	1535.976563	1140.035889	-27.007322
868.123230	1233.332275	1588.313477	1219.679199	-3.846141
868.420593	1217.403687	1535.976563	1249.260864	9.999966
868.717896	1178.719727	1526.874512	1246.985352	19.607838
869.015198	1121.831787	1504.119263	1281.118164	41.666649
869.312439	1167.342163	1488.190552	1210.577026	13.475169
869.609619	1174.168701	1531.425537	1276.567139	28.662415
869.906738	1174.168701	1426.751587	1242.434326	27.027020
870.203796	1146.862427	1533.701050	1274.291626	32.941177
870.500854	1130.933838	1542.803101	1215.128052	20.441975
870.797791	1126.382813	1499.568237	1331.179688	54.878048
871.094666	1199.199463	1495.017212	1278.842651	26.923059
871.391602	1174.168701	1624.721802	1278.842651	23.232323
871.688293	1212.852539	1531.425537	1319.802124	33.571453
871.985107	1187.821899	1531.425537	1342.557251	45.033096
872.281738	1217.403687	1529.150024	1310.699951	29.926981
872.578369	1228.781250	1490.466064	1301.597900	27.826090
872.874939	1119.556274	1533.701050	1272.016113	36.813175
873.171509	1158.240112	1481.364014	1212.852539	16.901388
873.467957	1169.617676	1590.588989	1315.250977	34.594589
873.764343	1115.005249	1554.180664	1249.260864	30.569929
874.060669	1178.719727	1558.731689	1192.372925	3.592834
874.356995	1178.719727	1645.201538	1244.709839	14.146342
874.653198	1297.046875	1604.242188	1303.873413	2.222214
874.949463	1185.546387	1554.180664	1283.393677	26.543188
875.245544	1119.556274	1590.588989	1240.158813	25.603857
875.541626	1137.760376	1515.496826	1242.434326	27.710842
875.837646	1251.536499	1504.119263	1292.495850	16.216209
876.133606	1165.066650	1510.945801	1297.046875	38.157902
876.429565	1192.372925	1479.088501	1272.016113	27.777769
876.725403	1174.168701	1547.354126	1315.250977	37.804874
877.021179	1169.617676	1517.772339	1235.607788	18.954252
877.316956	1203.750488	1592.864502	1274.291626	18.128654
877.612610	1185.546387	1604.242188	1290.220337	25.000000
877.908203	1121.831787	1570.109375	1171.893188	11.167500
878.203857	1135.484863	1540.527588	1262.914063	31.460680
878.499390	1146.862427	1520.047852	1335.730713	50.609772
878.794800	1153.689087	1563.282837	1269.740601	28.333321
879.090271	1144.586914	1561.007324	1303.873413	38.251366
879.385559	1167.342163	1590.588989	1199.199463	7.526885
879.680847	1142.311401	1622.446289	1267.465088	26.066360
879.976196	1178.719727	1640.650513	1262.914063	18.226612
880.271301	1169.617676	1695.262939	1278.842651	20.779219
880.566467	1178.719727	1786.283813	1403.996338	37.078659
880.861572	1185.546387	1806.763550	1383.516602	31.868118
881.156555	1178.719727	1802.212524	1415.373901	37.956200
881.451477	1160.515625	2179.948975	1458.608887	29.241074
881.746460	1185.546387	2655.532715	1606.517700	28.637772
882.041321	1124.107300	3208.484375	1711.191650	28.165939
882.336121	1231.056763	4000.365479	1954.672363	26.129829
882.630798	1178.719727	4414.510254	2068.448486	27.496489
882.925537	1208.301514	4535.112793	2141.265137	28.043779
883.220215	1226.505737	4314.387207	2107.132324	28.518797
883.514771	1192.372925	3982.161377	1956.947876	27.406197
883.809326	1162.791138	3761.435791	1913.713013	28.896675
884.103760	1253.812012	3538.434814	1920.539551	29.183266
884.398132	1221.954712	3297.229736	1797.661377	27.741224
884.692505	1160.515625	3149.320801	1740.773438	29.176203
884.986816	1262.914063	2892.187012	1604.242188	20.949720
885.281067	1135.484863	2858.054199	1615.619751	27.873182
885.575256	1185.546387	2537.205811	1649.752563	34.343430
885.869385	1242.434326	2368.817139	1570.109375	29.090914
886.163452	1217.403687	2161.744873	1513.221313	31.325291
886.457458	1160.515625	2132.163086	1397.169800	24.355970
886.751465	1244.709839	2036.591064	1413.098389	21.264370
887.045410	1162.791138	1913.713013	1349.383789	24.848476
887.339233	1190.097412	1893.233276	1383.516602	27.508081
887.632996	1130.933838	1743.048950	1269.740601	22.676579
887.926758	1160.515625	1690.711914	1246.985352	16.309002
888.220398	1153.689087	1697.538574	1272.016113	21.757311
888.514099	1212.852539	1658.854614	1262.914063	11.224504
888.807678	1135.484863	1749.875488	1306.148926	27.777779
889.101196	1153.689087	1622.446289	1319.802124	35.436905
889.394653	1146.862427	1636.099487	1256.087524	22.325598
889.688049	1208.301514	1608.793213	1353.934937	36.363655
889.981384	1215.128052	1481.364014	1342.557251	47.863255
890.274719	1217.403687	1561.007324	1217.403687	0.000000
890.567932	1196.923950	1554.180664	1283.393677	24.203808
>>>>>End Processed Spectral Data<<<<<
