Jaz Data File
++++++++++++++++++++++++++++++++++++
Date: Wed Feb 07 06:51:45 2024
User: jaz
Dark Spectrum Present: Yes
Reference Spectrum Present: Yes
Processed Spectrum Present: Yes
Spectrometers: JAZA3692
Integration Time (usec): 42900 (JAZA3692)
Spectra Averaged: 1 (JAZA3692)
Boxcar Smoothing: 0 (JAZA3692)
Correct for Electrical Dark: No (JAZA3692)
Strobe/Lamp Enabled: Yes (JAZA3692)
Correct for Detector Non-linearity: No (JAZA3692)
Correct for Stray Light: No (JAZA3692)
Number of Pixels in Processed Spectrum: 2048
>>>>>Begin Processed Spectral Data<<<<<
W	D	R	S	P
190.244385	0.000000	0.000000	0.000000	0.000000
190.627136	0.000000	0.000000	0.000000	0.000000
191.009842	907.932800	948.892151	985.300537	188.889069
191.392532	985.300537	1028.535400	876.075500	-252.631851
191.775177	917.034912	967.096313	912.483826	-9.091009
192.157791	989.851563	903.381775	978.473938	13.157919
192.540390	992.127075	917.034912	946.616638	60.606106
192.922943	905.657288	1001.229126	1019.433350	119.047684
193.305481	1003.504700	1035.361938	951.167725	-164.285980
193.687958	1010.331238	1023.984375	1033.086426	166.666367
194.070419	948.892151	1019.433350	978.473938	41.935474
194.452866	1064.943726	928.412476	951.167725	83.333305
194.835251	1030.810913	1012.606750	989.851563	224.999924
195.217621	1008.055725	976.198425	901.106262	335.714142
195.599960	1039.912964	1003.504700	969.371887	193.750183
195.982254	1080.872437	976.198425	948.892151	126.086967
196.364517	1033.086426	971.647400	955.718750	125.925949
196.746750	962.545288	1003.504700	992.127075	72.222198
197.128952	1014.882263	994.402588	1001.229126	66.666763
197.511139	1067.219238	1001.229126	980.749451	131.034454
197.893280	992.127075	1010.331238	942.065613	-275.000092
198.275391	998.953613	935.239075	917.034912	128.571442
198.657471	1001.229126	1003.504700	1033.086426	1399.967773
199.039520	1049.015137	967.096313	857.871338	233.333191
199.421539	948.892151	1037.637451	928.412476	-23.076912
199.803513	967.096313	973.922913	1003.504700	533.331238
200.185471	1001.229126	948.892151	919.310425	156.521652
200.567383	1010.331238	1010.331238	960.269775	0.000000
200.949265	989.851563	989.851563	980.749451	0.000000
201.331131	930.687988	1044.463989	1019.433350	78.000069
201.712967	946.616638	1037.637451	951.167725	5.000050
202.094742	976.198425	1030.810913	1014.882263	70.833321
202.476517	980.749451	1026.259888	928.412476	-114.999939
202.858231	957.994263	1055.841675	871.524475	-88.372078
203.239944	969.371887	994.402588	987.576050	72.727341
203.621582	955.718750	935.239075	973.922913	-88.888924
204.003235	937.514587	969.371887	1017.157776	249.999802
204.384827	935.239075	1019.433350	960.269775	29.729694
204.766388	937.514587	1017.157776	942.065613	5.714268
205.147934	985.300537	1039.912964	955.718750	-54.166771
205.529449	1021.708862	953.443237	882.902100	203.333328
205.910904	976.198425	1044.463989	937.514587	-56.666695
206.292343	948.892151	1019.433350	983.024963	48.387062
206.673767	930.687988	992.127075	894.279663	-59.259224
207.055115	998.953613	980.749451	957.994263	224.999924
207.436462	1010.331238	1012.606750	980.749451	-1300.005371
207.817780	1014.882263	1069.494751	944.341125	-129.166687
208.199051	967.096313	976.198425	955.718750	-124.999161
208.580307	994.402588	983.024963	948.892151	399.999451
208.961517	928.412476	971.647400	919.310425	-21.052542
209.342712	983.024963	987.576050	944.341125	-849.991272
209.723846	976.198425	989.851563	967.096313	-66.666817
210.104965	1096.801025	1069.494751	935.239075	591.666016
210.486069	955.718750	1074.045776	910.208313	-38.461575
210.867111	985.300537	1044.463989	985.300537	0.000000
211.248123	962.545288	1046.739624	973.922913	13.513527
211.629120	962.545288	998.953613	901.106262	-168.749939
212.010071	994.402588	1044.463989	910.208313	-168.182022
212.390991	951.167725	1026.259888	948.892151	-3.030375
212.771881	983.024963	923.861450	935.239075	80.769188
213.152756	962.545288	992.127075	967.096313	15.384552
213.533569	962.545288	944.341125	964.820801	-12.499958
213.914368	930.687988	960.269775	919.310425	-38.461380
214.295135	989.851563	985.300537	973.922913	350.001343
214.675858	989.851563	928.412476	944.341125	74.074081
215.056549	978.473938	992.127075	919.310425	-433.332733
215.437225	1019.433350	978.473938	957.994263	149.999924
215.817841	978.473938	1071.770264	928.412476	-53.658558
216.198441	1010.331238	985.300537	980.749451	118.182014
216.579025	928.412476	1028.535400	921.585938	-6.818157
216.959549	1053.566162	1017.157776	967.096313	237.499817
217.340057	973.922913	1012.606750	942.065613	-82.352997
217.720535	1003.504700	1008.055725	937.514587	-1450.005371
218.100967	1003.504700	1001.229126	967.096313	1599.965088
218.481369	994.402588	987.576050	1012.606750	-266.667572
218.861740	1003.504700	1067.219238	978.473938	-39.285793
219.242065	955.718750	978.473938	921.585938	-150.000137
219.622391	969.371887	1019.433350	955.718750	-27.272749
220.002670	994.402588	1012.606750	882.902100	-612.499939
220.382919	976.198425	962.545288	930.687988	333.333191
220.763123	932.963501	996.678101	994.402588	96.428589
221.143295	937.514587	1014.882263	926.136963	-14.705914
221.523453	992.127075	1005.780212	914.759338	-566.666382
221.903549	957.994263	1003.504700	882.902100	-164.999878
222.283630	1046.739624	1023.984375	946.616638	439.999512
222.663696	976.198425	1035.361938	932.963501	-73.077003
223.043701	923.861450	978.473938	944.341125	37.499985
223.423676	978.473938	1033.086426	1033.086426	100.000000
223.803635	967.096313	1012.606750	976.198425	20.000053
224.183548	928.412476	996.678101	994.402588	96.666679
224.563431	962.545288	1014.882263	992.127075	56.521774
224.943283	946.616638	1008.055725	946.616638	0.000000
225.323105	937.514587	1058.117188	1019.433350	67.924538
225.702881	1008.055725	1033.086426	860.146851	-590.909851
226.082642	919.310425	1026.259888	969.371887	46.808521
226.462357	1017.157776	1035.361938	987.576050	-162.499786
226.842041	998.953613	967.096313	948.892151	157.142822
227.221695	926.136963	1019.433350	944.341125	19.512184
227.601318	937.514587	1021.708862	948.892151	13.513465
227.980911	989.851563	996.678101	962.545288	-400.001801
228.360474	976.198425	1021.708862	985.300537	20.000053
228.739990	1028.535400	1135.484863	942.065613	-80.851074
229.119476	971.647400	1124.107300	942.065613	-19.402996
229.498932	1005.780212	1130.933838	960.269775	-36.363659
229.878372	996.678101	1187.821899	917.034912	-41.666634
230.257736	1008.055725	1212.852539	932.963501	-36.666695
230.637115	980.749451	1203.750488	898.830688	-36.734699
231.016449	992.127075	1128.658325	962.545288	-21.666679
231.395737	903.381775	1121.831787	946.616638	19.791651
231.774994	937.514587	1014.882263	948.892151	14.705836
232.154221	964.820801	1146.862427	1005.780212	22.500025
232.533417	937.514587	1146.862427	894.279663	-20.652195
232.912582	917.034912	1167.342163	996.678101	31.818171
233.291702	928.412476	1115.005249	1026.259888	52.439014
233.670792	996.678101	1119.556274	948.892151	-38.888882
234.049866	907.932800	1133.209351	951.167725	19.191933
234.428894	957.994263	1176.444214	935.239075	-10.416659
234.807892	973.922913	1183.270874	955.718750	-8.695648
235.186874	985.300537	1133.209351	1064.943726	53.846142
235.565781	967.096313	1212.852539	973.922913	2.777793
235.944687	1028.535400	1185.546387	976.198425	-33.333321
236.323547	948.892151	1256.087524	855.595825	-30.370356
236.702377	926.136963	1201.474976	992.127075	23.966946
237.081177	980.749451	1174.168701	928.412476	-27.058825
237.459946	980.749451	1190.097412	964.820801	-7.608696
237.838669	942.065613	1165.066650	937.514587	-2.040809
238.217361	928.412476	1256.087524	939.790100	3.472228
238.596039	994.402588	1208.301514	960.269775	-15.957449
238.974670	942.065613	1208.301514	976.198425	12.820515
239.353271	957.994263	1224.230225	942.065613	-5.982907
239.731842	980.749451	1240.158813	957.994263	-8.771922
240.110367	919.310425	1158.240112	912.483826	-2.857158
240.488876	928.412476	1237.883301	985.300537	18.382366
240.867340	964.820801	1253.812012	962.545288	-0.787399
241.245789	1019.433350	1258.363037	980.749451	-16.190495
241.624176	969.371887	1228.781250	928.412476	-15.789489
242.002548	957.994263	1467.710938	1023.984375	12.946430
242.380890	1023.984375	1495.017212	957.994263	-14.009663
242.759186	1019.433350	1533.701050	1042.188477	4.424763
243.137451	932.963501	1592.864502	928.412476	-0.689653
243.515686	971.647400	1658.854614	946.616638	-3.642389
243.893890	964.820801	1658.854614	939.790100	-3.606554
244.272049	967.096313	1517.772339	1055.841675	16.115711
244.650192	889.728638	1606.517700	1017.157776	17.777773
245.028290	905.657288	1506.394775	914.759338	1.515146
245.406357	960.269775	1492.741699	989.851563	5.555558
245.784393	955.718750	1447.231201	964.820801	1.851845
246.162384	907.932800	1501.843750	996.678101	14.942527
246.540359	948.892151	1592.864502	1010.331238	9.540641
246.918289	955.718750	1615.619751	1012.606750	8.620687
247.296204	989.851563	1756.702026	1023.984375	4.451039
247.674057	973.922913	2066.172852	1069.494751	8.749996
248.051895	976.198425	2243.663574	1010.331238	2.692998
248.429703	948.892151	2352.888428	1026.259888	5.510537
248.807465	1010.331238	2336.959961	1026.259888	1.200686
249.185196	1019.433350	2095.754639	998.953613	-1.902753
249.562897	964.820801	1893.233276	964.820801	0.000000
249.940567	1001.229126	1840.896362	978.473938	-2.710025
250.318192	1021.708862	1779.457275	1019.433350	-0.300299
250.695801	994.402588	1649.752563	937.514587	-8.680552
251.073349	980.749451	1579.211426	962.545288	-3.041824
251.450882	955.718750	1501.843750	983.024963	4.999993
251.828400	1053.566162	1524.598877	987.576050	-14.009666
252.205872	987.576050	1565.558350	951.167725	-6.299211
252.583313	926.136963	1636.099487	962.545288	5.128204
252.960693	980.749451	1722.569214	976.198425	-0.613495
253.338074	955.718750	1913.713013	957.994263	0.237529
253.715408	1019.433350	1845.447388	951.167725	-8.264463
254.092682	923.861450	1665.681274	967.096313	5.828216
254.469955	989.851563	1654.303589	989.851563	0.000000
254.847198	937.514587	1574.660400	957.994263	3.214284
255.224365	1017.157776	1508.670288	1026.259888	1.851858
255.601563	910.208313	1506.394775	1033.086426	20.610685
255.978683	973.922913	1547.354126	1058.117188	14.682541
256.355743	976.198425	1499.568237	998.953613	4.347822
256.732819	930.687988	1570.109375	1053.566162	19.217089
257.109894	944.341125	1549.629639	973.922913	4.887221
257.486877	1005.780212	1576.935913	1003.504700	-0.398405
257.863831	1028.535400	1683.885376	964.820801	-9.722225
258.240753	1008.055725	1672.507813	989.851563	-2.739725
258.617645	1017.157776	1692.987427	967.096313	-7.407408
258.994507	1003.504700	1799.937012	1019.433350	2.000000
259.371307	980.749451	1836.345337	967.096313	-1.595746
259.748108	985.300537	2125.336426	923.861450	-5.389224
260.124878	998.953613	2314.204590	1023.984375	1.903117
260.501617	898.830688	2500.797363	1008.055725	6.818184
260.878296	919.310425	2803.441650	1021.708862	5.434783
261.254944	951.167725	2889.911377	1085.423462	6.924883
261.631561	989.851563	2864.880615	1021.708862	1.699030
262.008179	946.616638	2521.277100	1003.504700	3.612719
262.384735	960.269775	2168.571289	1028.535400	5.649718
262.761261	973.922913	2018.386963	989.851563	1.525055
263.137695	926.136963	2027.489014	948.892151	2.066114
263.514191	928.412476	1934.192627	1051.290649	12.217200
263.890594	996.678101	1970.601074	971.647400	-2.570090
264.267029	944.341125	1909.161987	985.300537	4.245286
264.643341	978.473938	1875.029175	976.198425	-0.253806
265.019653	942.065613	1845.447388	983.024963	4.534002
265.395935	992.127075	1831.794189	1014.882263	2.710025
265.772217	1017.157776	1863.651489	1028.535400	1.344088
266.148407	953.443237	1829.518677	960.269775	0.779218
266.524597	992.127075	1970.601074	1044.463989	5.348830
266.900726	926.136963	2029.764526	1017.157776	8.247421
267.276855	967.096313	2004.733887	1026.259888	5.701757
267.652924	967.096313	2241.387939	935.239075	-2.499996
268.028992	953.443237	2168.571289	1001.229126	3.932580
268.404999	955.718750	2118.509766	996.678101	3.522503
268.781006	894.279663	2111.683350	1060.392700	13.644860
269.156921	980.749451	2125.336426	994.402588	1.192844
269.532837	973.922913	2170.846924	998.953613	2.091252
269.908661	953.443237	2086.652588	926.136963	-2.409641
270.284546	892.004150	2143.540527	1019.433350	10.181822
270.660339	1023.984375	2148.091553	1035.361938	1.012142
271.036133	937.514587	2141.265137	980.749451	3.591680
271.411835	944.341125	2364.266113	1010.331238	4.647436
271.787537	969.371887	2448.460449	983.024963	0.923074
272.163239	967.096313	2616.848877	1014.882263	2.896553
272.538849	1035.361938	2780.686523	1026.259888	-0.521510
272.914459	987.576050	2812.543701	1021.708862	1.870324
273.290070	980.749451	2632.777588	1055.841675	4.545457
273.665588	944.341125	2491.695313	987.576050	2.794119
274.041046	996.678101	2537.205811	1055.841675	3.840475
274.416565	1010.331238	2441.633789	994.402588	-1.112878
274.791962	1005.780212	2389.296875	960.269775	-3.289475
275.167389	971.647400	2316.480225	1049.015137	5.752964
275.542755	983.024963	2402.949951	980.749451	-0.160256
275.918060	989.851563	2245.938965	1080.872437	7.246381
276.293365	1005.780212	2336.959961	987.576050	-1.367521
276.668640	976.198425	2475.766602	1003.504700	1.820943
277.043854	1023.984375	2489.419678	1037.637451	0.931674
277.419037	937.514587	2514.450439	1017.157776	5.050503
277.794189	964.820801	2439.358398	964.820801	0.000000
278.169312	971.647400	2491.695313	1023.984375	3.443114
278.544373	976.198425	2514.450439	996.678101	1.331360
278.919464	930.687988	2509.899414	996.678101	4.178675
279.294464	935.239075	2330.133301	994.402588	4.241434
279.669464	985.300537	2459.837891	1058.117188	4.938271
280.044403	1012.606750	2380.194824	978.473938	-2.495840
280.419312	944.341125	2437.082764	921.585938	-1.524389
280.794189	1019.433350	2430.256104	939.790100	-5.645164
281.169037	1037.637451	2559.960938	973.922913	-4.185348
281.543854	998.953613	2553.134277	1033.086426	2.196193
281.918671	980.749451	2589.542725	1067.219238	5.374823
282.293365	987.576050	2869.431641	964.820801	-1.209192
282.668091	926.136963	2878.533936	1026.259888	5.128205
283.042786	978.473938	3003.687500	1030.810913	2.584269
283.417419	967.096313	3005.962891	1037.637451	3.459821
283.792053	980.749451	2889.911377	978.473938	-0.119189
284.166595	973.922913	2937.697266	1074.045776	5.098491
284.541138	960.269775	2785.237549	1039.912964	4.364088
284.915619	998.953613	2939.972900	987.576050	-0.586164
285.290100	1055.841675	2921.768799	1014.882263	-2.195124
285.664520	996.678101	2894.462402	1074.045776	4.076737
286.038940	930.687988	2935.421875	1101.352051	8.513053
286.413300	987.576050	3140.218750	1005.780212	0.845666
286.787628	896.555176	3165.249512	1062.668213	7.321966
287.161896	955.718750	3219.861816	1076.321289	5.326631
287.536194	1001.229126	3304.056152	1021.708862	0.889330
287.910400	987.576050	3137.943115	1055.841675	3.174603
288.284607	937.514587	3074.228516	1108.178589	7.987218
288.658752	955.718750	2935.421875	1042.188477	4.367813
289.032867	971.647400	2814.819336	1010.331238	2.098765
289.406921	1005.780212	2851.227539	1067.219238	3.329221
289.781006	912.483826	2853.503174	1092.250000	9.261432
290.154999	1008.055725	2878.533936	1096.801025	4.744524
290.529022	1003.504700	3169.800537	1092.250000	4.096638
290.902954	910.208313	3112.912354	1089.974487	8.161159
291.276825	1026.259888	3253.994629	1085.423462	2.655773
291.650757	985.300537	3331.362549	1010.331238	1.066924
292.024597	960.269775	3297.229736	1167.342163	8.860759
292.398407	962.545288	3265.372314	1087.698975	5.434784
292.772156	969.371887	3119.739014	1064.943726	4.444443
293.145905	978.473938	3115.187988	1028.535400	2.342918
293.519592	989.851563	2969.554688	1012.606750	1.149424
293.893280	1037.637451	3053.749023	976.198425	-3.047402
294.266907	917.034912	3110.636963	1105.903076	8.609956
294.640533	980.749451	3294.954102	1030.810913	2.163225
295.014069	978.473938	3249.443604	1083.147949	4.609221
295.387604	1001.229126	3547.536865	1087.698975	3.395892
295.761078	1019.433350	3588.496338	1133.209351	4.428697
296.134552	967.096313	3465.618164	1094.525513	5.100183
296.507996	967.096313	3547.536865	1053.566162	3.350972
296.881378	923.861450	3549.812500	1094.525513	6.499133
297.254730	939.790100	3729.578613	1137.760376	7.096247
297.628021	1028.535400	3988.988037	1060.392700	1.076096
298.001282	953.443237	4034.498291	1167.342163	6.942392
298.374573	1019.433350	4091.386475	1158.240112	4.518518
298.747803	1001.229126	3909.344727	1105.903076	3.599374
299.121002	998.953613	3747.782715	1112.729614	4.139071
299.494141	885.177612	3602.149414	1069.494751	6.783918
299.867188	1001.229126	3565.741211	1030.810913	1.153505
300.240265	1001.229126	3388.250488	1099.076538	4.099143
300.613312	969.371887	3367.770752	1085.423462	4.838710
300.986328	1026.259888	3345.015625	1064.943726	1.668301
301.359314	987.576050	3203.933350	1039.912964	2.361393
301.732239	951.167725	3140.218750	1062.668213	5.093554
302.105103	921.585938	3265.372314	1055.841675	5.728156
302.477997	953.443237	3188.004639	1094.525513	6.313645
302.850830	1003.504700	3367.770752	1074.045776	2.983635
303.223602	1008.055725	3135.667725	1155.964600	6.951872
303.596375	1051.290649	3208.484375	1051.290649	0.000000
303.969116	973.922913	3071.953125	1092.250000	5.639913
304.341766	987.576050	3076.504150	1074.045776	4.139430
304.714478	980.749451	3156.147461	1012.606750	1.464435
305.087067	944.341125	3162.973877	1135.484863	8.615384
305.459656	989.851563	3144.769775	1094.525513	4.857444
305.832214	1003.504700	3172.075928	1092.250000	4.092340
306.204681	971.647400	3040.095703	1146.862427	8.470844
306.577148	907.932800	3056.024414	1069.494751	7.521185
306.949646	998.953613	3140.218750	1017.157776	0.850159
307.322021	921.585938	3167.524902	989.851563	3.039514
307.694397	935.239075	3126.565674	1046.739624	5.088267
308.066742	1019.433350	3053.749023	1049.015137	1.454139
308.439026	980.749451	3324.535889	1012.606750	1.359224
308.811279	1001.229126	3217.586426	1128.658325	5.749488
309.183502	998.953613	3417.832275	1078.596802	3.292567
309.555695	946.616638	3481.546875	1026.259888	3.141832
309.927887	951.167725	3415.556641	1085.423462	5.447831
310.299988	1023.984375	3556.638916	1128.658325	4.132974
310.672058	942.065613	3499.750977	1051.290649	4.270464
311.044128	946.616638	3558.914551	1074.045776	4.878048
311.416168	914.759338	3654.486328	1023.984375	3.986712
311.788147	942.065613	3636.282227	1117.280762	6.503380
312.160065	967.096313	3615.802490	1001.229126	1.288660
312.531982	944.341125	3549.812500	1074.045776	4.978164
312.903870	992.127075	3433.760986	1119.556274	5.219014
313.275696	948.892151	3417.832275	1037.637451	3.594470
313.647491	1014.882263	3319.984863	1055.841675	1.776902
314.019318	1001.229126	3404.179199	1046.739624	1.893943
314.391022	1017.157776	3415.556641	1080.872437	2.656550
314.762726	1003.504700	3445.138428	1071.770264	2.795897
315.134369	989.851563	3563.465576	1076.321289	3.359856
315.505981	937.514587	3699.996826	1133.209351	7.084019
315.877594	976.198425	3759.160400	1110.454102	4.824201
316.249146	1049.015137	3593.047363	1039.912964	-0.357785
316.620636	928.412476	3467.893799	1128.658325	7.885305
316.992157	973.922913	3276.750000	1151.413574	7.707511
317.363586	896.555176	3290.403076	1051.290649	6.463881
317.735016	985.300537	3256.270264	1053.566162	3.006012
318.106354	960.269775	3304.056152	1089.974487	5.533982
318.477722	1026.259888	3347.291016	1085.423462	2.549021
318.849060	919.310425	3253.994629	1030.810913	4.775828
319.220306	910.208313	3244.892578	1046.739624	5.847956
319.591522	1014.882263	3442.863037	1083.147949	2.811624
319.962738	985.300537	3454.240479	1078.596802	3.778799
320.333923	944.341125	3304.056152	1115.005249	7.232404
320.705017	1042.188477	3310.882813	1096.801025	2.407224
321.076111	998.953613	3329.086914	1085.423462	3.710940
321.447144	978.473938	3283.576416	1044.463989	2.862782
321.818176	914.759338	3222.137451	1037.637451	5.325443
322.189178	967.096313	3201.657715	1078.596802	4.989815
322.560120	1005.780212	3326.811523	1067.219238	2.647057
322.931030	962.545288	3299.505127	992.127075	1.265823
323.301910	985.300537	3411.005615	1119.556274	5.534710
323.672729	1030.810913	3679.517090	1085.423462	2.061858
324.043549	980.749451	3795.568604	1044.463989	2.263539
324.414337	983.024963	3918.446777	1105.903076	4.186046
324.785095	976.198425	4132.345703	1108.178589	4.181686
325.155792	985.300537	4089.110840	1128.658325	4.618768
325.526428	910.208313	4109.590332	1124.107300	6.685634
325.897034	987.576050	3968.508301	1042.188477	1.832059
326.267670	946.616638	3893.416016	1092.250000	4.942086
326.638184	889.728638	4009.467773	1089.974487	6.418673
327.008728	1028.535400	4068.631104	1105.903076	2.544909
327.379211	1014.882263	4048.151611	1092.250000	2.550639
327.749634	937.514587	3927.548828	1126.382813	6.316591
328.120026	978.473938	3891.140625	1074.045776	3.281249
328.490417	937.514587	3811.497314	1053.566162	4.038005
328.860748	987.576050	3659.037354	1169.617676	6.814309
329.231079	946.616638	3654.486328	1153.689087	7.647061
329.601318	973.922913	3834.252441	1094.525513	4.216388
329.971558	942.065613	3786.466553	1112.729614	5.999998
330.341736	969.371887	3754.609375	1071.770264	3.676468
330.711914	971.647400	3690.894775	1160.515625	6.945607
331.082062	957.994263	3756.884766	1067.219238	3.902438
331.452148	973.922913	3709.098877	1137.760376	5.990016
331.822174	1021.708862	3634.006836	1101.352051	3.048779
332.192200	926.136963	3877.487549	1067.219238	4.780262
332.562134	989.851563	3872.936523	1078.596802	3.078135
332.932129	996.678101	4009.467773	1149.138062	5.060425
333.302063	894.279663	4077.733398	1155.964600	8.220159
333.671906	953.443237	4145.999023	1208.301514	7.982892
334.041718	930.687988	4152.825684	1176.444214	7.627118
334.411499	967.096313	4216.540039	1221.954712	7.843139
334.781281	992.127075	4307.561035	1130.933838	4.186685
335.151001	1008.055725	4230.193359	1217.403687	6.497176
335.520721	1010.331238	3986.712402	1160.515625	5.045872
335.890350	944.341125	4216.540039	1128.658325	5.632824
336.259979	926.136963	4221.091309	1108.178589	5.524860
336.629547	930.687988	4266.601563	1206.026001	8.253752
336.999084	948.892151	4328.040527	1071.770264	3.636363
337.368622	912.483826	4150.549805	1140.035889	7.027407
337.738098	878.351013	4303.009766	1133.209351	7.441861
338.107513	951.167725	4243.846191	1067.219238	3.524532
338.476898	944.341125	4252.948242	1128.658325	5.570839
338.846252	967.096313	4419.061523	1203.750488	6.855636
339.215576	1055.841675	4425.888184	1151.413574	2.835922
339.584869	971.647400	4189.233887	1146.862427	5.445542
339.954132	944.341125	4186.958496	1155.964600	6.526317
340.323334	1028.535400	4155.101074	1180.995239	4.876272
340.692505	926.136963	3950.304199	1260.638550	11.060948
341.061646	960.269775	3977.610352	1242.434326	9.351432
341.430786	967.096313	4173.305176	1212.852539	7.665009
341.799896	926.136963	4127.794922	1151.413574	7.036249
342.168915	876.075500	4373.550781	1196.923950	9.173716
342.537903	937.514587	4428.163574	1199.199463	7.496740
342.906830	1026.259888	4478.225098	1281.118164	7.382991
343.275757	1001.229126	4496.429199	1278.842651	7.942708
343.644684	1042.188477	4460.020996	1194.648438	4.460721
344.013550	1017.157776	4587.449707	1162.791138	4.079032
344.382355	1001.229126	4828.655273	1233.332275	6.064209
344.751129	983.024963	4849.134766	1246.985352	6.827545
345.119873	1092.250000	5015.248047	1206.026001	2.900231
345.488586	1008.055725	5311.065430	1190.097412	4.230567
345.857269	1001.229126	5301.963379	1224.230225	5.185186
346.225891	1008.055725	5531.791016	1290.220337	6.237425
346.594482	1035.361938	5570.475098	1369.863525	7.375815
346.963043	1046.739624	5622.812012	1233.332275	4.077572
347.331543	1010.331238	5042.554199	1324.353149	7.787811
347.700043	948.892151	4976.563965	1324.353149	9.322036
348.068512	887.453125	4933.329102	1240.158813	8.717659
348.436951	994.402588	4985.666016	1287.944824	7.354620
348.805328	951.167725	4769.491699	1228.781250	7.270560
349.173645	1021.708862	4776.318359	1203.750488	4.848484
349.541931	983.024963	4760.389648	1276.567139	7.771084
349.910217	978.473938	4865.063477	1276.567139	7.669788
350.278473	923.861450	4944.706543	1319.802124	9.847200
350.646667	1021.708862	4999.319336	1217.403687	4.919909
351.014801	914.759338	5085.789063	1169.617676	6.110202
351.382935	980.749451	5024.350098	1312.975464	8.216094
351.751007	1035.361938	5010.696777	1253.812012	5.495136
352.119049	1071.770264	5188.187500	1338.006226	6.467663
352.487091	1028.535400	5126.748535	1231.056763	4.941700
352.855072	917.034912	5185.912109	1258.363037	7.995736
353.222992	985.300537	5092.615723	1258.363037	6.648199
353.590881	1010.331238	5427.117188	1265.189575	5.770221
353.958740	987.576050	5620.536621	1326.628662	7.318271
354.326599	987.576050	5697.904297	1324.353149	7.149759
354.694397	985.300537	5889.047852	1258.363037	5.568446
355.062134	898.830688	5964.140137	1219.679199	6.334233
355.429840	994.402588	5925.456055	1285.669312	5.906785
355.797516	992.127075	6159.834961	1265.189575	5.284016
356.165192	1014.882263	6259.957520	1265.189575	4.772235
356.532776	912.483826	6401.040039	1276.567139	6.633499
356.900360	978.473938	6583.081543	1356.210449	6.739750
357.267883	992.127075	6528.469238	1365.312500	6.740649
357.635376	1051.290649	6803.807129	1381.241089	5.735758
358.002808	1008.055725	7493.290039	1449.506714	6.807017
358.370270	948.892151	7682.158203	1422.200562	7.029403
358.737640	955.718750	7552.453613	1347.108276	5.933080
359.105011	1005.780212	7322.625977	1419.924927	6.556195
359.472321	1044.463989	7111.002441	1360.761475	5.213805
359.839569	1067.219238	7090.522949	1344.832764	4.608991
360.206787	962.545288	7024.532715	1360.761475	6.569070
360.574005	873.799988	7136.033203	1424.476074	8.793605
360.941193	962.545288	7754.975098	1349.383789	5.695142
361.308319	926.136963	8021.210938	1374.414551	6.318152
361.675415	1017.157776	8676.560547	1417.649414	5.228758
362.042450	926.136963	9129.389648	1351.659302	5.187239
362.409424	928.412476	9871.208984	1495.017212	6.335878
362.776428	1014.882263	9916.719727	1485.915039	5.291410
363.143402	1033.086426	9432.034180	1481.364014	5.337307
363.510284	946.616638	8792.612305	1410.822876	5.916473
363.877136	989.851563	7898.332520	1460.884399	6.818182
364.243988	955.718750	7388.616211	1422.200562	7.251504
364.610779	964.820801	7172.441406	1340.281738	6.048388
364.977539	951.167725	6967.644531	1378.965576	7.110438
365.344269	1044.463989	6658.173828	1299.322388	4.539928
365.710938	985.300537	6737.816895	1303.873413	5.537974
366.077576	905.657288	6637.694336	1278.842651	6.510519
366.444183	976.198425	6587.632813	1253.812012	4.947284
366.810760	983.024963	6471.581055	1246.985352	4.809287
367.177277	944.341125	6583.081543	1281.118164	5.972558
367.543823	976.198425	6660.449219	1265.189575	5.084067
367.910248	1051.290649	6583.081543	1215.128052	2.961742
368.276642	948.892151	6517.091797	1258.363037	5.557827
368.643036	935.239075	6476.132324	1310.699951	6.776180
369.009399	980.749451	6303.192383	1262.914063	5.301412
369.375671	932.963501	6253.131348	1283.393677	6.586825
369.741974	987.576050	6253.131348	1233.332275	4.667243
370.108215	948.892151	6216.722656	1151.413574	3.844494
370.474396	921.585938	6091.569336	1301.597900	7.350352
370.840546	892.004150	6125.702148	1194.648438	5.782609
371.206665	973.922913	6401.040039	1192.372925	4.025157
371.572784	964.820801	6644.520508	1246.985352	4.967948
371.938843	1008.055725	6601.285645	1187.821899	3.213996
372.304840	935.239075	6705.959961	1206.026001	4.692428
372.670807	932.963501	6649.071777	1246.985352	5.493630
373.036713	962.545288	6712.786133	1224.230225	4.550852
373.402649	964.820801	6503.438477	1224.230225	4.683649
373.768524	985.300537	6594.459473	1174.168701	3.367139
374.134308	960.269775	6494.336426	1155.964600	3.536185
374.500122	894.279663	6412.417480	1185.546387	5.278352
374.865875	971.647400	6692.306641	1160.515625	3.301512
375.231567	996.678101	6708.235352	1208.301514	3.705179
375.597260	1019.433350	6730.990723	1158.240112	2.430279
375.962891	996.678101	6951.715820	1249.260864	4.241498
376.328461	1008.055725	7156.512695	1215.128052	3.367875
376.694031	1019.433350	7215.676270	1210.577026	3.084832
377.059540	985.300537	7659.402832	1258.363037	4.091374
377.425049	1005.780212	7932.465332	1208.301514	2.923784
377.790497	1001.229126	8314.752930	1219.679199	2.986933
378.155945	935.239075	8612.846680	1235.607788	3.912270
378.521301	962.545288	8301.099609	1283.393677	4.372093
378.886597	894.279663	8121.333984	1328.904175	6.013855
379.251892	935.239075	7802.760742	1221.954712	4.174951
379.617157	1010.331238	7584.311035	1224.230225	3.253721
379.982422	944.341125	7286.217773	1228.781250	4.485110
380.347595	942.065613	7167.890625	1219.679199	4.459065
380.712738	998.953613	7240.707031	1249.260864	4.010207
381.077820	992.127075	7288.493164	1183.270874	3.035779
381.442902	960.269775	7463.708008	1092.250000	2.029392
381.807953	983.024963	7163.339355	1208.301514	3.645066
382.172974	980.749451	7161.063965	1212.852539	3.755522
382.537933	951.167725	7097.349609	1242.434326	4.738985
382.902832	987.576050	7151.961914	1235.607788	4.023624
383.267700	998.953613	7593.413086	1158.240112	2.415460
383.632538	932.963501	7566.106445	1244.709839	4.699828
383.997345	976.198425	7805.036133	1103.627563	1.866044
384.362152	912.483826	7741.321777	1208.301514	4.331889
384.726898	971.647400	7761.801270	1135.484863	2.412868
385.091553	942.065613	7939.291992	1160.515625	3.121951
385.456238	985.300537	8114.507324	1194.648438	2.936482
385.820862	980.749451	7962.047363	1165.066650	2.640157
386.185425	980.749451	7925.639160	1210.577026	3.309305
386.549988	946.616638	8157.742188	1231.056763	3.944462
386.914490	960.269775	8109.956055	1201.474976	3.373647
387.278961	983.024963	8166.844238	1130.933838	2.058917
387.643372	1012.606750	8319.303711	1174.168701	2.211149
388.007782	996.678101	8542.304688	1169.617676	2.291918
388.372101	957.994263	8749.377930	1105.903076	1.898364
388.736450	930.687988	8401.222656	1201.474976	3.624734
389.100739	942.065613	8348.885742	1215.128052	3.686635
389.464966	969.371887	8285.170898	1126.382813	2.146190
389.829163	983.024963	8166.844238	1119.556274	1.900539
390.193329	989.851563	8043.965820	1099.076538	1.548387
390.557495	926.136963	8305.651367	1137.760376	2.867714
390.921570	882.902100	8469.488281	1124.107300	3.179364
391.285614	948.892151	8642.427734	1224.230225	3.578824
391.649597	1012.606750	9017.888672	1121.831787	1.364412
392.013550	978.473938	9504.850586	1249.260864	3.175873
392.377502	964.820801	9752.881836	1251.536499	3.262559
392.741455	1019.433350	9507.125977	1233.332275	2.520107
393.105316	1014.882263	9536.708008	1258.363037	2.857143
393.469086	973.922913	9534.432617	1137.760376	1.913875
393.832886	1026.259888	9279.574219	1153.689087	1.543976
394.196655	973.922913	9454.789063	1142.311401	1.985510
394.560333	973.922913	9666.412109	1165.066650	2.198953
394.924042	983.024963	9593.595703	1246.985352	3.065539
395.287659	987.576050	9623.177734	1167.342163	2.081686
395.651245	928.412476	9520.779297	1115.005249	2.171611
396.014771	939.790100	9131.665039	1224.230225	3.472223
396.378296	1035.361938	8854.051758	1135.484863	1.280559
396.741791	928.412476	8776.683594	1215.128052	3.653232
397.105255	953.443237	8453.559570	1169.617676	2.882281
397.468628	1001.229126	8351.161133	1155.964600	2.105264
397.832001	935.239075	8260.140625	1167.342163	3.168685
398.195313	948.892151	8656.081055	1192.372925	3.159138
398.558624	935.239075	8540.029297	1158.240112	2.932376
398.921844	898.830688	8565.060547	1151.413574	3.294747
399.285095	946.616638	8669.734375	1203.750488	3.329405
399.648254	942.065613	8701.591797	1105.903076	2.111436
400.011383	932.963501	8574.162109	1137.760376	2.680167
400.374451	953.443237	8501.345703	1140.035889	2.472113
400.737549	992.127075	8608.294922	1192.372925	2.629220
401.100586	973.922913	8469.488281	1103.627563	1.730418
401.463562	983.024963	8553.682617	1069.494751	1.142170
401.826508	994.402588	8844.949219	1105.903076	1.420289
402.189392	1014.882263	8626.499023	1092.250000	1.016443
402.552246	960.269775	8694.764648	1140.035889	2.324213
402.915070	996.678101	8685.663086	1128.658325	1.716484
403.277893	996.678101	8872.255859	1171.893188	2.224790
403.640656	955.718750	9131.665039	1099.076538	1.753409
404.003326	953.443237	9568.565430	1130.933838	2.060221
404.366028	962.545288	9454.789063	1121.831787	1.875670
404.728699	969.371887	9896.240234	1162.791138	2.166709
405.091248	939.790100	10103.312500	1121.831787	1.986591
405.453857	994.402588	10301.282227	1128.658325	1.442543
405.816345	971.647400	9934.923828	1126.382813	1.726326
406.178833	1030.810913	10176.128906	1180.995239	1.642199
406.541260	1008.055725	10112.414063	1233.332275	2.474381
406.903687	944.341125	9775.637695	1210.577026	3.014686
407.266052	962.545288	9707.372070	1187.821899	2.576113
407.628387	967.096313	9552.636719	1142.311401	2.040816
407.990662	1001.229126	9552.636719	1169.617676	1.969133
408.352905	1008.055725	9463.890625	1149.138062	1.668461
408.715118	989.851563	9336.461914	1128.658325	1.663032
409.077332	998.953613	9236.338867	1180.995239	2.209944
409.439484	1037.637451	9409.278320	1039.912964	0.027181
409.801575	1021.708862	9648.208008	1064.943726	0.501187
410.163605	951.167725	9853.004883	1149.138062	2.223927
410.525635	1055.841675	9971.332031	1162.791138	1.199592
410.887604	971.647400	10112.414063	1126.382813	1.692806
411.249573	978.473938	10148.823242	1151.413574	1.885857
411.611481	994.402588	10219.364258	1096.801025	1.110015
411.973328	976.198425	9937.199219	1078.596802	1.142711
412.335144	926.136963	10064.628906	1071.770264	1.593625
412.696930	1008.055725	9752.881836	1094.525513	0.988811
413.058685	946.616638	9923.545898	1096.801025	1.673004
413.420410	953.443237	9707.372070	1155.964600	2.313491
413.782104	980.749451	9837.076172	1135.484863	1.747174
414.143707	978.473938	9900.791016	1146.862427	1.887273
414.505310	989.851563	9907.617188	1146.862427	1.760653
414.866852	987.576050	9932.648438	1178.719727	2.136860
415.228394	1003.504700	10360.446289	1110.454102	1.142995
415.589874	932.963501	10294.456055	1183.270874	2.673798
415.951324	978.473938	10346.792969	1165.066650	1.991742
416.312683	973.922913	10663.090820	1155.964600	1.878816
416.674072	955.718750	11029.449219	1124.107300	1.671561
417.035370	967.096313	11393.532227	1185.546387	2.095156
417.396667	1033.086426	11527.788086	1224.230225	1.821336
417.757935	1021.708862	11725.758789	1187.821899	1.551871
418.119141	1026.259888	12174.036133	1240.158813	1.918759
418.480286	985.300537	12328.771484	1176.444214	1.685055
418.841400	887.453125	13157.061523	1183.270874	2.410980
419.202484	869.248962	13216.224609	1128.658325	2.100995
419.563568	953.443237	13830.615234	1194.648438	1.873122
419.924591	973.922913	14813.640625	1206.026001	1.677080
420.285553	917.034912	14708.966797	1149.138062	1.682891
420.646484	987.576050	16024.217773	1278.842651	1.937046
421.007355	960.269775	15990.084961	1258.363037	1.983346
421.368225	976.198425	17257.548828	1260.638550	1.747030
421.729065	998.953613	17457.794922	1237.883301	1.451680
422.089874	955.718750	17962.960938	1176.444214	1.297832
422.450592	935.239075	17699.000000	1233.332275	1.778200
422.811279	987.576050	17787.746094	1315.250977	1.950426
423.171936	962.545288	17689.898438	1292.495850	1.972521
423.532593	1005.780212	17282.580078	1253.812012	1.523836
423.893127	955.718750	17614.806641	1267.465088	1.871329
424.253723	985.300537	18033.501953	1376.690063	2.295782
424.614197	1042.188477	18001.644531	1301.597900	1.529586
424.974670	1012.606750	18290.636719	1274.291626	1.514553
425.335052	1026.259888	18879.996094	1258.363037	1.300026
425.695496	1014.882263	17787.746094	1235.607788	1.315968
426.055817	932.963501	17960.685547	1256.087524	1.897635
426.416168	1003.504700	17792.296875	1221.954712	1.301166
426.776398	1023.984375	16720.527344	1235.607788	1.348217
427.136627	955.718750	16126.616211	1224.230225	1.769912
427.496826	930.687988	16160.749023	1256.087524	2.136561
427.856995	935.239075	15562.287109	1215.128052	1.913503
428.217102	971.647400	14902.385742	1224.230225	1.813133
428.577179	1010.331238	14731.721680	1226.505737	1.575456
428.937195	1003.504700	14381.291016	1219.679199	1.615921
429.297180	969.371887	13807.860352	1285.669312	2.463666
429.657135	996.678101	13587.134766	1149.138062	1.210917
430.017059	971.647400	13707.737305	1194.648438	1.750938
430.376984	978.473938	13878.401367	1208.301514	1.781619
430.736786	939.790100	13414.195313	1153.689087	1.714703
431.096588	964.820801	13471.083008	1144.586914	1.437409
431.456360	896.555176	13584.859375	1155.964600	2.044477
431.816071	983.024963	13234.428711	1190.097412	1.690194
432.175781	964.820801	13400.541992	1119.556274	1.244282
432.535400	937.514587	13352.755859	1176.444214	1.924486
432.895020	942.065613	13359.583008	1165.066650	1.795858
433.254578	976.198425	13687.257813	1158.240112	1.432152
433.614105	985.300537	13764.625000	1135.484863	1.175213
433.973602	953.443237	14190.147461	1105.903076	1.151796
434.333038	871.524475	13967.146484	1146.862427	2.102519
434.692444	969.371887	14356.260742	1203.750488	1.750807
435.051819	957.994263	14233.382813	1237.883301	2.108330
435.411133	1021.708862	14285.719727	1067.219238	0.343112
435.770416	932.963501	13939.840820	1112.729614	1.382085
436.129669	989.851563	14267.515625	1210.577026	1.662382
436.488861	992.127075	13946.666992	1178.719727	1.440365
436.848083	992.127075	14051.340820	1251.536499	1.986409
437.207184	998.953613	13930.738281	1210.577026	1.636459
437.566254	969.371887	14433.628906	1194.648438	1.673145
437.925293	1010.331238	14308.474609	1128.658325	0.889802
438.284363	967.096313	14374.464844	1105.903076	1.035302
438.643311	1046.739624	14572.435547	1244.709839	1.463660
439.002258	932.963501	14449.556641	1219.679199	2.121213
439.361145	1021.708862	15478.092773	1212.852539	1.322209
439.719971	948.892151	15614.624023	1151.413574	1.380916
440.078827	971.647400	15842.175781	1128.658325	1.055853
440.437592	1037.637451	16379.198242	1178.719727	0.919608
440.796295	1042.188477	16545.312500	1201.474976	1.027448
441.155029	1017.157776	17614.806641	1208.301514	1.151631
441.513672	898.830688	18336.146484	1328.904175	2.466397
441.872253	969.371887	17960.685547	1235.607788	1.566894
442.230865	923.861450	17544.265625	1203.750488	1.684009
442.589386	1085.423462	17341.744141	1146.862427	0.377939
442.947876	960.269775	17068.681641	1253.812012	1.822292
443.306335	967.096313	16820.650391	1233.332275	1.679346
443.664764	957.994263	16074.279297	1281.118164	2.137588
444.023102	919.310425	16688.669922	1185.546387	1.688312
444.381500	973.922913	16586.271484	1258.363037	1.821892
444.739777	957.994263	16424.708984	1251.536499	1.897897
445.098022	851.044800	16467.943359	1219.679199	2.360484
445.456238	978.473938	16631.781250	1249.260864	1.729902
445.814423	917.034912	17150.599609	1283.393677	2.256798
446.172577	996.678101	18217.820313	1178.719727	1.057082
446.530701	932.963501	18365.728516	1228.781250	1.696907
446.888733	910.208313	18727.537109	1203.750488	1.647509
447.246765	944.341125	19808.408203	1217.403687	1.447528
447.604736	962.545288	18905.027344	1258.363037	1.648700
447.962677	930.687988	19376.060547	1249.260864	1.727115
448.320587	967.096313	19637.744141	1219.679199	1.352834
448.678436	1005.780212	18859.515625	1269.740601	1.478460
449.036255	971.647400	18907.302734	1285.669312	1.750825
449.394043	971.647400	17696.724609	1210.577026	1.428571
449.751770	971.647400	17869.664063	1235.607788	1.562079
450.109467	939.790100	17398.632813	1103.627563	0.995437
450.467163	935.239075	17325.814453	1226.505737	1.777037
450.824768	980.749451	16959.457031	1206.026001	1.409855
451.182343	953.443237	17166.529297	1258.363037	1.880702
451.539886	923.861450	16097.034180	1178.719727	1.679664
451.897369	951.167725	16388.300781	1099.076538	0.958137
452.254822	985.300537	16392.851563	1149.138062	1.063359
452.612274	962.545288	16438.361328	1178.719727	1.396853
452.969635	996.678101	16624.955078	1260.638550	1.688993
453.326965	957.994263	16647.710938	1262.914063	1.943437
453.684326	953.443237	16165.299805	1253.812012	1.974570
454.041534	967.096313	15971.880859	1174.168701	1.380042
454.398773	978.473938	15532.705078	1178.719727	1.375860
454.755951	880.626526	15305.153320	1183.270874	2.098123
455.113098	1021.708862	14902.385742	1133.209351	0.803278
455.470215	969.371887	14747.650391	1176.444214	1.502890
455.827240	932.963501	15018.437500	1167.342163	1.663974
456.184265	960.269775	14704.415039	1112.729614	1.109271
456.541260	962.545288	14565.608398	1140.035889	1.304784
456.898193	1008.055725	14834.120117	1135.484863	0.921659
457.255096	1010.331238	14972.926758	1130.933838	0.863755
457.611969	964.820801	14649.802734	1226.505737	1.912205
457.968781	1003.504700	15009.334961	1165.066650	1.153534
458.325531	1010.331238	15321.082031	1215.128052	1.431070
458.682312	973.922913	15762.532227	1128.658325	1.046315
459.039001	953.443237	16816.099609	1171.893188	1.377133
459.395630	969.371887	17287.130859	1160.515625	1.171385
459.752289	971.647400	18870.894531	1194.648438	1.245868
460.108856	951.167725	20306.748047	1242.434326	1.504820
460.465363	930.687988	20816.464844	1262.914063	1.670672
460.821899	921.585938	20930.240234	1281.118164	1.796884
461.178345	928.412476	20238.482422	1260.638550	1.720481
461.534760	942.065613	19869.847656	1285.669312	1.815341
461.891144	976.198425	18597.832031	1203.750488	1.291322
462.247467	1023.984375	18158.656250	1228.781250	1.195219
462.603760	937.514587	17769.541016	1192.372925	1.514127
462.960052	987.576050	16793.343750	1130.933838	0.906997
463.316254	1049.015137	16317.759766	1140.035889	0.596125
463.672424	967.096313	16001.461914	1158.240112	1.271379
464.028564	962.545288	15616.899414	1185.546387	1.521739
464.384644	1008.055725	15585.041992	1105.903076	0.671245
464.740723	992.127075	15990.084961	1133.209351	0.940677
465.096741	921.585938	15614.624023	1135.484863	1.455784
465.452698	932.963501	15703.369141	1117.280762	1.247882
465.808655	901.106262	15849.001953	1133.209351	1.552748
466.164520	889.728638	15439.408203	1194.648438	2.095715
466.520355	971.647400	16347.341797	1185.546387	1.391150
466.876190	973.922913	16413.332031	1183.270874	1.355932
467.231964	978.473938	16331.413086	1196.923950	1.422855
467.587677	983.024963	17155.150391	1199.199463	1.336711
467.943390	948.892151	17246.171875	1260.638550	1.912874
468.299011	998.953613	16404.228516	1155.964600	1.019203
468.654633	939.790100	16467.943359	1178.719727	1.538687
469.010223	1039.912964	16565.791016	1192.372925	0.981973
469.365723	1005.780212	15673.787109	1140.035889	0.915296
469.721191	1030.810913	16015.115234	1085.423462	0.364465
470.076660	1005.780212	15589.592773	1180.995239	1.201435
470.432068	973.922913	15928.645508	1121.831787	0.989045
470.787445	996.678101	15318.805664	1126.382813	0.905625
471.142792	987.576050	15703.369141	1135.484863	1.005103
471.498016	951.167725	15748.879883	1158.240112	1.399354
471.853271	996.678101	15539.531250	1146.862427	1.032702
472.208496	994.402588	15753.430664	1215.128052	1.495528
472.563660	951.167725	15739.777344	1167.342163	1.461763
472.918762	935.239075	16310.933594	1176.444214	1.568743
473.273865	987.576050	16649.986328	1128.658325	0.900770
473.628876	980.749451	17055.029297	1155.964600	1.090034
473.983917	969.371887	16995.865234	1085.423462	0.724123
474.338837	978.473938	17004.966797	1249.260864	1.689621
474.693787	978.473938	16938.976563	1206.026001	1.425720
475.048645	939.790100	16695.496094	1167.342163	1.444252
475.403503	946.616638	16784.242188	1196.923950	1.580460
475.758270	1023.984375	17027.722656	1178.719727	0.966870
476.113037	946.616638	16768.312500	1165.066650	1.380699
476.467773	994.402588	17419.111328	1174.168701	1.094486
476.822418	1026.259888	18315.666016	1287.944824	1.513556
477.177063	917.034912	18183.687500	1160.515625	1.410121
477.531647	976.198425	18700.230469	1151.413574	0.988574
477.886200	928.412476	19109.824219	1203.750488	1.514393
478.240723	919.310425	19703.734375	1160.515625	1.284070
478.595184	964.820801	19690.082031	1180.995239	1.154454
478.949585	951.167725	20377.289063	1162.791138	1.089375
479.303986	907.932800	20322.675781	1146.862427	1.230661
479.658325	1023.984375	20322.675781	1160.515625	0.707464
480.012634	962.545288	20349.982422	1190.097412	1.173709
480.366913	955.718750	21021.261719	1208.301514	1.258789
480.721130	901.106262	21558.283203	1208.301514	1.487111
481.075317	946.616638	22486.697266	1212.852539	1.236002
481.429474	962.545288	23492.476563	1196.923950	1.040299
481.783569	996.678101	24436.818359	1199.199463	0.863994
482.137604	962.545288	25881.773438	1306.148926	1.378870
482.491669	964.820801	28155.019531	1256.087524	1.071220
482.845612	1019.433350	31054.033203	1392.618774	1.242518
483.199554	939.790100	35204.582031	1401.720825	1.348121
483.553436	1019.433350	41039.019531	1394.894287	0.938193
483.907318	980.749451	47870.132813	1540.527588	1.193827
484.261139	937.514587	53791.035156	1652.028076	1.351875
484.614899	892.004150	56366.925781	1642.926025	1.353624
484.968628	1014.882263	55886.789063	1686.160889	1.223356
485.322357	989.851563	53520.250000	1540.527588	1.048300
485.675964	964.820801	49763.363281	1499.568237	1.095827
486.029572	989.851563	45565.027344	1547.354126	1.250702
486.383148	976.198425	43346.394531	1460.884399	1.143931
486.736694	1026.259888	40661.281250	1429.027100	1.016190
487.090149	1001.229126	40847.875000	1385.792114	0.965108
487.443604	944.341125	41958.328125	1444.955688	1.220595
487.796997	932.963501	44281.636719	1410.822876	1.102362
488.150360	987.576050	45189.566406	1524.598877	1.214929
488.503693	962.545288	45797.132813	1531.425537	1.268842
488.856964	835.116150	45071.242188	1454.057739	1.399177
489.210175	953.443237	42074.378906	1479.088501	1.278291
489.563416	917.034912	40065.093750	1438.129150	1.331086
489.916565	996.678101	37700.828125	1299.322388	0.824551
490.269653	948.892151	35341.113281	1449.506714	1.455604
490.622772	967.096313	34267.066406	1451.782227	1.455515
490.975769	960.269775	34125.984375	1312.975464	1.063465
491.328735	957.994263	35564.113281	1383.516602	1.229616
491.681732	980.749451	37780.472656	1401.720825	1.143953
492.034607	1005.780212	40306.300781	1349.383789	0.874298
492.387482	1005.780212	40998.058594	1422.200562	1.041252
492.740326	946.616638	39530.347656	1408.547363	1.197216
493.093079	1008.055725	37689.449219	1367.588013	0.980149
493.445862	1026.259888	34558.335938	1317.526489	0.868621
493.798523	960.269775	31911.904297	1276.567139	1.021908
494.151215	937.514587	29486.199219	1315.250977	1.323131
494.503815	942.065613	27454.158203	1256.087524	1.184448
494.856384	951.167725	25943.212891	1237.883301	1.147227
495.208923	1035.361938	24632.511719	1310.699951	1.166827
495.561432	923.861450	23874.763672	1269.740601	1.507039
495.913879	969.371887	24197.888672	1251.536499	1.214734
496.266296	926.136963	24345.796875	1233.332275	1.311698
496.618683	1021.708862	24015.845703	1285.669312	1.147947
496.970978	969.371887	24914.677734	1240.158813	1.130856
497.323273	985.300537	25158.158203	1260.638550	1.139038
497.675507	1019.433350	25296.964844	1242.434326	0.918549
498.027710	1028.535400	25349.300781	1249.260864	0.907560
498.379852	923.861450	24955.636719	1190.097412	1.107850
498.731995	971.647400	24409.511719	1340.281738	1.572815
499.084076	1051.290649	24320.765625	1219.679199	0.723646
499.436096	1080.872437	23981.712891	1306.148926	0.983704
499.788086	1049.015137	23340.017578	1201.474976	0.683952
500.140106	989.851563	22666.462891	1140.035889	0.692840
500.491943	1033.086426	22322.859375	1249.260864	1.015391
500.843842	1044.463989	22081.654297	1196.923950	0.724716
501.195679	1001.229126	21544.630859	1151.413574	0.731059
501.547455	1001.229126	21237.435547	1215.128052	1.057011
501.899231	987.576050	21189.650391	1219.679199	1.148908
502.250885	932.963501	21080.423828	1242.434326	1.536029
502.602600	957.994263	20941.617188	1278.842651	1.605557
502.954193	930.687988	20843.771484	1208.301514	1.394126
503.305786	1026.259888	20861.974609	1244.709839	1.101296
503.657379	932.963501	20909.759766	1167.342163	1.173254
504.008820	971.647400	20918.863281	1233.332275	1.311887
504.360291	994.402588	21096.353516	1221.954712	1.131990
504.711700	994.402588	21253.365234	1178.719727	0.909805
505.063080	946.616638	21226.058594	1224.230225	1.368941
505.414368	951.167725	21146.414063	1233.332275	1.397183
505.765656	1037.637451	21053.119141	1221.954712	0.920873
506.116943	932.963501	21353.486328	1190.097412	1.259194
506.468109	960.269775	20693.585938	1246.985352	1.452952
506.819305	989.851563	20880.179688	1142.311401	0.766502
507.170410	1023.984375	20930.240234	1140.035889	0.582990
507.521484	978.473938	20877.904297	1185.546387	1.040595
507.872559	1021.708862	21073.597656	1187.821899	0.828416
508.223480	967.096313	21073.597656	1231.056763	1.312811
508.574493	885.177612	21262.466797	1219.679199	1.641541
508.925385	994.402588	21788.111328	1212.852539	1.050558
509.276245	946.616638	21926.917969	1242.434326	1.409978
509.627045	939.790100	22284.175781	1253.812012	1.471216
509.977814	926.136963	22739.279297	1196.923950	1.241394
510.328613	1014.882263	22832.576172	1237.883301	1.022111
510.679260	1010.331238	22991.861328	1326.628662	1.438924
511.029999	987.576050	23171.628906	1160.515625	0.779567
511.380585	1017.157776	23201.210938	1231.056763	0.964202
511.731140	960.269775	23362.771484	1272.016113	1.391569
512.081726	1008.055725	23556.191406	1276.567139	1.190836
512.432129	1039.912964	23692.722656	1237.883301	0.873933
512.782654	978.473938	24061.357422	1292.495850	1.360410
513.133057	955.718750	23738.232422	1228.781250	1.198562
513.483398	989.851563	23968.060547	1315.250977	1.416122
513.833801	983.024963	24152.376953	1297.046875	1.355333
514.183960	1026.259888	23189.832031	1235.607788	0.944559
514.534302	983.024963	23406.007813	1212.852539	1.024964
514.884460	946.616638	23410.558594	1292.495850	1.539708
515.234619	953.443237	23091.984375	1244.709839	1.315654
515.584717	996.678101	23228.515625	1297.046875	1.351075
515.934753	898.830688	23228.515625	1235.607788	1.508204
516.284851	932.963501	23522.058594	1308.424438	1.662134
516.634766	948.892151	23239.894531	1272.016113	1.449571
516.984741	964.820801	24375.378906	1265.189575	1.283048
517.334595	1028.535400	24841.861328	1219.679199	0.802676
517.684448	994.402588	25497.210938	1310.699951	1.290862
518.034363	1014.882263	26805.634766	1369.863525	1.376390
518.384094	937.514587	27913.814453	1351.659302	1.535217
518.733826	969.371887	29092.533203	1315.250977	1.229873
519.083496	978.473938	29463.443359	1356.210449	1.326091
519.433167	962.545288	29993.640625	1328.904175	1.261953
519.782776	937.514587	29716.025391	1342.557251	1.407448
520.132324	944.341125	29001.511719	1390.343262	1.589619
520.481873	944.341125	28471.316406	1367.588013	1.537571
520.831299	1049.015137	27925.191406	1249.260864	0.745068
521.180786	930.687988	26867.074219	1308.424438	1.456396
521.530151	998.953613	26491.613281	1274.291626	1.080068
521.879517	1019.433350	26300.468750	1331.179688	1.233123
522.228882	953.443237	26352.806641	1319.802124	1.442394
522.578064	987.576050	25906.804688	1283.393677	1.187106
522.927307	930.687988	26020.580078	1378.965576	1.786686
523.276489	935.239075	25786.201172	1256.087524	1.291091
523.625610	976.198425	26459.755859	1342.557251	1.437628
523.974792	992.127075	27005.880859	1447.231201	1.749475
524.323792	889.728638	27486.015625	1344.832764	1.711157
524.672852	1012.606750	27542.904297	1360.761475	1.312291
525.021790	992.127075	28767.134766	1376.690063	1.384565
525.370728	1003.504700	30485.152344	1424.476074	1.427910
525.719604	973.922913	31427.218750	1390.343262	1.367407
526.068420	919.310425	33479.738281	1522.323364	1.851981
526.417297	932.963501	35088.531250	1465.435425	1.558961
526.765991	951.167725	35894.066406	1517.772339	1.621516
527.114746	964.820801	37357.226563	1499.568237	1.469393
527.463379	1019.433350	38074.015625	1538.252075	1.400147
527.812012	976.198425	40579.363281	1592.864502	1.557113
528.160706	996.678101	44131.449219	1533.701050	1.244989
528.509155	1012.606750	49189.933594	1708.916138	1.445305
528.857727	1062.668213	53458.808594	1772.630737	1.354990
529.206177	951.167725	56300.937500	1911.437500	1.734912
529.554565	1003.504700	56191.710938	1815.865601	1.471983
529.902893	994.402588	54935.625000	1838.620850	1.565071
530.251221	957.994263	52339.253906	1733.946899	1.510186
530.599548	1008.055725	48313.859375	1708.916138	1.481553
530.947876	951.167725	44802.730469	1636.099487	1.561932
531.296021	914.759338	41305.253906	1624.721802	1.757746
531.644165	1017.157776	38961.468750	1540.527588	1.379310
531.992249	980.749451	37025.000000	1474.537476	1.369949
532.340454	962.545288	36335.515625	1481.364014	1.466710
532.688354	983.024963	36740.558594	1465.435425	1.349115
533.036438	951.167725	37864.667969	1565.558350	1.664406
533.384338	967.096313	39432.500000	1529.150024	1.461193
533.732239	1012.606750	41605.621094	1495.017212	1.188408
534.080139	932.963501	42103.960938	1551.905151	1.503344
534.427917	946.616638	41940.125000	1599.691162	1.593117
534.775757	932.963501	39448.429688	1579.211426	1.677892
535.123474	1033.086426	38074.015625	1531.425537	1.345374
535.471191	896.555176	35598.246094	1508.670288	1.763934
535.818848	1019.433350	34287.546875	1479.088501	1.381669
536.166382	989.851563	33807.414063	1463.159912	1.442241
536.513977	921.585938	33406.921875	1495.017212	1.765200
536.861511	946.616638	34207.902344	1463.159912	1.552987
537.208984	1030.810913	33928.015625	1417.649414	1.175901
537.556396	939.790100	33862.023438	1451.782227	1.555156
537.903809	976.198425	32872.171875	1431.302612	1.426839
538.251160	935.239075	32066.638672	1440.404663	1.622688
538.598389	1001.229126	30960.736328	1399.445313	1.329181
538.945740	1046.739624	29486.199219	1444.955688	1.400224
539.292969	969.371887	29192.656250	1422.200562	1.604451
539.640137	898.830688	29256.371094	1449.506714	1.941903
539.987244	946.616638	29422.484375	1483.639526	1.885888
540.334351	951.167725	30228.017578	1488.190552	1.834292
540.681458	994.402588	32282.814453	1551.905151	1.781818
541.028442	978.473938	35184.101563	1504.119263	1.536722
541.375366	971.647400	38706.609375	1563.282837	1.567871
541.722290	960.269775	41466.816406	1670.232300	1.752711
542.069153	978.473938	43143.875000	1688.436401	1.683756
542.416016	1012.606750	43473.824219	1640.650513	1.479100
542.762756	989.851563	42204.085938	1692.987427	1.706051
543.109558	944.341125	40850.148438	1663.405762	1.801905
543.456299	894.279663	38672.476563	1574.660400	1.800988
543.802917	951.167725	37111.468750	1597.415649	1.787175
544.149536	962.545288	35668.789063	1551.905151	1.698138
544.496094	985.300537	33263.562500	1506.394775	1.614381
544.842651	1014.882263	31766.269531	1551.905151	1.746337
545.189148	912.483826	29968.609375	1456.333252	1.871720
545.535583	917.034912	29158.523438	1472.261963	1.965998
545.882019	960.269775	28459.939453	1419.924927	1.671493
546.228333	962.545288	27904.710938	1363.036987	1.486487
546.574707	967.096313	28334.785156	1483.639526	1.887420
546.920898	948.892151	28414.427734	1533.701050	2.129246
547.267212	1010.331238	28339.335938	1517.772339	1.856786
547.613342	1001.229126	27868.302734	1463.159912	1.719319
547.959473	1021.708862	27856.925781	1424.476074	1.500890
548.305664	914.759338	27094.626953	1474.537476	2.138201
548.651611	1033.086426	25761.171875	1376.690063	1.389528
548.997742	992.127075	24564.246094	1467.710938	2.017569
549.343689	946.616638	23660.865234	1413.098389	2.053697
549.689575	951.167725	22741.554688	1474.537476	2.401838
550.035522	896.555176	21897.335938	1367.588013	2.242930
550.381287	1001.229126	21128.210938	1338.006226	1.673262
550.727173	1017.157776	21094.078125	1324.353149	1.530092
551.072876	983.024963	20452.380859	1447.231201	2.384292
551.418640	987.576050	20293.093750	1397.169800	2.121641
551.764282	923.861450	20463.757813	1385.792114	2.364038
552.109863	967.096313	20309.023438	1422.200562	2.352942
552.455505	994.402588	20861.974609	1383.516602	1.958538
552.801025	1008.055725	20846.046875	1440.404663	2.179399
553.146545	969.371887	21210.128906	1378.965576	2.023608
553.491943	953.443237	21075.873047	1381.241089	2.125975
553.837341	992.127075	21464.988281	1417.649414	2.078470
554.182800	996.678101	21221.507813	1474.537476	2.362736
554.528015	1010.331238	20670.830078	1456.333252	2.268518
554.873352	964.820801	19983.623047	1497.292725	2.799713
555.218628	978.473938	20179.318359	1433.578125	2.370230
555.563721	935.239075	19756.072266	1460.884399	2.792891
555.908875	987.576050	19323.722656	1442.680176	2.482005
556.254028	930.687988	19057.486328	1442.680176	2.824504
556.599121	942.065613	18859.515625	1419.924927	2.667005
556.944031	903.381775	18745.740234	1365.312500	2.588955
557.289063	996.678101	18666.097656	1499.568237	2.846104
557.633972	960.269775	18704.781250	1410.822876	2.539112
557.978882	969.371887	18593.281250	1508.670288	3.060038
558.323792	994.402588	18352.076172	1492.741699	2.871002
558.668518	998.953613	17846.910156	1469.986450	2.795786
559.013306	1003.504700	18176.859375	1472.261963	2.729561
559.358032	987.576050	17931.103516	1358.485962	2.189095
559.702637	1014.882263	18049.431641	1492.741699	2.805237
560.047363	994.402588	18272.431641	1433.578125	2.541815
560.391846	1019.433350	18047.156250	1465.435425	2.619270
560.736450	964.820801	17926.552734	1533.701050	3.353904
561.080933	948.892151	18256.503906	1579.211426	3.641862
561.425354	939.790100	18092.666016	1529.150024	3.435925
561.769775	957.994263	18461.300781	1576.935913	3.536141
562.114136	1012.606750	18368.003906	1526.874512	2.963158
562.458496	1001.229126	18374.830078	1563.282837	3.235102
562.802673	951.167725	18456.750000	1524.598877	3.275705
563.146912	980.749451	18149.554688	1586.037964	3.525513
563.491150	946.616638	18003.919922	1563.282837	3.615262
563.835266	980.749451	18181.412109	1595.140137	3.571901
564.179443	948.892151	18167.757813	1642.926025	4.030660
564.523438	894.279663	18333.871094	1604.242188	4.070982
564.867493	973.922913	18072.185547	1702.089600	4.258718
565.211426	1003.504700	18170.033203	1667.956787	3.870626
565.555359	928.412476	18882.271484	1727.120239	4.448669
565.899231	987.576050	19184.916016	1743.048950	4.151557
566.243042	1008.055725	19794.755859	1756.702026	3.984981
566.586914	973.922913	20065.542969	1836.345337	4.517283
566.930603	998.953613	20318.125000	1865.927002	4.487632
567.274292	989.851563	20243.033203	1943.294800	4.952133
567.617981	978.473938	20281.716797	1872.753662	4.632795
567.961609	996.678101	20126.982422	1868.202637	4.555727
568.305237	951.167725	19726.490234	1756.702026	4.290389
568.648682	1021.708862	19574.029297	1881.855713	4.636330
568.992188	955.718750	19182.640625	1888.682251	5.118601
569.335632	969.371887	18859.515625	1911.437500	5.265836
569.679016	1026.259888	18820.832031	1941.019287	5.140665
570.022461	919.310425	18934.609375	1954.672363	5.747126
570.365662	939.790100	18818.556641	2050.244141	6.211022
570.708984	969.371887	18775.322266	2025.213501	5.929712
571.052185	942.065613	19280.488281	2034.315552	5.956074
571.395386	989.851563	19175.814453	2170.846924	6.493994
571.738525	1010.331238	19815.234375	2198.153076	6.316554
572.081604	1001.229126	20229.380859	2264.143311	6.568048
572.424683	978.473938	20372.738281	2225.459229	6.429661
572.767578	1039.912964	20791.433594	2327.857666	6.520737
573.110596	1062.668213	20513.820313	2346.062012	6.598035
573.453552	962.545288	20450.105469	2341.510986	7.076133
573.796387	1033.086426	20202.074219	2334.684326	6.790123
574.139282	948.892151	20154.287109	2377.919189	7.440759
574.481995	962.545288	19899.429688	2437.082764	7.786590
574.824768	1008.055725	19742.417969	2441.633789	7.652133
575.167480	992.127075	19840.265625	2473.491211	7.859472
575.510132	980.749451	19314.621094	2575.889648	8.700509
575.852722	894.279663	19410.193359	2603.195801	9.229445
576.195251	967.096313	19118.925781	2628.226563	9.151310
576.537842	1014.882263	19159.884766	2587.267090	8.665664
576.880188	948.892151	19023.353516	2584.991699	9.051997
577.222717	998.953613	18404.412109	2637.328613	9.412995
577.565063	1021.708862	17997.093750	2569.062988	9.115282
577.907410	1012.606750	17999.369141	2648.706299	9.631616
578.249756	953.443237	17130.121094	2666.910400	10.592207
578.591919	964.820801	16936.701172	2562.236328	10.001424
578.934204	955.718750	16602.199219	2623.675537	10.660268
579.276306	1005.780212	16279.076172	2792.063965	11.695470
579.618469	937.514587	15960.502930	2705.594238	11.769160
579.960571	928.412476	15962.778320	2682.839111	11.669442
580.302551	1014.882263	15250.540039	2778.410889	12.388107
580.644531	994.402588	15227.785156	2914.942139	13.493205
580.986511	1044.463989	15332.458984	2851.227539	12.645326
581.328369	901.106262	15218.683594	2785.237549	13.159569
581.670227	983.024963	15364.316406	2776.135498	12.468356
582.012024	985.300537	15104.907227	2971.830078	14.069298
582.353821	942.065613	14995.681641	2869.431641	13.714377
582.695496	1005.780212	15050.294922	2944.523926	13.804276
583.037231	1026.259888	14809.089844	3076.504150	14.875349
583.378845	957.994263	14868.252930	3062.851074	15.131688
583.720398	901.106262	14608.843750	3099.259277	16.035856
584.062012	948.892151	14415.423828	3144.769775	16.306187
584.403442	946.616638	14595.190430	3235.790527	16.772257
584.744934	1028.535400	14542.853516	3085.606201	15.221417
585.086365	953.443237	14447.281250	3272.198975	17.183813
585.427734	957.994263	14344.882813	3367.770752	18.001019
585.768982	948.892151	14183.321289	3363.219727	18.242779
586.110291	973.922913	14297.097656	3365.495361	17.950470
586.451599	896.555176	14103.677734	3408.730225	19.021364
586.792725	971.647400	14470.037109	3429.209961	18.206339
587.133850	1010.331238	13987.625977	3467.893799	18.937403
587.474915	971.647400	14376.740234	3599.874023	19.606180
587.815979	989.851563	14358.536133	3542.985840	19.097872
588.157043	939.790100	14549.679688	3622.629150	19.712423
588.497925	926.136963	14408.597656	3770.538086	21.097048
588.838867	1028.535400	14549.679688	3847.905762	20.851566
589.179749	1074.045776	14492.791992	3882.038574	20.925894
589.520569	955.718750	14941.069336	4057.253662	22.177027
589.861450	1023.984375	14979.753906	4148.274414	22.387085
590.202087	951.167725	14902.385742	4127.794922	22.769533
590.542847	964.820801	15148.141602	4166.478516	22.573400
590.883484	969.371887	14909.211914	4216.540039	23.294157
591.224121	930.687988	14781.783203	4171.029785	23.394119
591.564636	901.106262	14888.732422	4337.142578	24.564829
591.905151	962.545288	14827.293945	4375.826660	24.618414
592.245667	976.198425	14563.333008	4396.306152	25.171661
592.585999	1001.229126	14495.067383	4298.458984	24.435080
592.926453	987.576050	14278.892578	4498.704590	26.416710
593.266724	971.647400	14520.098633	4419.061523	25.445078
593.607056	1005.780212	14235.658203	4494.153809	26.367390
593.947388	1028.535400	14319.852539	4596.552246	26.844719
594.287476	1049.015137	14483.689453	4621.582520	26.592140
594.627686	989.851563	14633.874023	4662.541992	26.917944
594.967773	948.892151	15000.233398	4933.329102	28.356276
595.307861	1010.331238	15293.775391	4903.747559	27.258245
595.647888	946.616638	15063.947266	4830.930664	27.514507
595.987854	1001.229126	15334.734375	5192.738281	29.242739
596.327820	998.953613	15628.277344	5129.023926	28.231449
596.667725	853.320313	16201.708008	5418.015137	29.740549
597.007568	939.790100	16556.689453	5545.444336	29.491476
597.347351	1008.055725	17216.589844	5641.016113	28.583464
597.687073	1023.984375	17466.898438	5827.608887	29.213949
598.026794	962.545288	17407.734375	5955.038086	30.358377
598.366455	951.167725	16975.384766	5857.190430	30.616301
598.706116	937.514587	16424.708984	5691.077637	30.693506
599.045654	980.749451	15976.431641	5670.597656	31.274656
599.385193	989.851563	15025.263672	5411.188477	31.501297
599.724731	978.473938	14802.262695	5340.647461	31.555555
600.064087	912.483826	14770.405273	5224.595703	31.116583
600.403564	971.647400	14037.687500	5103.993164	31.626612
600.742920	921.585938	13980.799805	5195.014160	32.723473
601.082153	955.718750	13789.656250	5163.156738	32.783688
601.421387	926.136963	13996.728516	5019.798828	31.319637
601.760620	973.922913	13527.970703	5256.453125	34.112743
602.099854	946.616638	13871.575195	5322.443359	33.855633
602.438843	973.922913	13762.349609	5383.882324	34.483986
602.778015	937.514587	13960.320313	5370.229004	34.038090
603.117065	1042.188477	14617.945313	5581.852539	33.439491
603.456055	873.799988	14827.293945	5695.628418	34.556423
603.794983	983.024963	15059.396484	5816.230957	34.335598
604.133850	969.371887	15737.501953	6100.671387	34.745762
604.472778	996.678101	16229.014648	6296.366211	34.792351
604.811584	953.443237	16706.873047	6469.305664	35.013725
605.150330	948.892151	17339.468750	6469.305664	33.680412
605.489075	948.892151	17318.988281	6758.296875	35.487911
605.827698	948.892151	17328.091797	6599.010254	34.495693
606.166382	971.647400	16806.996094	6517.091797	35.019402
606.504883	985.300537	16376.922852	6492.061035	35.777649
606.843445	985.300537	16031.043945	6269.059570	35.117966
607.181946	876.075500	15546.358398	6134.804199	35.846127
607.520386	951.167725	14961.548828	5973.242188	35.845379
607.858826	942.065613	15004.784180	5884.496582	35.145630
608.197083	1012.606750	14456.383789	5775.271973	35.426540
608.535461	971.647400	14429.077148	5738.863281	35.424416
608.873718	989.851563	14265.240234	5761.618652	35.944462
609.211914	935.239075	14479.138672	5800.302734	35.920700
609.550171	1014.882263	14834.120117	6182.589844	37.395023
609.888245	971.647400	15468.990234	6198.518555	36.053993
610.226318	935.239075	15637.378906	6471.581055	37.656708
610.564392	1023.984375	15905.890625	6567.152832	37.247704
610.902344	1019.433350	15432.582031	6567.152832	38.490685
611.240295	955.718750	15268.744141	6523.917969	38.903019
611.578247	1017.157776	14916.039063	6589.908203	40.094959
611.916138	1008.055725	14595.190430	6307.743652	39.005192
612.253845	964.820801	14128.708984	6278.162109	40.363007
612.591675	953.443237	13939.840820	6084.742676	39.512878
612.929382	955.718750	13598.512695	6021.027832	40.064793
613.267090	989.851563	13236.704102	5561.373047	37.328133
613.604736	985.300537	13170.714844	5556.821777	37.516342
613.942261	955.718750	12959.090820	5559.097168	38.350712
614.279785	971.647400	12804.355469	5543.168457	38.634613
614.617310	955.718750	12508.538086	5481.729492	39.176678
614.954712	921.585938	12353.802734	5392.984375	39.112259
615.292175	973.922913	12262.781250	5256.453125	37.935902
615.629517	944.341125	12397.037109	5358.851563	38.545597
615.966797	1014.882263	12265.056641	5395.259766	38.936085
616.304138	1012.606750	12312.842773	5342.922852	38.320580
616.641296	967.096313	12255.955078	5176.810059	37.290874
616.978516	1014.882263	11978.341797	5233.697754	38.480694
617.315552	971.647400	12001.096680	5206.391602	38.394882
617.652771	923.861450	12342.424805	5270.105957	38.062973
617.989685	998.953613	12296.914063	5217.769043	37.341389
618.326721	994.402588	12331.046875	5154.054688	36.692093
618.663696	987.576050	12121.699219	5172.258789	37.584305
619.000549	1033.086426	12169.485352	5249.626465	37.862690
619.337463	1001.229126	12246.852539	5108.544434	36.523682
619.674194	1008.055725	11966.963867	5183.636230	38.102158
620.010986	964.820801	12244.577148	5147.228027	37.078880
620.347778	971.647400	12044.332031	5067.584961	36.991367
620.684387	942.065613	11561.920898	5135.850586	39.490040
621.020996	951.167725	11787.197266	5158.605469	38.828220
621.357605	910.208313	11871.391602	5138.125977	38.571724
621.694214	967.096313	11607.431641	5053.931641	38.408897
622.030579	935.239075	11571.023438	4967.461914	37.911854
622.367065	1014.882263	11691.625977	5065.309082	37.936909
622.703430	969.371887	11611.982422	5135.850586	39.149029
623.039795	944.341125	11659.768555	5129.023926	39.052876
623.376160	896.555176	11596.053711	4994.768066	38.302853
623.712402	935.239075	11530.063477	5090.339844	39.218212
624.048645	1008.055725	11493.655273	4965.186523	37.738716
624.384766	994.402588	11434.492188	5012.972168	38.491714
624.720886	939.790100	11370.777344	4921.951660	38.176266
625.057007	1019.433350	11778.095703	5019.798828	37.182739
625.392944	944.341125	11748.513672	5008.421387	37.615841
625.729004	923.861450	11625.635742	5010.696777	38.188393
626.064941	1023.984375	11935.106445	5204.116211	38.310741
626.400818	935.239075	12192.240234	5176.810059	37.679405
626.736633	932.963501	12531.292969	5210.942871	36.884445
627.072449	932.963501	12590.457031	5395.259766	38.278355
627.408264	1003.504700	12597.283203	5301.963379	37.075562
627.743896	957.994263	12758.844727	5465.800781	38.198997
628.079590	998.953613	12790.702148	5377.055664	37.128525
628.415161	992.127075	12765.671875	5333.820801	36.876690
628.750793	1014.882263	12262.781250	5386.157715	38.863037
629.086365	955.718750	12228.648438	5349.749512	38.978603
629.421753	942.065613	12071.637695	5181.360840	38.090370
629.757263	919.310425	11805.402344	5119.921875	38.586956
630.092651	960.269775	11928.280273	4933.329102	36.224064
630.427917	960.269775	11348.022461	4960.635254	38.510403
630.763184	976.198425	11402.634766	4931.053711	37.931034
631.098511	942.065613	11309.338867	4903.747559	38.213345
631.433716	1019.433350	11099.990234	4906.022949	38.555309
631.768799	992.127075	11061.306641	4751.287598	37.333336
632.103943	985.300537	10747.285156	4739.909668	38.461536
632.438965	1026.259888	10865.612305	4698.950684	37.326550
632.773987	985.300537	10799.622070	4678.470703	37.630417
633.109070	983.024963	10578.896484	4535.112793	37.016838
633.443848	994.402588	10308.109375	4491.877930	37.551914
633.778870	1021.708862	10647.162109	4596.552246	37.139481
634.113708	1005.780212	10603.926758	4664.817871	38.122334
634.448425	926.136963	10788.244141	4664.817871	37.909554
634.783264	994.402588	10917.949219	4512.357910	35.450584
635.117859	1003.504700	10549.314453	4603.378418	37.711559
635.452576	951.167725	10804.172852	4632.960449	37.367207
635.787170	953.443237	10628.958008	4409.959473	35.724365
636.121704	964.820801	10376.375000	4455.469727	37.088974
636.456177	957.994263	10394.579102	4380.377441	36.267181
636.790588	987.576050	10280.802734	4491.877930	37.708126
637.125122	978.473938	10116.965820	4341.693848	36.802788
637.459412	971.647400	10062.352539	4328.040527	36.921154
637.793762	957.994263	9825.699219	4241.570801	37.028484
638.128052	944.341125	9802.943359	4232.468750	37.117905
638.462280	957.994263	9695.994141	4141.447754	36.432293
638.796509	892.004150	9673.239258	4193.784668	37.600410
639.130615	985.300537	9468.442383	4118.692871	36.936699
639.464722	998.953613	9620.902344	4164.203125	36.711529
639.798767	955.718750	9500.299805	4184.682617	37.789612
640.132751	1035.361938	9240.889648	4152.825684	37.992241
640.466736	1033.086426	9331.911133	3929.824463	34.905403
640.800598	957.994263	9229.512695	3970.783691	36.423656
641.134521	980.749451	8958.725586	3888.864990	36.451794
641.468262	989.851563	9045.195313	3975.334961	37.062149
641.802063	978.473938	9195.379883	3984.437012	36.582664
642.135803	917.034912	8910.939453	3813.772949	36.236835
642.469421	942.065613	8888.184570	3802.395264	35.996559
642.803101	971.647400	8976.929688	3948.028564	37.180214
643.136658	971.647400	8669.734375	3868.385254	37.629322
643.470215	969.371887	8742.550781	3763.711426	35.948479
643.803711	969.371887	8712.968750	3684.068115	35.057304
644.137085	939.790100	8847.224609	3638.557861	34.129498
644.470581	964.820801	8726.622070	3761.435791	36.030491
644.803833	985.300537	8772.132813	3775.089111	35.827003
645.137207	1001.229126	8642.427734	3759.160400	36.092911
645.470459	985.300537	8672.009766	3681.792725	35.079929
645.803589	996.678101	8560.508789	3843.354736	37.635384
646.136780	1039.912964	8772.132813	3816.048340	35.903469
646.469849	1012.606750	8519.549805	3800.119629	37.132465
646.802979	998.953613	8656.081055	3788.742188	36.433880
647.135986	946.616638	8826.745117	3847.905762	36.817791
647.468994	969.371887	8799.438477	3709.098877	34.989830
647.801941	989.851563	8628.774414	3752.333740	36.163242
648.134766	939.790100	8703.867188	3695.445801	35.492378
648.467651	1019.433350	8990.583008	3772.813477	34.541821
648.800354	992.127075	8685.663086	3804.670898	36.557232
649.133179	937.514587	8667.458984	3706.823486	35.825729
649.465881	1060.392700	8790.336914	3736.405273	34.618782
649.798462	917.034912	8699.316406	3882.038574	38.099415
650.131104	976.198425	8533.203125	3738.680664	36.555252
650.463623	992.127075	8815.367188	3818.323975	36.125656
650.796143	973.922913	8724.346680	3736.405273	35.642986
651.128662	1008.055725	8681.112305	3850.181152	37.040329
651.461060	989.851563	8763.030273	3800.119629	36.153397
651.793396	907.932800	8986.031250	3781.915527	35.577465
652.125732	951.167725	8865.428711	3695.445801	34.675102
652.458008	976.198425	8790.336914	3827.426025	36.488060
652.790222	1005.780212	8724.346680	3779.640137	35.937500
653.122437	921.585938	8772.132813	3740.956299	35.913044
653.454529	914.759338	8774.408203	3722.751953	35.726692
653.786621	935.239075	8460.386719	3690.894775	36.619293
654.118713	957.994263	8533.203125	3718.200928	36.437366
654.450623	1017.157776	8544.581055	3672.690674	35.278114
654.782654	946.616638	8489.967773	3563.465576	34.690800
655.114502	989.851563	8453.559570	3620.353516	35.243904
655.446350	1026.259888	8235.109375	3588.496338	35.542931
655.778198	973.922913	8526.375977	3608.976074	34.890030
656.109863	1001.229126	8405.773438	3563.465576	34.603565
656.441650	985.300537	8310.202148	3602.149414	35.725380
656.773254	1023.984375	8273.793945	3545.261475	34.777149
657.104919	962.545288	8291.998047	3636.282227	36.479351
657.436462	998.953613	8255.589844	3581.669678	35.591091
657.767944	957.994263	8357.988281	3638.557861	36.223858
658.099548	983.024963	8451.284180	3574.843262	34.704453
658.430908	1058.117188	8535.478516	3568.016602	33.566647
658.762268	919.310425	8840.398438	3690.894775	34.989948
659.093628	1014.882263	9081.603516	3836.528076	34.978844
659.424927	944.341125	9284.125000	3948.028564	36.016369
659.756226	989.851563	9589.044922	3957.130615	34.506481
660.087341	953.443237	9805.218750	4073.182129	35.244217
660.418518	983.024963	9766.535156	4107.314941	35.569950
660.749573	937.514587	9650.483398	3998.090088	35.126667
661.080627	964.820801	9541.258789	4043.600586	35.898121
661.411621	971.647400	9347.839844	3872.936523	34.637325
661.742554	971.647400	9270.471680	3952.579590	35.919933
662.073547	994.402588	9024.715820	3793.293213	34.854065
662.404297	937.514587	8872.255859	3681.792725	34.585602
662.735229	1030.810913	8378.467773	3668.139648	35.893467
663.065979	953.443237	8606.019531	3558.914551	34.046982
663.396667	937.514587	8419.426758	3568.016602	35.158150
663.727417	1028.535400	8153.190918	3399.628174	33.280106
664.057922	998.953613	7993.904785	3504.302002	35.816525
664.388611	939.790100	8037.139648	3479.271240	35.780697
664.719116	992.127075	7868.750977	3438.312012	35.572472
665.049622	978.473938	7720.842285	3285.852051	34.222073
665.380005	953.443237	7732.219727	3306.331787	34.709637
665.710388	994.402588	7682.158203	3301.780762	34.501530
666.040771	946.616638	7764.077148	3372.321777	35.580772
666.371033	1001.229126	7679.882813	3367.770752	35.434410
666.701294	992.127075	7459.157227	3235.790527	34.693878
667.031555	967.096313	7568.382324	3247.168213	34.539810
667.361633	964.820801	7711.740234	3315.433838	34.839798
667.691772	1019.433350	7561.555664	3281.301025	34.573914
668.021790	980.749451	7399.993652	3256.270264	35.448421
668.351807	932.963501	7816.414063	3235.790527	33.454544
668.681763	962.545288	7463.708008	3263.096924	35.386776
669.011719	951.167725	7563.831055	3319.984863	35.822437
669.341614	942.065613	7561.555664	3203.933350	34.169815
669.671387	960.269775	7700.362305	3249.443604	33.963535
670.001221	930.687988	7638.923340	3263.096924	34.769337
670.330933	944.341125	7645.750000	3201.657715	33.684212
670.660583	946.616638	7643.474609	3260.821289	34.556572
670.990173	944.341125	7677.607422	3251.719238	34.268333
671.319763	994.402588	7420.473145	3181.177979	34.029747
671.649292	960.269775	7495.565430	3249.443604	35.027851
671.978821	960.269775	7327.176758	3101.534912	33.631165
672.308289	973.922913	7313.523926	3101.534912	33.560661
672.637695	980.749451	7390.891602	3137.943115	33.652821
672.966980	1026.259888	7281.666504	3176.626953	34.376137
673.296326	1012.606750	7390.891602	3101.534912	32.750626
673.625610	967.096313	7277.115723	3065.126465	33.249187
673.954773	994.402588	7161.063965	3085.606201	33.911442
674.283936	1042.188477	7283.941895	3156.147461	33.868031
674.613037	971.647400	6972.195801	3103.810303	35.532799
674.942078	1014.882263	7085.971680	3010.513916	32.871063
675.271118	926.136963	7136.033203	3042.371338	34.078415
675.600098	1021.708862	7060.940918	3117.463379	34.702332
675.928955	957.994263	7045.012207	3056.024414	34.467293
676.257813	960.269775	7099.625000	3010.513916	33.395103
676.586670	948.892151	7008.604004	2996.860840	33.796471
676.915466	1008.055725	7124.655762	2939.972900	31.584822
677.244141	992.127075	7056.390137	3024.167236	33.508442
677.572876	962.545288	7017.706055	3010.513916	33.821873
677.901489	964.820801	6940.338379	3092.432861	35.605484
678.230042	1028.535400	6935.787598	2974.105713	32.935287
678.558594	1019.433350	7029.083984	3042.371338	33.661491
678.887085	937.514587	7042.736816	3071.953125	34.960865
679.215515	942.065613	6994.951172	2926.319824	32.781952
679.543945	992.127075	7279.391113	2919.493164	30.655085
679.872253	1019.433350	7113.277832	3108.361328	34.279312
680.200562	1008.055725	7343.105469	3065.126465	32.471264
680.528809	962.545288	7418.197754	3167.524902	34.155796
680.856995	930.687988	7618.443848	3238.066162	34.501530
681.185120	939.790100	7864.199707	3222.137451	32.960896
681.513306	957.994263	7850.546875	3160.698486	31.957741
681.841309	1046.739624	7707.188965	3169.800537	31.875643
682.169373	919.310425	7607.065918	3060.575439	32.017696
682.497314	1019.433350	7632.096680	3197.106689	32.931866
682.825134	887.453125	7557.004395	3126.565674	33.572163
683.153076	987.576050	7657.127441	3176.626953	32.821560
683.480896	978.473938	7379.514160	3133.392090	33.665127
683.808655	1008.055725	7454.605957	3037.820313	31.486059
684.136414	1028.535400	7099.625000	3051.473389	33.320839
684.464050	987.576050	7051.838867	2949.074951	32.345215
684.791626	962.545288	6812.909180	2908.115479	33.255543
685.119263	1001.229126	6810.633789	2942.248291	33.411671
685.446838	1085.423462	6724.164063	2903.564453	32.243740
685.774292	944.341125	6646.796387	2869.431641	33.758980
686.101685	935.239075	6769.674316	2871.707275	33.190331
686.429077	942.065613	6585.357422	2844.401123	33.709675
686.756348	907.932800	6553.500000	2880.809326	34.945583
687.083679	921.585938	6553.500000	2810.268311	33.535355
687.410950	989.851563	6546.673340	2821.645752	32.964783
687.738159	953.443237	6478.407715	3026.442627	37.520596
688.065308	964.820801	6696.857910	2969.554688	34.974197
688.392395	980.749451	6692.306641	2953.625977	34.541832
688.719421	978.473938	6592.183594	2883.084961	33.927853
689.046448	1003.504700	6635.418457	2858.054199	32.929298
689.373413	973.922913	6496.611816	2867.156250	34.281006
689.700317	939.790100	6512.540527	2726.073975	32.053902
690.027100	1028.535400	6726.439453	2796.614990	31.030350
690.353943	932.963501	6426.070801	2807.992676	34.134216
690.680725	953.443237	6305.468262	2751.104736	33.588436
691.007446	1012.606750	6284.988281	2726.073975	32.498924
691.334106	1026.259888	6002.823730	2735.176025	34.339279
691.660645	983.024963	6107.498047	2678.288086	33.081707
691.987244	1026.259888	6061.987305	2664.634766	32.535019
692.313721	1008.055725	5964.140137	2612.297852	32.369144
692.640259	996.678101	5895.874512	2607.746826	32.884346
692.966675	1074.045776	5838.986328	2566.787354	31.327602
693.293030	971.647400	5916.354004	2575.889648	32.443626
693.619324	1044.463989	5791.200684	2557.685303	31.879190
693.945618	969.371887	5925.456055	2496.246338	30.808084
694.271851	939.790100	5838.986328	2587.267090	33.627495
694.598083	973.922913	5609.158691	2605.471436	35.198826
694.924194	932.963501	5775.271973	2484.868652	32.048870
695.250244	967.096313	5593.229980	2541.756836	34.038368
695.576294	1003.504700	5732.037109	2550.858887	32.723774
695.902283	964.820801	5584.127930	2478.042236	32.758625
696.228210	928.412476	5625.087402	2509.899414	33.672482
696.554138	996.678101	5768.445313	2500.797363	31.521221
696.879944	939.790100	5852.639648	2575.889648	33.302456
697.205750	969.371887	5877.670410	2607.746826	33.379696
697.531433	951.167725	5952.762207	2644.155273	33.848953
697.857178	921.585938	6021.027832	2676.012451	34.404285
698.182739	987.576050	6155.283691	2623.675537	31.660063
698.508423	944.341125	6628.592285	2701.043213	30.904726
698.833984	971.647400	6787.878418	2803.441650	31.494522
699.159485	971.647400	6833.389160	2908.115479	33.035709
699.484924	973.922913	7113.277832	3030.993652	33.506302
699.810303	921.585938	7393.166992	3087.881836	33.473984
700.135681	939.790100	7190.645508	3005.962891	33.054241
700.460999	889.728638	7129.206543	3012.789551	34.026260
700.786255	973.922913	6958.542480	2883.084961	31.901144
701.111450	866.973450	6787.878418	2876.258301	33.935436
701.436646	969.371887	6494.336426	2789.788574	32.948933
701.761719	1060.392700	6360.080566	2776.135498	32.374413
702.086792	973.922913	6362.355957	2610.022461	30.363180
702.411865	987.576050	5970.966797	2589.542725	32.146118
702.736816	1001.229126	5791.200684	2400.674561	29.216152
703.061646	937.514587	5763.894043	2453.011475	31.400284
703.386536	1010.331238	5656.944824	2489.419678	31.831533
703.711365	1033.086426	5326.994141	2391.572266	31.637518
704.036194	1044.463989	5306.514648	2402.949951	31.873997
704.360901	1019.433350	5342.922852	2296.000488	29.526318
704.685547	1023.984375	5199.564941	2239.112549	29.100821
705.010132	994.402588	5279.208496	2291.449463	30.270845
705.334717	964.820801	5067.584961	2339.235352	33.499722
705.659302	973.922913	5163.156738	2366.541748	33.242805
705.983765	973.922913	4965.186523	2266.418701	32.383125
706.308228	980.749451	5119.921875	2270.969727	31.170971
706.632568	967.096313	5156.330078	2273.245361	31.178709
706.956909	953.443237	5042.554199	2259.592041	31.942123
707.281189	951.167725	5076.687012	2259.592041	31.715384
707.605408	939.790100	5067.584961	2218.632813	30.981258
707.929626	967.096313	4874.165527	2245.938965	32.731506
708.253784	892.004150	5144.952637	2234.561523	31.567686
708.577820	989.851563	5008.421387	2239.112549	31.087204
708.901855	964.820801	4999.319336	2382.470215	35.138180
709.225830	960.269775	5076.687012	2296.000488	32.448868
709.549805	1003.504700	5067.584961	2277.796387	31.354984
709.873718	971.647400	4937.880371	2264.143311	32.587494
710.197510	1005.780212	5188.187500	2223.183838	29.107725
710.521362	962.545288	5069.860352	2323.306641	33.130192
710.845093	1001.229126	5190.462891	2327.857666	31.667570
711.168701	989.851563	5320.167480	2364.266113	31.739359
711.492432	953.443237	5349.749512	2355.164063	31.884058
711.816040	1021.708862	5370.229004	2412.052002	31.972790
712.139587	923.861450	5486.280762	2416.603027	32.718201
712.463074	994.402588	5342.922852	2343.786377	31.030870
712.786499	946.616638	5361.126953	2384.745850	32.577320
713.109924	944.341125	5317.892090	2352.888428	32.206036
713.433350	948.892151	5358.851563	2323.306641	31.166149
713.756592	1055.841675	5122.197266	2396.123291	32.960266
714.079834	955.718750	5169.983398	2341.510986	32.883369
714.403015	1014.882263	5158.605469	2364.266113	32.564526
714.726196	996.678101	5188.187500	2336.959961	31.976116
715.049255	1012.606750	4992.492676	2209.530762	30.074331
715.372375	939.790100	4997.043457	2255.041016	32.417274
715.695435	960.269775	5049.380859	2261.867676	31.830828
716.018311	967.096313	5081.237793	2261.867676	31.471239
716.341248	923.861450	5044.829590	2209.530762	31.198235
716.664063	1026.259888	4994.768066	2220.908203	30.103209
716.987000	939.790100	5051.656250	2150.367188	29.441063
717.309692	989.851563	4906.022949	2148.091553	29.575825
717.632385	951.167725	4919.675781	2123.060791	29.529814
717.955078	948.892151	4667.093262	2148.091553	32.252140
718.277649	1005.780212	4710.328125	2141.265137	30.651106
718.600220	957.994263	4819.553223	2170.846924	31.408367
718.922791	1008.055725	4573.796875	2195.877686	33.312065
719.245300	985.300537	4587.449707	2150.367188	32.343655
719.567688	996.678101	4475.949219	2066.172852	30.739048
719.890015	976.198425	4548.766113	2207.255127	34.458595
720.212341	967.096313	4423.612305	2070.723877	31.928900
720.534607	937.514587	4428.163574	2043.417725	31.681877
720.856873	937.514587	4296.183105	1950.121338	30.149054
721.179016	937.514587	4232.468750	1941.019287	30.455803
721.501160	894.279663	4118.692871	2000.182739	34.297810
721.823242	953.443237	4184.682617	1984.254150	31.901411
722.145264	1064.943726	4068.631104	2054.795166	32.954540
722.467224	1003.504700	4109.590332	1991.080688	31.794872
722.789185	951.167725	4089.110840	1911.437500	30.601887
723.111023	951.167725	4102.764160	1920.539551	30.758120
723.432861	960.269775	4100.488281	1854.549438	28.478262
723.754578	948.892151	4089.110840	1911.437500	30.652176
724.076294	967.096313	3979.885986	1879.580200	30.287010
724.397949	946.616638	3925.273438	1984.254150	34.835751
724.719666	976.198425	3941.202148	1872.753662	30.237913
725.041260	985.300537	4109.590332	1861.375977	28.040787
725.362732	973.922913	3948.028564	1895.508789	30.986992
725.684265	914.759338	3988.988037	1968.325439	34.270908
726.005676	930.687988	4048.151611	1956.947876	32.919708
726.327087	928.412476	3988.988037	1913.713013	32.193306
726.648438	885.177612	4020.845215	1884.131226	31.857767
726.969666	976.198425	4200.611328	1765.804199	24.488358
727.290894	948.892151	4182.407227	1886.406738	28.993666
727.612061	1001.229126	4139.172363	2004.733887	31.979696
727.933228	964.820801	4277.979004	1993.356201	31.043957
728.254395	951.167725	4284.805664	2013.835938	31.877134
728.575378	987.576050	4248.397461	1961.498901	29.867409
728.896301	953.443237	4182.407227	1947.845825	30.796337
729.217285	1058.117188	4293.907715	2045.693237	30.520395
729.538147	1042.188477	4332.591797	2063.897461	31.051178
729.858948	992.127075	4237.019531	1906.886475	28.190744
730.179810	980.749451	4396.306152	1954.672363	28.514324
730.500549	957.994263	4268.876953	1943.294800	29.759451
730.821228	996.678101	4232.468750	1913.713013	28.340366
731.141846	998.953613	4293.907715	1920.539551	27.969614
731.462402	967.096313	4330.315918	2018.386963	31.258459
731.782898	1005.780212	4480.500488	2020.662476	29.207596
732.103455	942.065613	4555.592773	2004.733887	29.408060
732.423889	971.647400	4530.562012	1906.886475	26.278772
732.744263	983.024963	4359.897949	1952.396851	28.706200
733.064636	973.922913	4364.448730	1977.427612	29.597317
733.384888	901.106262	4473.673828	1991.080688	30.509552
733.705200	998.953613	4343.969238	1981.978638	29.387756
734.025330	978.473938	4353.071289	1954.672363	28.927849
734.345520	1033.086426	4439.541016	2047.968750	29.792921
734.665527	969.371887	4341.693848	2013.835938	30.971661
734.985596	932.963501	4218.815430	1993.356201	32.271469
735.305542	998.953613	4200.611328	1981.978638	30.703627
735.625549	994.402588	4000.365479	1897.784302	30.052990
735.945435	1010.331238	4114.141602	1952.396851	30.351908
736.265259	896.555176	4057.253662	1875.029175	30.957523
736.585083	905.657288	4036.773926	1856.824951	30.377905
736.904785	987.576050	3836.528076	1884.131226	31.469646
737.224426	962.545288	3932.099854	1870.478149	30.574715
737.544128	969.371887	3936.650879	1952.396851	33.128834
737.863708	978.473938	3891.140625	1811.314575	28.593750
738.183289	939.790100	3922.997803	1852.273926	30.587337
738.502808	951.167725	3984.437012	1909.161987	31.582895
738.822205	1005.780212	3954.855225	1881.855713	29.706789
739.141541	946.616638	3954.855225	1818.141113	28.971256
739.460938	1049.015137	3970.783691	1859.100464	27.725855
739.780212	994.402588	4123.243652	1872.753662	28.072729
740.099426	932.963501	3934.375488	1941.019287	33.586052
740.418640	987.576050	3979.885986	1824.967651	27.984787
740.737793	935.239075	4070.906738	1895.508789	30.624090
741.056885	957.994263	4050.427002	1838.620850	28.476824
741.375977	983.024963	4054.978027	1786.283813	26.148148
741.694946	953.443237	3888.864990	1906.886475	32.480621
742.013855	926.136963	3872.936523	1897.784302	32.972969
742.332703	976.198425	3877.487549	1765.804199	27.215689
742.651550	969.371887	3893.416016	1784.008301	27.859921
742.970398	878.351013	3672.690674	1795.385864	32.817589
743.289124	939.790100	3638.557861	1749.875488	30.016861
743.607788	971.647400	3800.119629	1784.008301	28.720839
743.926453	978.473938	3770.538086	1722.569214	26.650364
744.245056	994.402588	3704.547852	1765.804199	28.463478
744.563599	955.718750	3661.312988	1790.834839	30.866272
744.882141	944.341125	3718.200928	1793.110352	30.598850
745.200500	942.065613	3574.843262	1688.436401	28.349178
745.518860	983.024963	3659.037354	1799.937012	30.527214
745.837219	939.790100	3583.945313	1729.395752	29.862303
746.155518	951.167725	3542.985840	1752.151001	30.904301
746.473755	946.616638	3486.097900	1763.528564	32.168457
746.791992	998.953613	3681.792725	1749.875488	27.989820
747.110107	955.718750	3461.067139	1692.987427	29.427790
747.428162	985.300537	3618.078125	1715.742676	27.744164
747.746216	983.024963	3465.618164	1736.222412	30.339140
748.064148	1010.331238	3536.159424	1665.681274	25.945948
748.382080	1028.535400	3433.760986	1713.467163	28.476820
748.700073	987.576050	3383.699463	1661.130127	28.110157
749.017822	1014.882263	3531.608398	1647.477051	25.135624
749.335632	985.300537	3461.067139	1708.916138	29.227942
749.653320	1021.708862	3540.710449	1711.191650	27.371273
749.971008	921.585938	3583.945313	1711.191650	29.658119
750.288696	994.402588	3504.302002	1731.671387	29.374435
750.606262	921.585938	3561.189941	1613.344238	26.206898
750.923828	935.239075	3579.394287	1704.365112	29.087778
751.241272	946.616638	3545.261475	1781.732788	32.136604
751.558716	957.994263	3522.506104	1815.865601	33.451645
751.876038	983.024963	3508.853027	1763.528564	30.900900
752.193481	1001.229126	3497.475586	1729.395752	29.170460
752.510681	889.728638	3467.893799	1718.018188	32.127094
752.827942	957.994263	3431.485352	1606.517700	26.218950
753.145081	939.790100	3440.587402	1733.946899	31.756144
753.462219	955.718750	3495.199951	1747.599976	31.182795
753.779297	980.749451	3385.974854	1679.334351	29.044468
754.096375	951.167725	3404.179199	1747.599976	32.467529
754.413330	1012.606750	3431.485352	1692.987427	28.127937
754.730286	989.851563	3360.944336	1590.588989	25.335888
755.047119	1003.504700	3379.148438	1586.037964	24.521069
755.363892	1008.055725	3349.566650	1674.783325	28.474247
755.680725	919.310425	3370.046387	1617.895264	28.505106
755.997498	985.300537	3317.709229	1720.293701	31.512194
756.314148	978.473938	3308.607178	1645.201538	28.613281
756.630737	976.198425	3390.525879	1692.987427	29.688972
756.947327	998.953613	3356.393066	1724.844727	30.791506
757.263855	980.749451	3194.831299	1640.650513	29.804728
757.580261	1010.331238	3322.260254	1704.365112	30.019690
757.896729	996.678101	3324.535889	1581.486938	25.122189
758.213074	971.647400	3502.026611	1558.731689	23.201435
758.529419	1017.157776	3440.587402	1654.303589	26.291079
758.845642	971.647400	3436.036377	1606.517700	25.761774
759.161865	1046.739624	3547.536865	1740.773438	27.752501
759.478149	1010.331238	3445.138428	1740.773438	30.000002
759.794189	957.994263	3542.985840	1677.058838	27.816900
760.110229	987.576050	3529.332764	1599.691162	24.082363
760.426270	960.269775	3504.302002	1667.956787	27.817533
760.742249	978.473938	3413.281250	1677.058838	28.691587
761.058105	992.127075	3556.638916	1626.997314	24.755989
761.374023	971.647400	3568.016602	1715.742676	28.659071
761.689819	976.198425	3524.781738	1747.599976	30.267859
762.005554	1037.637451	3558.914551	1724.844727	27.256317
762.321289	932.963501	3561.189941	1667.956787	27.965370
762.636902	967.096313	3549.812500	1777.181763	31.365639
762.952515	1021.708862	3634.006836	1761.253052	28.310102
763.268127	937.514587	3686.343750	1690.711914	27.400660
763.583618	983.024963	3761.435791	1754.426514	27.764128
763.899048	992.127075	4152.825684	1920.539551	29.373646
764.214478	1019.433350	4612.480469	1945.570313	25.775808
764.529785	919.310425	4778.593750	2141.265137	31.662737
764.845093	964.820801	5006.145996	2232.285889	31.362610
765.160400	978.473938	4874.165527	2123.060791	29.380840
765.475586	964.820801	4874.165527	2113.958740	29.394644
765.790771	980.749451	4612.480469	1966.049927	27.130327
766.105835	973.922913	4434.990234	1970.601074	28.796844
766.420837	951.167725	4116.416992	1997.907227	33.069733
766.735840	935.239075	4082.284424	1893.233276	30.441067
767.050842	969.371887	3822.875000	1718.018188	26.236042
767.365662	1023.984375	3852.456787	1713.467163	24.376507
767.680542	992.127075	3643.108887	1740.773438	28.240341
767.995300	926.136963	3483.822266	1733.946899	31.583633
768.309998	969.371887	3520.230713	1720.293701	29.438000
768.624817	987.576050	3467.893799	1688.436401	28.256876
768.939392	951.167725	3506.577637	1772.630737	32.146038
769.254028	996.678101	3272.198975	1724.844727	31.999996
769.568481	969.371887	3281.301025	1590.588989	26.870075
769.882935	921.585938	3360.944336	1631.548462	29.104477
770.197388	992.127075	3274.474365	1620.170776	27.517448
770.511841	871.524475	3183.453613	1601.966675	31.594488
770.826172	923.861450	3183.453613	1652.028076	32.225574
771.140442	980.749451	3188.004639	1654.303589	30.515463
771.454651	989.851563	3185.729004	1656.579102	30.362694
771.768860	937.514587	3035.544678	1556.456177	29.501083
772.082886	992.127075	3172.075928	1613.344238	28.496870
772.397034	994.402588	3046.922363	1617.895264	30.376938
772.711060	935.239075	2994.585449	1538.252075	29.281765
773.025024	996.678101	3028.718262	1608.793213	30.123180
773.338928	919.310425	3062.851074	1483.639526	26.326962
773.652771	973.922913	3081.055176	1567.833862	28.185745
773.966614	1001.229126	2942.248291	1540.527588	27.784294
774.280457	971.647400	2962.728027	1576.935913	30.400002
774.594116	976.198425	2914.942139	1526.874512	28.403759
774.907776	978.473938	2928.595215	1504.119263	26.954493
775.221375	889.728638	2917.217773	1513.221313	30.751961
775.534912	960.269775	2965.003662	1520.047852	27.922812
775.848450	939.790100	2962.728027	1554.180664	30.371201
776.161926	1023.984375	2889.911377	1508.670288	25.975609
776.475342	939.790100	2871.707275	1501.843750	29.093050
776.788696	998.953613	2896.738037	1483.639526	25.539566
777.101990	937.514587	2860.329590	1545.078613	31.597633
777.415283	989.851563	2798.890625	1495.017212	27.924530
777.728516	926.136963	2812.543701	1456.333252	28.106150
778.041626	951.167725	2883.084961	1529.150024	29.917549
778.354736	910.208313	2794.339600	1535.976563	33.212559
778.667725	914.759338	2807.992676	1524.598877	32.211536
778.980774	971.647400	2773.859863	1499.568237	29.292931
779.293640	994.402588	2767.033203	1422.200562	24.133509
779.606567	967.096313	2803.441650	1415.373901	24.411400
779.919434	935.239075	2771.584229	1595.140137	35.935566
780.232239	914.759338	2714.696289	1490.466064	31.984827
780.544983	923.861450	2835.298828	1520.047852	31.190475
780.857666	953.443237	2817.094727	1501.843750	29.426130
781.170227	932.963501	2653.257324	1444.955688	29.761904
781.482849	901.106262	2771.584229	1385.792114	25.912405
781.795410	964.820801	2807.992676	1481.364014	28.024691
782.107910	957.994263	2676.012451	1526.874512	33.112587
782.420288	914.759338	2628.226563	1449.506714	31.208496
782.732666	1005.780212	2694.216553	1417.649414	24.393530
783.044983	1026.259888	2612.297852	1435.853638	25.824965
783.357300	1017.157776	2605.471436	1513.221313	31.232088
783.669495	1083.147949	2678.288086	1344.832764	16.405130
783.981689	942.065613	2707.869873	1388.067749	25.257734
784.293762	1001.229126	2632.777588	1481.364014	29.428171
784.605835	1046.739624	2569.062988	1394.894287	22.869955
784.917908	1035.361938	2666.910400	1440.404663	24.825663
785.229858	978.473938	2532.654541	1460.884399	31.039536
785.541748	935.239075	2459.837891	1424.476074	32.089554
785.853577	942.065613	2582.716064	1456.333252	31.345352
786.165405	1030.810913	2523.552490	1438.129150	27.286587
786.477173	1021.708862	2537.205811	1476.812988	30.030025
786.788879	989.851563	2521.277100	1340.281738	22.882612
787.100525	971.647400	2530.379150	1322.077637	22.481754
787.412109	928.412476	2478.042236	1340.281738	26.578560
787.723694	898.830688	2450.735840	1308.424438	26.392963
788.035156	948.892151	2478.042236	1406.271851	29.910711
788.346558	951.167725	2612.297852	1376.690063	25.616436
788.658081	960.269775	2807.992676	1381.241089	22.783249
788.969360	944.341125	2685.114502	1429.027100	27.843140
789.280640	1014.882263	2707.869873	1438.129150	25.000000
789.591919	946.616638	2748.829102	1447.231201	27.777779
789.903076	953.443237	2814.819336	1483.639526	28.484104
790.214172	973.922913	2753.380127	1408.547363	24.424551
790.525269	964.820801	2662.359375	1374.414551	24.128685
790.836365	973.922913	2682.839111	1456.333252	28.229021
791.147339	948.892151	2557.685303	1419.924927	29.278641
791.458191	1014.882263	2537.205811	1310.699951	19.431986
791.769104	994.402588	2516.726074	1306.148926	20.478325
792.079895	1026.259888	2455.286865	1454.057739	29.936304
792.390686	1035.361938	2380.194824	1374.414551	25.211506
792.701416	1028.535400	2334.684326	1410.822876	29.268291
793.012085	939.790100	2402.949951	1390.343262	30.793159
793.322693	937.514587	2443.909424	1290.220337	23.413898
793.633240	967.096313	2453.011475	1438.129150	31.699848
793.943787	980.749451	2400.674561	1338.006226	25.160255
794.254272	953.443237	2357.439453	1274.291626	22.852510
794.564636	1012.606750	2375.643799	1322.077637	22.704510
794.875000	939.790100	2357.439453	1326.628662	27.287323
795.185303	1026.259888	2414.327637	1287.944824	18.852461
795.495544	1037.637451	2325.582275	1351.659302	24.381622
795.805786	985.300537	2466.664551	1333.455200	23.502304
796.115906	998.953613	2418.878662	1369.863525	26.121796
796.426025	928.412476	2327.857666	1312.975464	27.479675
796.736023	987.576050	2421.154053	1292.495850	21.269844
797.045959	935.239075	2434.807373	1429.027100	32.928677
797.355896	985.300537	2596.369141	1360.761475	23.305086
797.665833	944.341125	2437.082764	1351.659302	27.286581
797.975708	967.096313	2514.450439	1426.751587	29.705887
798.285461	1003.504700	2491.695313	1413.098389	27.522930
798.595154	921.585938	2503.072998	1376.690063	28.776974
798.904846	955.718750	2487.144287	1326.628662	24.219912
799.214478	1026.259888	2352.888428	1283.393677	19.382502
799.524109	953.443237	2471.215576	1403.996338	29.685158
799.833557	887.453125	2414.327637	1310.699951	27.719818
800.143005	998.953613	2396.123291	1394.894287	28.338768
800.452393	992.127075	2368.817139	1356.210449	26.446285
800.761780	976.198425	2359.715088	1306.148926	23.848684
801.071106	1023.984375	2366.541748	1474.537476	33.559319
801.380371	923.861450	2261.867676	1303.873413	28.401360
801.689575	957.994263	2230.010498	1356.210449	31.305904
801.998718	951.167725	2243.663574	1369.863525	32.394363
802.307800	946.616638	2323.306641	1267.465088	23.305788
802.616882	987.576050	2261.867676	1221.954712	18.392859
802.925903	1021.708862	2250.489990	1308.424438	23.333332
803.234863	932.963501	2141.265137	1315.250977	31.638414
803.543701	1023.984375	2268.694336	1196.923950	13.893966
803.852539	955.718750	2159.469238	1287.944824	27.599247
804.161316	967.096313	2141.265137	1292.495850	27.713181
804.470032	957.994263	2202.704102	1419.924927	37.111515
804.778809	1008.055725	2280.071777	1351.659302	27.012518
805.087341	923.861450	2175.397949	1326.628662	32.181820
805.395935	1012.606750	2195.877686	1324.353149	26.346153
805.704468	964.820801	2173.122314	1294.771362	27.306973
806.012939	964.820801	2293.724854	1378.965576	31.164385
806.321350	962.545288	2261.867676	1351.659302	29.947456
806.629761	964.820801	2273.245361	1299.322388	25.565218
806.938049	889.728638	2341.510986	1283.393677	27.115982
807.246277	1014.882263	2227.734863	1328.904175	25.891186
807.554504	992.127075	2204.979736	1274.291626	23.264536
807.862671	971.647400	2234.561523	1383.516602	32.612606
808.170715	894.279663	2314.204590	1292.495850	28.044876
808.478821	944.341125	2113.958740	1367.588013	36.186771
808.786804	1008.055725	2157.193604	1285.669312	24.158421
809.094727	989.851563	2184.500000	1301.597900	26.095236
809.402649	1003.504700	2259.592041	1287.944824	22.644932
809.710510	1037.637451	2095.754639	1303.873413	25.161293
810.018311	983.024963	2095.754639	1212.852539	20.654394
810.326050	1008.055725	2027.489014	1192.372925	18.080359
810.633667	1012.606750	2143.540527	1310.699951	26.358147
810.941345	1021.708862	2111.683350	1306.148926	26.096029
811.248901	960.269775	2029.764526	1301.597900	31.914894
811.556396	960.269775	2034.315552	1308.424438	32.415253
811.863892	935.239075	2054.795166	1306.148926	33.130081
812.171326	944.341125	2043.417725	1353.934937	37.267082
812.478699	967.096313	2036.591064	1219.679199	23.617029
812.786011	953.443237	2036.591064	1274.291626	29.621847
813.093262	921.585938	2027.489014	1322.077637	36.213997
813.400391	921.585938	2123.060791	1244.709839	26.893938
813.707642	939.790100	2018.386963	1249.260864	28.691975
814.014709	944.341125	2059.346436	1240.158813	26.530607
814.321716	1026.259888	2077.550537	1142.311401	11.038956
814.628723	955.718750	2154.918213	1278.842651	26.944967
814.935669	1037.637451	2011.560425	1237.883301	20.560749
815.242554	1010.331238	1970.601074	1210.577026	20.853075
815.549438	978.473938	2041.142212	1244.709839	25.053530
815.856201	948.892151	1991.080688	1215.128052	25.545849
816.162964	1012.606750	2022.937988	1276.567139	26.126123
816.469604	1001.229126	2084.376953	1294.771362	27.100847
816.776184	878.351013	2020.662476	1244.709839	32.071709
817.082825	964.820801	2127.612061	1269.740601	26.223089
817.389343	955.718750	2041.142212	1317.526489	33.333324
817.695801	866.973450	2059.346436	1278.842651	34.541977
818.002197	1037.637451	2075.274902	1233.332275	18.859653
818.308533	1033.086426	2070.723877	1246.985352	20.614033
818.614868	1023.984375	2166.295898	1338.006226	27.490036
818.921143	935.239075	2116.234375	1240.158813	25.818876
819.227356	960.269775	2061.621826	1328.904175	33.471077
819.533447	919.310425	2054.795166	1299.322388	33.466938
819.839539	948.892151	2152.642578	1219.679199	22.495281
820.145569	917.034912	2164.020264	1274.291626	28.649632
820.451538	969.371887	2318.755615	1281.118164	23.102861
820.757568	1026.259888	2496.246338	1351.659302	22.136219
821.063416	957.994263	2650.981689	1294.771362	19.892475
821.369263	969.371887	2721.522949	1417.649414	25.584410
821.675049	946.616638	2860.329590	1406.271851	24.019028
821.980713	946.616638	3001.411865	1554.180664	29.568106
822.286438	894.279663	3342.739990	1588.313477	28.345722
822.592102	951.167725	4150.549805	1799.937012	26.529163
822.897583	971.647400	6237.202637	2307.378174	25.367329
823.203125	976.198425	8794.887695	2967.279053	25.465656
823.508545	946.616638	10378.650391	3367.770752	25.669479
823.813965	894.279663	10824.652344	3556.638916	26.810265
824.119263	996.678101	9841.627930	3449.689453	27.733465
824.424622	976.198425	8301.099609	3124.290039	29.325876
824.729858	985.300537	6979.022461	2660.083740	27.942291
825.035095	989.851563	6162.110352	2371.092773	26.704798
825.340149	937.514587	5295.136719	2211.806152	29.242819
825.645264	994.402588	4894.645020	2052.519775	27.129524
825.950256	928.412476	4541.939453	1936.468262	27.896729
826.255310	980.749451	4271.152344	1806.763550	25.103737
826.560242	1055.841675	4016.294189	1754.426514	23.597231
826.865112	973.922913	3743.231689	1763.528564	28.512733
827.169922	1026.259888	3681.792725	1649.752563	23.479006
827.474670	960.269775	3734.129639	1686.160889	26.168989
827.779419	983.024963	4289.356934	1774.906250	23.950447
828.084045	987.576050	4744.460938	1952.396851	25.681406
828.388672	969.371887	5288.310547	2150.367188	27.344574
828.693176	955.718750	5019.798828	2061.621826	27.211645
828.997681	971.647400	4548.766113	1915.988525	26.399490
829.302124	1042.188477	4050.427002	1834.069824	26.323755
829.606567	973.922913	3538.434814	1681.609863	27.595385
829.910828	953.443237	3306.331787	1576.935913	26.499029
830.215149	1071.770264	3017.340576	1483.639526	21.169590
830.519348	983.024963	2883.084961	1454.057739	24.790415
830.823547	901.106262	2826.196777	1376.690063	24.704489
831.127686	957.994263	2573.614014	1376.690063	25.915491
831.431763	998.953613	2512.175049	1381.241089	25.263155
831.735779	1033.086426	2261.867676	1351.659302	25.925922
832.039734	1012.606750	2266.418701	1287.944824	21.960075
832.343628	1003.504700	2125.336426	1260.638550	22.920893
832.647461	1012.606750	2157.193604	1260.638550	21.669983
832.951233	1014.882263	2239.112549	1335.730713	26.208179
833.255127	1046.739624	2143.540527	1281.118164	21.369287
833.558777	973.922913	2239.112549	1269.740601	23.381290
833.862366	1019.433350	2437.082764	1399.445313	26.805779
834.165955	957.994263	2637.328613	1472.261963	30.623306
834.469482	998.953613	2946.799316	1513.221313	26.401871
834.773010	980.749451	3397.352539	1692.987427	29.472692
835.076416	948.892151	3606.700439	1665.681274	26.969181
835.379822	957.994263	3549.812500	1649.752563	26.690077
835.683105	939.790100	3297.229736	1615.619751	28.667952
835.986389	1042.188477	2992.309814	1524.598877	24.737455
836.289612	976.198425	2771.584229	1438.129150	25.728773
836.592773	987.576050	2621.399902	1376.690063	23.816154
836.895874	957.994263	2519.001465	1408.547363	28.862974
837.198914	1001.229126	2407.500977	1408.547363	28.964403
837.501892	996.678101	2350.613037	1363.036987	27.058825
837.804871	866.973450	2275.520752	1322.077637	32.310181
838.107666	962.545288	2148.091553	1224.230225	22.072941
838.410583	1042.188477	2018.386963	1228.781250	19.114225
838.713379	969.371887	1929.641602	1155.964600	19.431282
839.016052	969.371887	1920.539551	1244.709839	28.947363
839.318787	983.024963	1852.273926	1183.270874	23.036657
839.621338	998.953613	1784.008301	1165.066650	21.159422
839.923889	1014.882263	1815.865601	1128.658325	14.204548
840.226440	1080.872437	1784.008301	1149.138062	9.708739
840.528931	1005.780212	1947.845825	1228.781250	23.671497
840.831299	976.198425	1988.805176	1246.985352	26.741568
841.133606	942.065613	2134.438477	1240.158813	25.000000
841.435913	942.065613	2084.376953	1249.260864	26.892429
841.738220	1008.055725	1925.090576	1183.270874	19.106705
842.040405	983.024963	1950.121338	1258.363037	28.470592
842.342529	1001.229126	1849.998413	1228.781250	26.809656
842.644592	923.861450	1872.753662	1292.495850	38.848923
842.946594	983.024963	1772.630737	1178.719727	24.783857
843.248596	928.412476	1777.181763	1146.862427	25.737259
843.550598	960.269775	1733.946899	1128.658325	21.764706
843.852478	969.371887	1708.916138	1155.964600	25.230770
844.154236	1044.463989	1702.089600	1176.444214	20.069204
844.455994	978.473938	1649.752563	1085.423462	15.932211
844.757690	967.096313	1624.721802	1071.770264	15.916955
845.059326	1046.739624	1645.201538	1064.943726	3.041815
845.360962	953.443237	1588.313477	1101.352051	23.297487
845.662476	914.759338	1488.190552	1083.147949	29.365093
845.963989	957.994263	1504.119263	1149.138062	35.000008
846.265381	951.167725	1558.731689	1101.352051	24.719097
846.566772	935.239075	1515.496826	1019.433350	14.509806
846.868042	912.483826	1465.435425	1005.780212	16.872433
847.169373	973.922913	1529.150024	1124.107300	27.049181
847.470581	923.861450	1517.772339	1094.525513	28.735634
847.771729	1017.157776	1481.364014	1126.382813	23.529421
848.072815	976.198425	1513.221313	1112.729614	25.423719
848.373901	992.127075	1551.905151	1167.342163	31.300814
848.674866	926.136963	1435.853638	1105.903076	35.267849
848.975891	942.065613	1401.720825	1153.689087	46.039612
849.276794	964.820801	1510.945801	1140.035889	32.083332
849.577637	960.269775	1581.486938	1071.770264	17.948713
849.878357	1003.504700	1451.782227	1096.801025	20.812180
850.179077	955.718750	1463.159912	1115.005249	31.390142
850.479736	987.576050	1417.649414	1124.107300	31.746037
850.780396	992.127075	1415.373901	1121.831787	30.645170
851.080994	1017.157776	1499.568237	1049.015137	6.603787
851.381470	1023.984375	1440.404663	1074.045776	12.021845
851.681946	951.167725	1410.822876	1135.484863	40.099003
851.982361	1019.433350	1403.996338	1030.810913	2.958570
852.282715	955.718750	1454.057739	1108.178589	30.593601
852.583008	962.545288	1351.659302	1119.556274	40.350895
852.883240	983.024963	1403.996338	1085.423462	24.324337
853.183411	930.687988	1454.057739	1037.637451	20.434782
853.483521	1005.780212	1415.373901	1087.698975	20.000006
853.783630	951.167725	1422.200562	962.545288	2.415450
854.083679	1069.494751	1399.445313	1051.290649	-5.517221
854.383667	962.545288	1390.343262	1087.698975	29.255325
854.683533	898.830688	1442.680176	1067.219238	30.962343
854.983337	976.198425	1363.036987	1094.525513	30.588234
855.283203	969.371887	1431.302612	1110.454102	30.541855
855.582886	971.647400	1467.710938	1140.035889	33.944942
855.882629	960.269775	1413.098389	1108.178589	32.663311
856.182312	994.402588	1401.720825	1137.760376	35.195522
856.481873	1014.882263	1426.751587	1115.005249	24.309406
856.781372	1037.637451	1390.343262	1055.841675	5.161305
857.080872	987.576050	1338.006226	1039.912964	14.935048
857.380310	935.239075	1376.690063	1126.382813	43.298973
857.679688	964.820801	1335.730713	1055.841675	24.539886
857.979004	973.922913	1367.588013	1083.147949	27.745674
858.278259	935.239075	1360.761475	1019.433350	19.786097
858.577454	914.759338	1360.761475	1023.984375	24.489801
858.876648	953.443237	1365.312500	1053.566162	24.309395
859.175720	960.269775	1417.649414	1099.076538	30.348261
859.474792	973.922913	1335.730713	1033.086426	16.352194
859.773743	1017.157776	1358.485962	1062.668213	13.333337
860.072693	1014.882263	1415.373901	1053.566162	9.659102
860.371521	1012.606750	1433.578125	1083.147949	16.756769
860.670349	987.576050	1315.250977	1033.086426	13.888880
860.969116	967.096313	1481.364014	1101.352051	26.106197
861.267883	957.994263	1322.077637	1071.770264	31.249985
861.566589	946.616638	1285.669312	1035.361938	26.174488
861.865112	1014.882263	1422.200562	1033.086426	4.469272
862.163635	994.402588	1365.312500	1121.831787	34.355835
862.462158	1010.331238	1369.863525	1099.076538	24.683540
862.760620	964.820801	1394.894287	1046.739624	19.047634
863.059021	967.096313	1408.547363	1051.290649	19.072180
863.357361	1010.331238	1390.343262	1042.188477	8.383219
863.655640	1053.566162	1335.730713	1005.780212	-16.935490
863.953857	910.208313	1365.312500	1058.117188	32.500004
864.251953	973.922913	1435.853638	1058.117188	18.226603
864.550110	980.749451	1344.832764	1067.219238	23.750000
864.848206	905.657288	1340.281738	1101.352051	45.026173
865.146179	1012.606750	1347.108276	1044.463989	9.523795
865.444092	980.749451	1287.944824	1087.698975	34.814823
865.741943	985.300537	1422.200562	1062.668213	17.708324
866.039795	976.198425	1349.383789	1096.801025	32.317078
866.337646	989.851563	1351.659302	1062.668213	20.125786
866.635376	996.678101	1435.853638	1046.739624	11.398978
866.933044	969.371887	1435.853638	1155.964600	40.000004
867.230652	994.402588	1426.751587	1069.494751	17.368414
867.528198	937.514587	1333.455200	1044.463989	27.011475
867.825745	962.545288	1406.271851	1026.259888	14.358978
868.123230	983.024963	1333.455200	1080.872437	27.922098
868.420593	985.300537	1338.006226	1076.321289	25.806431
868.717896	926.136963	1449.506714	973.922913	9.130438
869.015198	953.443237	1365.312500	1021.708862	16.574587
869.312439	896.555176	1312.975464	1053.566162	37.704933
869.609619	889.728638	1374.414551	1064.943726	36.150234
869.906738	942.065613	1369.863525	992.127075	11.702128
870.203796	946.616638	1415.373901	1037.637451	19.417473
870.500854	964.820801	1376.690063	1019.433350	13.259681
870.797791	892.004150	1324.353149	1014.882263	28.421047
871.094666	973.922913	1394.894287	1049.015137	17.837845
871.391602	1010.331238	1342.557251	1080.872437	21.232895
871.688293	992.127075	1328.904175	1110.454102	35.135117
871.985107	969.371887	1358.485962	1112.729614	36.842083
872.281738	994.402588	1358.485962	1128.658325	36.875000
872.578369	998.953613	1347.108276	1117.280762	33.986950
872.874939	907.932800	1381.241089	1053.566162	30.769239
873.171509	910.208313	1388.067749	1012.606750	21.428568
873.467957	957.994263	1317.526489	992.127075	9.493672
873.764343	919.310425	1365.312500	1019.433350	22.448982
874.060669	937.514587	1326.628662	998.953613	15.789464
874.356995	953.443237	1338.006226	1060.392700	27.810650
874.653198	1005.780212	1378.965576	1058.117188	14.024391
874.949463	907.932800	1338.006226	1030.810913	28.571426
875.245544	1017.157776	1358.485962	1058.117188	12.000009
875.541626	973.922913	1417.649414	1117.280762	32.307705
875.837646	985.300537	1317.526489	1039.912964	16.438339
876.133606	960.269775	1365.312500	1051.290649	22.471920
876.429565	971.647400	1353.934937	1121.831787	39.285713
876.725403	994.402588	1317.526489	1087.698975	28.873255
877.021179	994.402588	1403.996338	1083.147949	21.666679
877.316956	962.545288	1403.996338	1064.943726	23.195875
877.612610	919.310425	1365.312500	1028.535400	24.489790
877.908203	987.576050	1526.874512	1124.107300	25.316454
878.203857	951.167725	1397.169800	1108.178589	35.204067
878.499390	953.443237	1419.924927	1067.219238	24.390240
878.794800	989.851563	1381.241089	1001.229126	2.906967
879.090271	987.576050	1372.139038	1074.045776	22.485191
879.385559	921.585938	1435.853638	1119.556274	38.495579
879.680847	998.953613	1403.996338	1099.076538	24.719103
879.976196	1005.780212	1483.639526	1144.586914	29.047607
880.271301	957.994263	1515.496826	1080.872437	22.040827
880.566467	992.127075	1556.456177	1108.178589	20.564510
880.861572	994.402588	1624.721802	1151.413574	24.909758
881.156555	869.248962	1820.416626	1165.066650	31.100477
881.451477	973.922913	2004.733887	1194.648438	21.412802
881.746460	1019.433350	2703.318604	1406.271851	22.972973
882.041321	921.585938	3431.485352	1581.486938	26.291929
882.336121	905.657288	4384.928711	1827.243164	26.487898
882.630798	932.963501	4644.337891	1934.192627	26.977314
882.925537	914.759338	4803.624512	1890.957764	25.102398
883.220215	1017.157776	4485.051270	1890.957764	25.196852
883.514771	910.208313	4068.631104	1774.906250	27.377523
883.809326	907.932800	3690.894775	1665.681274	27.228130
884.103760	942.065613	3458.791504	1620.170776	26.943943
884.398132	917.034912	3217.586426	1656.579102	32.146385
884.692505	889.728638	3106.085938	1447.231201	25.154001
884.986816	946.616638	2899.013428	1433.578125	24.941729
885.281067	1001.229126	2714.696289	1497.292725	28.950867
885.575256	1012.606750	2514.450439	1385.792114	24.848482
885.869385	1014.882263	2371.092773	1340.281738	23.993288
886.163452	989.851563	2118.509766	1276.567139	25.403225
886.457458	1019.433350	2011.560425	1240.158813	22.247702
886.751465	1046.739624	1861.375977	1212.852539	20.391050
887.045410	962.545288	1665.681274	1176.444214	30.420706
887.339233	962.545288	1647.477051	1146.862427	26.910292
887.632996	971.647400	1613.344238	1199.199463	35.460991
887.926758	960.269775	1520.047852	1119.556274	28.455294
888.220398	1042.188477	1592.864502	1133.209351	16.528933
888.514099	1012.606750	1506.394775	1126.382813	23.041479
888.807678	1010.331238	1501.843750	1055.841675	9.259263
889.101196	932.963501	1510.945801	1108.178589	30.314957
889.394653	962.545288	1508.670288	1087.698975	22.916674
889.688049	978.473938	1538.252075	994.402588	2.845529
889.981384	1010.331238	1460.884399	1071.770264	13.636354
890.274719	1017.157776	1413.098389	1103.627563	21.839081
890.567932	948.892151	1388.067749	1062.668213	25.906736
>>>>>End Processed Spectral Data<<<<<
