Jaz Data File
++++++++++++++++++++++++++++++++++++
Date: Wed Feb 07 06:53:46 2024
User: jaz
Dark Spectrum Present: Yes
Reference Spectrum Present: Yes
Processed Spectrum Present: Yes
Spectrometers: JAZA3692
Integration Time (usec): 49800 (JAZA3692)
Spectra Averaged: 1 (JAZA3692)
Boxcar Smoothing: 0 (JAZA3692)
Correct for Electrical Dark: No (JAZA3692)
Strobe/Lamp Enabled: Yes (JAZA3692)
Correct for Detector Non-linearity: No (JAZA3692)
Correct for Stray Light: No (JAZA3692)
Number of Pixels in Processed Spectrum: 2048
>>>>>Begin Processed Spectral Data<<<<<
W	D	R	S	P
190.244385	0.000000	0.000000	0.000000	0.000000
190.627136	0.000000	0.000000	0.000000	0.000000
191.009842	912.483826	932.963501	937.514587	122.222450
191.392532	962.545288	928.412476	901.106262	179.999893
191.775177	957.994263	923.861450	894.279663	186.666718
192.157791	955.718750	953.443237	844.218201	4900.018555
192.540390	928.412476	907.932800	921.585938	33.333233
192.922943	869.248962	1008.055725	926.136963	40.983593
193.305481	880.626526	978.473938	878.351013	-2.325573
193.687958	944.341125	946.616638	971.647400	1200.005371
194.070419	944.341125	971.647400	885.177612	-216.666367
194.452866	955.718750	967.096313	910.208313	-400.001617
194.835251	969.371887	951.167725	930.687988	212.500290
195.217621	978.473938	953.443237	928.412476	200.000244
195.599960	948.892151	1017.157776	917.034912	-46.666588
195.982254	955.718750	914.759338	978.473938	-55.555458
196.364517	905.657288	971.647400	1005.780212	151.724136
196.746750	1008.055725	944.341125	967.096313	64.285759
197.128952	976.198425	948.892151	946.616638	108.333298
197.511139	953.443237	935.239075	901.106262	287.500031
197.893280	932.963501	1033.086426	942.065613	9.090937
198.275391	939.790100	901.106262	937.514587	5.882334
198.657471	930.687988	980.749451	976.198425	90.909126
199.039520	964.820801	955.718750	976.198425	-125.000671
199.421539	960.269775	946.616638	948.892151	83.333405
199.803513	914.759338	960.269775	957.994263	95.000023
200.185471	948.892151	1053.566162	937.514587	-10.869521
200.567383	962.545288	1030.810913	957.994263	-6.666643
200.949265	1005.780212	935.239075	917.034912	125.806450
201.331131	964.820801	928.412476	935.239075	81.249893
201.712967	1080.872437	944.341125	944.341125	100.000000
202.094742	873.799988	1030.810913	987.576050	72.463783
202.476517	885.177612	1001.229126	946.616638	52.941166
202.858231	928.412476	951.167725	923.861450	-19.999893
203.239944	942.065613	985.300537	951.167725	21.052683
203.621582	946.616638	957.994263	917.034912	-259.999146
204.003235	907.932800	923.861450	917.034912	57.143021
204.384827	903.381775	985.300537	901.106262	-2.777767
204.766388	928.412476	935.239075	896.555176	-466.664276
205.147934	1003.504700	955.718750	907.932800	200.000000
205.529449	980.749451	957.994263	866.973450	500.000275
205.910904	896.555176	964.820801	921.585938	36.666714
206.292343	962.545288	985.300537	919.310425	-189.999512
206.673767	964.820801	1012.606750	921.585938	-90.476097
207.055115	892.004150	1001.229126	923.861450	29.166681
207.436462	937.514587	1001.229126	860.146851	-121.428703
207.817780	942.065613	944.341125	910.208313	-1400.005371
208.199051	930.687988	1042.188477	939.790100	8.163293
208.580307	887.453125	973.922913	946.616638	68.421021
208.961517	901.106262	1005.780212	835.116150	-63.043491
209.342712	948.892151	944.341125	873.799988	1650.005371
209.723846	944.341125	932.963501	953.443237	-80.000107
210.104965	914.759338	930.687988	912.483826	-14.285660
210.486069	917.034912	1021.708862	914.759338	-2.173964
210.867111	871.524475	942.065613	1003.504700	187.096817
211.248123	973.922913	1069.494751	871.524475	-107.142899
211.629120	937.514587	976.198425	887.453125	-129.411835
212.010071	946.616638	967.096313	957.994263	55.555687
212.390991	994.402588	930.687988	855.595825	217.857071
212.771881	907.932800	980.749451	926.136963	25.000000
213.152756	989.851563	953.443237	932.963501	156.250153
213.533569	992.127075	983.024963	953.443237	424.998505
213.914368	1008.055725	992.127075	930.687988	485.714355
214.295135	962.545288	1017.157776	998.953613	66.666664
214.675858	994.402588	1026.259888	887.453125	-335.714142
215.056549	928.412476	1033.086426	971.647400	41.304379
215.437225	926.136963	1026.259888	1010.331238	84.090904
215.817841	951.167725	976.198425	928.412476	-90.909355
216.198441	873.799988	1055.841675	967.096313	51.249977
216.579025	983.024963	960.269775	923.861450	260.000122
216.959549	932.963501	973.922913	969.371887	88.888939
217.340057	967.096313	1008.055725	935.239075	-77.777580
217.720535	953.443237	917.034912	996.678101	-118.749939
218.100967	926.136963	1010.331238	930.687988	5.405386
218.481369	951.167725	910.208313	960.269775	-22.222122
218.861740	996.678101	910.208313	951.167725	52.631535
219.242065	994.402588	996.678101	907.932800	-3800.013428
219.622391	926.136963	992.127075	912.483826	-20.689671
220.002670	946.616638	951.167725	962.545288	349.996643
220.382919	951.167725	992.127075	919.310425	-77.777847
220.763123	983.024963	953.443237	948.892151	115.384789
221.143295	978.473938	962.545288	932.963501	285.714355
221.523453	948.892151	957.994263	857.871338	-999.996643
221.903549	955.718750	1003.504700	939.790100	-33.333332
222.283630	910.208313	1055.841675	914.759338	3.124988
222.663696	919.310425	1042.188477	932.963501	11.111078
223.043701	948.892151	1030.810913	928.412476	-24.999981
223.423676	964.820801	1058.117188	898.830688	-70.731689
223.803635	1033.086426	1042.188477	923.861450	-1200.004028
224.183548	1008.055725	998.953613	878.351013	1424.995850
224.563431	951.167725	987.576050	967.096313	43.749855
224.943283	960.269775	1026.259888	957.994263	-3.448263
225.323105	873.799988	1069.494751	846.493713	-13.953503
225.702881	885.177612	978.473938	932.963501	51.219475
226.082642	910.208313	1042.188477	851.044800	-44.827579
226.462357	903.381775	1028.535400	951.167725	38.181835
226.842041	955.718750	1037.637451	942.065613	-16.666691
227.221695	892.004150	1019.433350	903.381775	8.928585
227.601318	987.576050	1058.117188	937.514587	-70.967758
227.980911	930.687988	1044.463989	907.932800	-19.999989
228.360474	917.034912	1012.606750	935.239075	19.047623
228.739990	962.545288	1133.209351	866.973450	-55.999977
229.119476	905.657288	1149.138062	957.994263	21.495321
229.498932	821.463013	1149.138062	951.167725	39.583336
229.878372	885.177612	1210.577026	985.300537	30.769239
230.257736	901.106262	1240.158813	955.718750	16.107382
230.637115	944.341125	1233.332275	892.004150	-18.110235
231.016449	935.239075	1142.311401	919.310425	-7.692312
231.395737	871.524475	1133.209351	910.208313	14.782603
231.774994	898.830688	1183.270874	876.075500	-7.999990
232.154221	926.136963	1153.689087	937.514587	5.000008
232.533417	939.790100	1117.280762	905.657288	-19.230764
232.912582	921.585938	1133.209351	937.514587	7.526885
233.291702	935.239075	1121.831787	885.177612	-26.829269
233.670792	944.341125	1185.546387	942.065613	-0.943393
234.049866	942.065613	1126.382813	889.728638	-28.395058
234.428894	955.718750	1149.138062	901.106262	-28.235281
234.807892	951.167725	1121.831787	903.381775	-28.000008
235.186874	944.341125	1128.658325	942.065613	-1.234563
235.565781	882.902100	1151.413574	887.453125	1.694909
235.944687	1019.433350	1149.138062	978.473938	-31.578970
236.323547	967.096313	1199.199463	939.790100	-11.764688
236.702377	955.718750	1199.199463	930.687988	-10.280388
237.081177	985.300537	1169.617676	846.493713	-75.308693
237.459946	932.963501	1274.291626	932.963501	0.000000
237.838669	953.443237	1210.577026	948.892151	-1.769929
238.217361	894.279663	1151.413574	901.106262	2.654881
238.596039	948.892151	1083.147949	967.096313	13.559312
238.974670	914.759338	1174.168701	923.861450	3.508783
239.353271	905.657288	1169.617676	1019.433350	43.103462
239.731842	957.994263	1140.035889	905.657288	-28.750004
240.110367	914.759338	1240.158813	926.136963	3.496510
240.488876	896.555176	1192.372925	978.473938	27.692308
240.867340	971.647400	1244.709839	978.473938	2.499992
241.245789	901.106262	1303.873413	928.412476	6.779653
241.624176	935.239075	1376.690063	917.034912	-4.123711
242.002548	932.963501	1281.118164	903.381775	-8.496719
242.380890	887.453125	1401.720825	980.749451	18.141588
242.759186	957.994263	1529.150024	962.545288	0.796810
243.137451	944.341125	1622.446289	1001.229126	8.389259
243.515686	939.790100	1670.232300	939.790100	0.000000
243.893890	928.412476	1683.885376	955.718750	3.614461
244.272049	869.248962	1665.681274	937.514587	8.571428
244.650192	1026.259888	1590.588989	964.820801	-10.887102
245.028290	932.963501	1590.588989	994.402588	9.342565
245.406357	928.412476	1510.945801	1076.321289	25.390619
245.784393	912.483826	1497.292725	969.371887	9.727633
246.162384	973.922913	1433.578125	1028.535400	11.881186
246.540359	889.728638	1549.629639	992.127075	15.517242
246.918289	955.718750	1620.170776	964.820801	1.369858
247.296204	964.820801	1795.385864	1035.361938	8.493150
247.674057	1005.780212	1995.631714	1049.015137	4.367819
248.051895	996.678101	2339.235352	917.034912	-5.932200
248.429703	919.310425	2359.715088	983.024963	4.423378
248.807465	907.932800	2325.582275	989.851563	5.778492
249.185196	1001.229126	2093.479248	953.443237	-4.374995
249.562897	946.616638	1959.223389	892.004150	-5.393257
249.940567	889.728638	1884.131226	1042.188477	15.331802
250.318192	976.198425	1642.926025	914.759338	-9.215021
250.695801	960.269775	1667.956787	1039.912964	11.254013
251.073349	1019.433350	1661.130127	921.585938	-15.248232
251.450882	992.127075	1567.833862	1030.810913	6.719365
251.828400	985.300537	1563.282837	978.473938	-1.181109
252.205872	914.759338	1613.344238	980.749451	9.446255
252.583313	905.657288	1633.823975	953.443237	6.562501
252.960693	978.473938	1733.946899	894.279663	-11.144578
253.338074	983.024963	1768.079712	1030.810913	6.086957
253.715408	951.167725	1722.569214	976.198425	3.244834
254.092682	928.412476	1720.293701	914.759338	-1.724140
254.469955	894.279663	1570.109375	992.127075	14.478116
254.847198	930.687988	1658.854614	998.953613	9.375001
255.224365	866.973450	1565.558350	1012.606750	20.846901
255.601563	919.310425	1535.976563	969.371887	8.118082
255.978683	1005.780212	1576.935913	1010.331238	0.796810
256.355743	896.555176	1576.935913	964.820801	10.033444
256.732819	937.514587	1526.874512	889.728638	-8.108109
257.109894	894.279663	1586.037964	994.402588	14.473686
257.486877	932.963501	1558.731689	928.412476	-0.727270
257.863831	887.453125	1688.436401	967.096313	9.943177
258.240753	1008.055725	1818.141113	937.514587	-8.707865
258.617645	914.759338	1788.559326	960.269775	5.208336
258.994507	967.096313	1797.661377	948.892151	-2.191780
259.371307	964.820801	1984.254150	983.024963	1.785714
259.748108	971.647400	2209.530762	964.820801	-0.551474
260.124878	951.167725	2364.266113	1039.912964	6.280188
260.501617	919.310425	2555.409912	1049.015137	7.927679
260.878296	946.616638	2846.676514	1046.739624	5.269465
261.254944	960.269775	2983.207764	1012.606750	2.587177
261.631561	851.044800	2924.044189	1014.882263	7.903401
262.008179	962.545288	2555.409912	1003.504700	2.571431
262.384735	928.412476	2252.765625	1053.566162	9.450174
262.761261	905.657288	2025.213501	921.585938	1.422765
263.137695	873.799988	1952.396851	1037.637451	15.189869
263.514191	937.514587	1986.529663	939.790100	0.216919
263.890594	976.198425	1934.192627	948.892151	-2.850359
264.267029	957.994263	1925.090576	937.514587	-2.117646
264.643341	898.830688	1868.202637	996.678101	10.093898
265.019653	953.443237	1790.834839	992.127075	4.619564
265.395935	926.136963	1865.927002	987.576050	6.537533
265.772217	953.443237	1815.865601	1003.504700	5.804750
266.148407	989.851563	1897.784302	946.616638	-4.761908
266.524597	976.198425	1884.131226	1023.984375	5.263159
266.900726	939.790100	2088.927979	962.545288	1.980196
267.276855	937.514587	2136.714111	983.024963	3.795063
267.652924	992.127075	2198.153076	957.994263	-2.830189
268.028992	1005.780212	2191.326416	978.473938	-2.303265
268.404999	996.678101	2204.979736	914.759338	-6.779662
268.781006	935.239075	2198.153076	1001.229126	5.225221
269.156921	946.616638	2195.877686	1023.984375	6.193080
269.532837	967.096313	2245.938965	1026.259888	4.626337
269.908661	901.106262	2209.530762	1060.392700	12.173911
270.284546	901.106262	2093.479248	1014.882263	9.541981
270.660339	976.198425	2141.265137	914.759338	-5.273440
271.036133	976.198425	2195.877686	1008.055725	2.611941
271.411835	885.177612	2195.877686	969.371887	6.423611
271.787537	967.096313	2407.500977	983.024963	1.105845
272.163239	978.473938	2748.829102	992.127075	0.771209
272.538849	939.790100	2796.614990	994.402588	2.941176
272.914459	946.616638	2848.952148	1069.494751	6.459330
273.290070	864.697876	2673.737061	980.749451	6.415094
273.665588	960.269775	2607.746826	1023.984375	3.867404
274.041046	960.269775	2562.236328	1008.055725	2.982955
274.416565	942.065613	2466.664551	1035.361938	6.119401
274.791962	953.443237	2523.552490	1010.331238	3.623187
275.167389	905.657288	2421.154053	1051.290649	9.609612
275.542755	930.687988	2255.041016	1049.015137	8.934713
275.918060	930.687988	2302.827148	1055.841675	9.121063
276.293365	948.892151	2402.949951	1062.668213	7.824727
276.668640	976.198425	2437.082764	976.198425	0.000000
277.043854	955.718750	2400.674561	989.851563	2.362205
277.419037	919.310425	2523.552490	1026.259888	6.666666
277.794189	928.412476	2544.032227	996.678101	4.225352
278.169312	983.024963	2466.664551	1001.229126	1.226994
278.544373	987.576050	2532.654541	942.065613	-2.945510
278.919464	1028.535400	2437.082764	1005.780212	-1.615507
279.294464	976.198425	2437.082764	996.678101	1.401868
279.669464	928.412476	2450.735840	969.371887	2.690586
280.044403	969.371887	2311.929199	980.749451	0.847455
280.419312	985.300537	2439.358398	1060.392700	5.164318
280.794189	998.953613	2521.277100	1023.984375	1.644247
281.169037	1030.810913	2603.195801	1035.361938	0.289435
281.543854	935.239075	2644.155273	962.545288	1.597867
281.918671	960.269775	2701.043213	1019.433350	3.398695
282.293365	955.718750	2853.503174	1064.943726	5.755394
282.668091	980.749451	3012.789551	1014.882263	1.679731
283.042786	957.994263	2980.932129	1053.566162	4.724411
283.417419	973.922913	3112.912354	1039.912964	3.085104
283.792053	923.861450	3008.238525	1044.463989	5.786024
284.166595	989.851563	2974.105713	1033.086426	2.178897
284.541138	921.585938	2782.961914	1044.463989	6.601463
284.915619	937.514587	2835.298828	1039.912964	5.395681
285.290100	898.830688	2935.421875	980.749451	4.022347
285.664520	983.024963	3015.064941	1042.188477	2.911533
286.038940	935.239075	3035.544678	1021.708862	4.117010
286.413300	932.963501	3231.239502	994.402588	2.673269
286.787628	944.341125	3231.239502	1096.801025	6.666667
287.161896	964.820801	3345.015625	1074.045776	4.588909
287.536194	930.687988	3317.709229	1058.117188	5.338419
287.910400	937.514587	3231.239502	1051.290649	4.960319
288.284607	939.790100	3060.575439	1085.423462	6.866954
288.658752	878.351013	2978.656738	1030.810913	7.258939
289.032867	926.136963	2869.431641	1089.974487	8.430915
289.406921	960.269775	3005.962891	1108.178589	7.230254
289.781006	960.269775	3010.513916	1099.076538	6.770255
290.154999	964.820801	2921.768799	1012.606750	2.441861
290.529022	953.443237	3110.636963	1049.015137	4.430381
290.902954	928.412476	3438.312012	1064.943726	5.439710
291.276825	971.647400	3392.801514	1119.556274	6.109024
291.650757	930.687988	3370.046387	1099.076538	6.902985
292.024597	948.892151	3253.994629	1058.117188	4.738402
292.398407	971.647400	3217.586426	1140.035889	7.497465
292.772156	914.759338	3267.647949	1103.627563	8.027079
293.145905	946.616638	3056.024414	1008.055725	2.912623
293.519592	962.545288	2983.207764	1058.117188	4.729731
293.893280	942.065613	2971.830078	1035.361938	4.596412
294.266907	976.198425	3108.361328	1083.147949	5.016011
294.640533	937.514587	3372.321777	1074.045776	5.607474
295.014069	912.483826	3445.138428	1046.739624	5.300992
295.387604	910.208313	3495.199951	1083.147949	6.690143
295.761078	898.830688	3586.220703	1039.912964	5.249788
296.134552	917.034912	3620.353516	1049.015137	4.882156
296.507996	882.902100	3704.547852	1089.974487	7.338710
296.881378	921.585938	3743.231689	1146.862427	7.983869
297.254730	921.585938	3736.405273	1096.801025	6.224737
297.628021	964.820801	3982.161377	1130.933838	5.505280
298.001282	953.443237	4161.927734	1137.760376	5.744679
298.374573	910.208313	4032.222900	1126.382813	6.924199
298.747803	953.443237	4171.029785	1183.270874	7.142858
299.121002	885.177612	3811.497314	1053.566162	5.754277
299.494141	1014.882263	3652.210938	1042.188477	1.035374
299.867188	944.341125	3463.342773	1142.311401	7.859076
300.240265	935.239075	3483.822266	1117.280762	7.142858
300.613312	914.759338	3351.842041	1030.810913	4.761905
300.986328	919.310425	3288.127441	1035.361938	4.899134
301.359314	976.198425	3340.464600	1049.015137	3.079886
301.732239	898.830688	3326.811523	1096.801025	8.153702
302.105103	1053.566162	3499.750977	1099.076538	1.860464
302.477997	976.198425	3440.587402	1137.760376	6.555862
302.850830	944.341125	3381.423828	1067.219238	5.042017
303.223602	946.616638	3228.964111	1087.698975	6.181458
303.596375	923.861450	3144.769775	1076.321289	6.864752
303.969116	894.279663	3160.698486	1023.984375	5.722892
304.341766	957.994263	3112.912354	1078.596802	5.596619
304.714478	923.861450	3108.361328	1030.810913	4.895833
305.087067	910.208313	3119.739014	1037.637451	5.767249
305.459656	898.830688	3208.484375	1023.984375	5.418721
305.832214	841.942688	3074.228516	1033.086426	8.562691
306.204681	964.820801	3017.340576	1092.250000	6.208427
306.577148	935.239075	3056.024414	1108.178589	8.154503
306.949646	930.687988	3242.617188	1105.903076	7.578739
307.322021	912.483826	3110.636963	1080.872437	7.660459
307.694397	994.402588	3128.841064	1060.392700	3.091685
308.066742	923.861450	3158.422852	1042.188477	5.295313
308.439026	928.412476	3288.127441	1033.086426	4.435873
308.811279	926.136963	3315.433838	1149.138062	9.333336
309.183502	964.820801	3397.352539	1135.484863	7.015903
309.555695	917.034912	3634.006836	1096.801025	6.616414
309.927887	980.749451	3606.700439	1121.831787	5.372619
310.299988	983.024963	3513.404053	1121.831787	5.485614
310.672058	892.004150	3670.415039	1014.882263	4.422604
311.044128	894.279663	3677.241699	1146.862427	9.076041
311.416168	969.371887	3611.251465	1112.729614	5.426353
311.788147	917.034912	3586.220703	1080.872437	6.138109
312.160065	1014.882263	3775.089111	1033.086426	0.659522
312.531982	983.024963	3531.608398	1115.005249	5.178574
312.903870	926.136963	3542.985840	1099.076538	6.608696
313.275696	907.932800	3429.209961	1085.423462	7.039712
313.647491	992.127075	3381.423828	1105.903076	4.761903
314.019318	964.820801	3360.944336	1083.147949	4.938274
314.391022	1012.606750	3340.464600	1035.361938	0.977516
314.762726	939.790100	3451.965088	1064.943726	4.981883
315.134369	946.616638	3533.883789	1042.188477	3.693930
315.505981	926.136963	3738.680664	1085.423462	5.663432
315.877594	948.892151	3779.640137	1151.413574	7.154343
316.249146	992.127075	3611.251465	1126.382813	5.125978
316.620636	978.473938	3426.934326	1058.117188	3.252789
316.992157	1008.055725	3381.423828	1074.045776	2.780439
317.363586	983.024963	3370.046387	1053.566162	2.955198
317.735016	937.514587	3306.331787	1108.178589	7.204608
318.106354	992.127075	3363.219727	1026.259888	1.439539
318.477722	912.483826	3356.393066	1005.780212	3.817506
318.849060	912.483826	3347.291016	1092.250000	7.383179
319.220306	969.371887	3374.597412	1078.596802	4.541151
319.591522	921.585938	3456.516113	1105.903076	7.271093
319.962738	942.065613	3495.199951	1044.463989	4.010693
320.333923	932.963501	3529.332764	1089.974487	6.047329
320.705017	948.892151	3556.638916	998.953613	1.919721
321.076111	903.381775	3476.995850	1017.157776	4.420865
321.447144	942.065613	3340.464600	1071.770264	5.407968
321.818176	892.004150	3203.933350	1053.566162	6.988190
322.189178	969.371887	3272.198975	980.749451	0.494069
322.560120	919.310425	3385.974854	1012.606750	3.782287
322.931030	873.799988	3279.025391	1080.872437	8.609274
323.301910	894.279663	3454.240479	1112.729614	8.533332
323.672729	932.963501	3679.517090	1074.045776	5.136702
324.043549	926.136963	3706.823486	1126.382813	7.201310
324.414337	919.310425	3902.518066	1108.178589	6.331043
324.785095	939.790100	4211.988770	1137.760376	6.050069
325.155792	955.718750	4180.131836	1021.708862	2.046577
325.526428	983.024963	4034.498291	1094.525513	3.653991
325.897034	932.963501	4045.875977	1092.250000	5.116960
326.267670	937.514587	3979.885986	1099.076538	5.310396
326.638184	928.412476	3952.579590	1137.760376	6.922498
327.008728	951.167725	4068.631104	1140.035889	6.058393
327.379211	935.239075	4148.274414	1103.627563	5.240792
327.749634	907.932800	4041.324951	1076.321289	5.374000
328.120026	910.208313	3731.854004	1117.280762	7.338712
328.490417	907.932800	3811.497314	1155.964600	8.542321
328.860748	962.545288	3768.262451	1108.178589	5.190591
329.231079	971.647400	3743.231689	1092.250000	4.351396
329.601318	912.483826	3663.588379	1069.494751	5.707196
329.971558	951.167725	3684.068115	1115.005249	5.995005
330.341736	903.381775	3772.813477	1112.729614	7.295794
330.711914	901.106262	3693.170166	1124.107300	7.986960
331.082062	944.341125	3818.323975	1046.739624	3.562947
331.452148	939.790100	3715.925537	1137.760376	7.131146
331.822174	969.371887	3772.813477	1046.739624	2.759741
332.192200	973.922913	3895.691650	1149.138062	5.996886
332.562134	903.381775	3745.507324	1146.862427	8.566851
332.932129	994.402588	3934.375488	1087.698975	3.173376
333.302063	978.473938	4084.559814	1085.423462	3.443225
333.671906	1021.708862	4209.713379	1196.923950	5.496074
334.041718	928.412476	4207.437988	1180.995239	7.702983
334.411499	937.514587	4257.499512	1121.831787	5.551748
334.781281	939.790100	4196.060547	1142.311401	6.219425
335.151001	953.443237	4305.285156	1256.087524	9.029194
335.520721	1014.882263	4198.335938	1155.964600	4.431738
335.890350	921.585938	4086.835449	1183.270874	8.267435
336.259979	880.626526	4168.753906	1135.484863	7.750865
336.629547	955.718750	4152.825684	1101.352051	4.555159
336.999084	967.096313	4223.366699	1055.841675	2.725368
337.368622	953.443237	4027.671875	1196.923950	7.920059
337.738098	851.044800	4105.039551	1249.260864	12.237761
338.107513	885.177612	4198.335938	1272.016113	11.675823
338.476898	894.279663	4177.855957	1183.270874	8.801112
338.846252	951.167725	4148.274414	1206.026001	7.971529
339.215576	973.922913	4414.510254	1167.342163	5.621693
339.584869	896.555176	4293.907715	1167.342163	7.970530
339.954132	1044.463989	4205.162598	1233.332275	5.975523
340.323334	928.412476	4134.621094	1174.168701	7.665011
340.692505	894.279663	3948.028564	1151.413574	8.420270
341.061646	953.443237	3857.007813	1174.168701	7.601879
341.430786	894.279663	4073.182129	1258.363037	11.453116
341.799896	983.024963	4275.703613	1190.097412	6.288875
342.168915	923.861450	4218.815430	1160.515625	7.182321
342.537903	937.514587	4225.642090	1281.118164	10.449825
342.906830	948.892151	4273.428223	1212.852539	7.939766
343.275757	992.127075	4421.336914	1246.985352	7.431982
343.644684	969.371887	4537.388672	1278.842651	8.673467
344.013550	944.341125	4541.939453	1171.893188	6.325110
344.382355	960.269775	4628.409180	1158.240112	5.397023
344.751129	985.300537	4894.645020	1224.230225	6.111758
345.119873	887.453125	4990.217285	1240.158813	8.596782
345.488586	1012.606750	5217.769043	1267.465088	6.060607
345.857269	992.127075	5415.739746	1335.730713	7.767489
346.225891	926.136963	5443.045898	1335.730713	9.068009
346.594482	955.718750	5484.005371	1267.465088	6.884421
346.963043	907.932800	5374.780273	1317.526489	9.169637
347.331543	885.177612	5208.666992	1235.607788	8.105263
347.700043	942.065613	5058.482910	1267.465088	7.904919
348.068512	992.127075	5024.350098	1233.332275	5.981941
348.436951	878.351013	4887.818848	1301.597900	10.556187
348.805328	1005.780212	4628.409180	1180.995239	4.836682
349.173645	957.994263	4612.480469	1221.954712	7.222915
349.541931	946.616638	4592.000977	1269.740601	8.863920
349.910217	912.483826	4783.144531	1196.923950	7.348619
350.278473	939.790100	4940.155762	1274.291626	8.361773
350.646667	901.106262	4935.604492	1267.465088	9.080654
351.014801	932.963501	5019.798828	1246.985352	7.683741
351.382935	1012.606750	4880.992188	1196.923950	4.764706
351.751007	964.820801	4965.186523	1224.230225	6.484643
352.119049	914.759338	4962.910645	1253.812012	8.375494
352.487091	957.994263	4987.941406	1262.914063	7.566347
352.855072	948.892151	5063.033691	1235.607788	6.969027
353.222992	957.994263	5154.054688	1226.505737	6.399133
353.590881	953.443237	5160.881348	1208.301514	6.057327
353.958740	912.483826	5449.872559	1215.128052	6.670009
354.326599	887.453125	5481.729492	1338.006226	9.806835
354.694397	882.902100	5809.404785	1253.812012	7.528868
355.062134	912.483826	5784.374023	1344.832764	8.874357
355.429840	878.351013	5707.006348	1226.505737	7.210180
355.797516	946.616638	5970.966797	1353.934937	8.106885
356.165192	896.555176	6157.559082	1299.322388	7.655710
356.532776	892.004150	6303.192383	1319.802124	7.905804
356.900360	967.096313	6435.172852	1394.894287	7.823555
357.267883	976.198425	6426.070801	1333.455200	6.555324
357.635376	978.473938	6906.205566	1390.343262	6.948178
358.002808	960.269775	7277.115723	1410.822876	7.132565
358.370270	964.820801	7568.382324	1413.098389	6.788422
358.737640	937.514587	7561.555664	1385.792114	6.767433
359.105011	905.657288	7302.146484	1340.281738	6.794734
359.472321	926.136963	6967.644531	1435.853638	8.436912
359.839569	978.473938	6837.939941	1306.148926	5.592233
360.206787	921.585938	6915.307617	1376.690063	7.593014
360.574005	907.932800	7170.166016	1415.373901	8.103197
360.941193	873.799988	7390.891602	1333.455200	7.053072
361.308319	887.453125	8055.343750	1451.782227	7.873015
361.675415	944.341125	8335.232422	1435.853638	6.650247
362.042450	932.963501	8831.295898	1485.915039	7.000864
362.409424	971.647400	9766.535156	1561.007324	6.701165
362.776428	898.830688	9736.953125	1538.252075	7.234810
363.143402	901.106262	9163.522461	1419.924927	6.279261
363.510284	978.473938	8594.641602	1433.578125	5.975502
363.877136	971.647400	7727.668457	1390.343262	6.197373
364.243988	937.514587	7384.064941	1372.139038	6.741970
364.610779	894.279663	6935.787598	1326.628662	7.156310
364.977539	905.657288	6712.786133	1260.638550	6.112853
365.344269	983.024963	6717.337402	1171.893188	3.293651
365.710938	926.136963	6544.397949	1183.270874	4.576753
366.077576	937.514587	6505.713867	1256.087524	5.721292
366.444183	866.973450	6355.529785	1328.904175	8.416252
366.810760	1001.229126	6332.774414	1224.230225	4.182673
367.177277	998.953613	6530.744629	1312.975464	5.676676
367.543823	894.279663	6564.877441	1265.189575	6.540932
367.910248	930.687988	6469.305664	1283.393677	6.368118
368.276642	928.412476	6328.223145	1169.617676	4.466920
368.643036	939.790100	6305.468262	1228.781250	5.385920
369.009399	885.177612	6214.447266	1297.046875	7.728437
369.375671	892.004150	6000.548340	1274.291626	7.483296
369.741974	951.167725	6168.937012	1233.332275	5.407762
370.108215	923.861450	6089.293457	1203.750488	5.418502
370.474396	910.208313	6066.538574	1201.474976	5.648720
370.840546	932.963501	5993.721680	1201.474976	5.305756
371.206665	994.402588	6200.793945	1267.465088	5.244755
371.572784	955.718750	6289.539551	1226.505737	5.076792
371.938843	935.239075	6485.234375	1199.199463	4.756047
372.304840	905.657288	6705.959961	1167.342163	4.511573
372.670807	957.994263	6305.468262	1158.240112	3.744681
373.036713	1017.157776	6530.744629	1208.301514	3.466777
373.402649	930.687988	6441.999512	1187.821899	4.665566
373.768524	942.065613	6360.080566	1260.638550	5.879883
374.134308	987.576050	6430.621582	1153.689087	3.051840
374.500122	944.341125	6487.509766	1212.852539	4.844006
374.865875	962.545288	6521.642578	1105.903076	2.578796
375.231567	962.545288	6482.958984	1240.158813	5.028854
375.597260	905.657288	6721.888672	1290.220337	6.611894
375.962891	946.616638	6874.348145	1240.158813	4.952015
376.328461	932.963501	6919.858887	1187.821899	4.256938
376.694031	960.269775	7229.329590	1224.230225	4.210527
377.059540	887.453125	7563.831055	1249.260864	5.419222
377.425049	964.820801	7793.658691	1165.066650	2.932356
377.790497	978.473938	8005.282227	1251.536499	3.886011
378.155945	960.269775	8260.140625	1210.577026	3.428927
378.521301	873.799988	8112.231445	1187.821899	4.338259
378.886597	901.106262	7937.016602	1283.393677	5.433375
379.251892	957.994263	7613.892578	1224.230225	4.000000
379.617157	976.198425	7299.870605	1158.240112	2.878734
379.982422	978.473938	7047.288086	1180.995239	3.337082
380.347595	973.922913	7104.175781	1117.280762	2.338531
380.712738	903.381775	7076.869629	1119.556274	3.501659
381.077820	985.300537	7258.911133	1176.444214	3.046789
381.442902	898.830688	7022.257324	1144.586914	4.013377
381.807953	989.851563	7124.655762	1158.240112	2.744807
382.172974	928.412476	6958.542480	1151.413574	3.698114
382.537933	939.790100	6953.991699	1201.474976	4.351116
382.902832	898.830688	6899.378906	1110.454102	3.526735
383.267700	914.759338	7256.635742	1153.689087	3.767493
383.632538	944.341125	7308.972656	1149.138062	3.217735
383.997345	948.892151	7479.636719	1176.444214	3.484320
384.362152	953.443237	7893.781738	1183.270874	3.311476
384.726898	930.687988	7588.861816	1140.035889	3.144224
385.091553	953.443237	7745.873047	1192.372925	3.517588
385.456238	973.922913	7638.923340	1292.495850	4.779788
385.820862	987.576050	7750.423828	1219.679199	3.432033
386.185425	889.728638	7579.759766	1176.444214	4.285714
386.549988	1005.780212	7736.770508	1246.985352	3.583502
386.914490	1005.780212	7921.087891	1117.280762	1.612373
387.278961	1010.331238	8046.241699	1240.158813	3.266494
387.643372	857.871338	7987.078125	1083.147949	3.159911
388.007782	912.483826	8053.068359	1178.719727	3.728489
388.372101	930.687988	8196.425781	1194.648438	3.632948
388.736450	983.024963	8089.476563	1185.546387	2.849825
389.100739	971.647400	8175.946289	1130.933838	2.210992
389.464966	892.004150	7996.180176	1130.933838	3.363229
389.829163	841.942688	7802.760742	1194.648438	5.067016
390.193329	912.483826	7714.015625	1219.679199	4.516562
390.557495	969.371887	7896.057129	1180.995239	3.055189
390.921570	1010.331238	8134.986816	1185.546387	2.459279
391.285614	937.514587	8200.976563	1149.138062	2.913535
391.649597	873.799988	8842.673828	1142.311401	3.369503
392.013550	944.341125	9313.707031	1176.444214	2.773246
392.377502	978.473938	9325.083984	1192.372925	2.562705
392.741455	964.820801	9393.349609	1226.505737	3.104752
393.105316	898.830688	9432.034180	1221.954712	3.786667
393.469086	983.024963	9020.164063	1146.862427	2.038505
393.832886	942.065613	8824.469727	1160.515625	2.771363
394.196655	973.922913	9006.511719	1092.250000	1.473088
394.560333	853.320313	9195.379883	1190.097412	4.037098
394.924042	878.351013	9391.074219	1210.577026	3.902699
395.287659	948.892151	9290.951172	1076.321289	1.527550
395.651245	1001.229126	9409.278320	1187.821899	2.219216
396.014771	898.830688	8956.450195	1185.546387	3.558318
396.378296	928.412476	8460.386719	1206.026001	3.685800
396.741791	921.585938	8303.375000	1165.066650	3.298397
397.105255	930.687988	8353.436523	1149.138062	2.942981
397.468628	983.024963	8155.466797	1128.658325	2.030457
397.832001	955.718750	8128.160156	1117.280762	2.252539
398.195313	951.167725	8132.711426	1162.791138	2.946768
398.558624	937.514587	8353.436523	1201.474976	3.559374
398.921844	917.034912	8266.966797	1185.546387	3.653251
399.285095	903.381775	8419.426758	1096.801025	2.573418
399.648254	887.453125	8458.110352	1149.138062	3.456568
400.011383	912.483826	8346.610352	1135.484863	2.999694
400.374451	912.483826	8119.058105	1155.964600	3.378592
400.737549	939.790100	8567.335938	1110.454102	2.237469
401.100586	882.902100	8018.935547	1112.729614	3.220662
401.463562	921.585938	8246.487305	1146.862427	3.075488
401.826508	928.412476	8451.284180	1117.280762	2.510588
402.189392	983.024963	8137.262207	1187.821899	2.862596
402.552246	971.647400	8330.681641	1060.392700	1.205937
402.915070	855.595825	8367.089844	1194.648438	4.513784
403.277893	948.892151	8756.204102	1094.525513	1.865346
403.640656	985.300537	8758.479492	1192.372925	2.663934
404.003326	907.932800	9031.541992	1151.413574	2.997200
404.366028	946.616638	9131.665039	1174.168701	2.780094
404.728699	955.718750	9582.217773	1183.270874	2.637827
405.091248	1003.504700	9750.606445	1228.781250	2.575442
405.453857	942.065613	9789.290039	1285.669312	3.883746
405.816345	983.024963	9832.525391	1178.719727	2.211365
406.178833	882.902100	9834.800781	1194.648438	3.482461
406.541260	1008.055725	9841.627930	1158.240112	1.700155
406.903687	992.127075	9680.065430	1142.311401	1.728653
407.266052	967.096313	9213.583984	1144.586914	2.152318
407.628387	1028.535400	9163.522461	1196.923950	2.069930
407.990662	955.718750	9170.348633	1105.903076	1.828254
408.352905	896.555176	9163.522461	1105.903076	2.532342
408.715118	914.759338	9256.818359	1089.974487	2.100383
409.077332	937.514587	8901.836914	1055.841675	1.485714
409.439484	914.759338	9197.655273	1153.689087	2.884616
409.801575	898.830688	9347.839844	1126.382813	2.693240
410.163605	980.749451	9466.166992	1171.893188	2.252614
410.525635	989.851563	9618.625977	1149.138062	1.845992
410.887604	912.483826	9702.820313	1099.076538	2.122703
411.249573	892.004150	9655.035156	1221.954712	3.765256
411.611481	948.892151	9689.167969	1130.933838	2.082791
411.973328	921.585938	9347.839844	1194.648438	3.240616
412.335144	976.198425	9457.064453	1119.556274	1.690368
412.696930	973.922913	9411.553711	1133.209351	1.887810
413.058685	939.790100	9611.799805	1135.484863	2.256625
413.420410	919.310425	9470.717773	1171.893188	2.953698
413.782104	889.728638	9591.320313	1099.076538	2.405858
414.143707	912.483826	9645.932617	1115.005249	2.318917
414.505310	882.902100	9709.647461	1124.107300	2.732663
414.866852	930.687988	9862.107422	1192.372925	2.929937
415.228394	921.585938	9748.331055	1158.240112	2.681103
415.589874	948.892151	10046.424805	1135.484863	2.051026
415.951324	951.167725	10230.741211	1124.107300	1.863659
416.312683	935.239075	10326.313477	1192.372925	2.738066
416.674072	1046.739624	10745.008789	1142.311401	0.985452
417.035370	923.861450	10838.305664	1135.484863	2.134496
417.396667	942.065613	11159.154297	1167.342163	2.204900
417.757935	951.167725	11131.847656	1221.954712	2.659812
418.119141	880.626526	11607.431641	1256.087524	3.500213
418.480286	896.555176	11741.687500	1203.750488	2.832564
418.841400	882.902100	12503.986328	1194.648438	2.682593
419.202484	946.616638	12779.325195	1324.353149	3.192308
419.563568	957.994263	13320.898438	1221.954712	2.135101
419.924591	973.922913	14374.464844	1153.689087	1.341484
420.285553	957.994263	14201.525391	1221.954712	1.993127
420.646484	996.678101	15457.613281	1246.985352	1.730920
421.007355	960.269775	15459.888672	1246.985352	1.977401
421.368225	946.616638	16247.218750	1324.353149	2.468769
421.729065	912.483826	16852.507813	1324.353149	2.583869
422.089874	942.065613	17362.224609	1262.914063	1.953991
422.450592	930.687988	17107.365234	1338.006226	2.517935
422.811279	937.514587	17086.884766	1283.393677	2.141750
423.171936	960.269775	16920.773438	1326.628662	2.295409
423.532593	1017.157776	16888.916016	1303.873413	1.806452
423.893127	953.443237	17055.029297	1299.322388	2.148106
424.253723	930.687988	17330.367188	1363.036987	2.636326
424.614197	996.678101	16875.261719	1274.291626	1.748352
424.974670	948.892151	17899.246094	1349.383789	2.362733
425.335052	919.310425	18165.482422	1340.281738	2.440955
425.695496	923.861450	16827.476563	1328.904175	2.546860
426.055817	928.412476	17532.888672	1297.046875	2.220090
426.416168	944.341125	17125.570313	1335.730713	2.418788
426.776398	889.728638	16201.708008	1319.802124	2.808739
427.136627	989.851563	15475.817383	1258.363037	1.853597
427.496826	998.953613	15198.203125	1292.495850	2.067308
427.856995	962.545288	14620.220703	1290.220337	2.399201
428.217102	873.799988	13951.217773	1242.434326	2.818862
428.577179	932.963501	13871.575195	1226.505737	2.268731
428.937195	905.657288	13673.604492	1231.056763	2.548565
429.297180	944.341125	13259.459961	1267.465088	2.623799
429.657135	937.514587	13168.438477	1203.750488	2.176744
430.017059	905.657288	13539.348633	1224.230225	2.521614
430.376984	869.248962	13245.806641	1265.189575	3.199117
430.736786	1003.504700	13063.764648	1242.434326	1.981132
431.096588	885.177612	12936.335938	1171.893188	2.379154
431.456360	967.096313	12949.989258	1203.750488	1.974934
431.816071	907.932800	12788.426758	1233.332275	2.738939
432.175781	955.718750	12906.753906	1192.372925	1.980198
432.535400	860.146851	12949.989258	1151.413574	2.409185
432.895020	930.687988	12893.100586	1196.923950	2.225604
433.254578	996.678101	12865.794922	1180.995239	1.552914
433.614105	907.932800	13391.439453	1258.363037	2.807146
433.973602	960.269775	13612.165039	1215.128052	2.014388
434.333038	951.167725	13621.267578	1274.291626	2.550287
434.692444	1026.259888	13430.124023	1226.505737	1.614383
435.051819	998.953613	13714.563477	1267.465088	2.111668
435.411133	917.034912	13723.666016	1201.474976	2.221037
435.770416	923.861450	13132.030273	1151.413574	1.863933
436.129669	962.545288	13684.982422	1112.729614	1.180468
436.488861	989.851563	13427.848633	1169.617676	1.445298
436.848083	989.851563	13662.226563	1228.781250	1.885437
437.207184	996.678101	13605.338867	1231.056763	1.858870
437.566254	978.473938	13837.442383	1210.577026	1.804990
437.925293	939.790100	13546.175781	1262.914063	2.563177
438.284363	955.718750	13644.022461	1312.975464	2.815638
438.643311	953.443237	14151.463867	1226.505737	2.068966
439.002258	866.973450	14372.189453	1128.658325	1.937658
439.361145	914.759338	14747.650391	1242.434326	2.368811
439.719971	948.892151	15084.427734	1260.638550	2.205409
440.078827	892.004150	15307.428711	1246.985352	2.462509
440.437592	985.300537	15739.777344	1210.577026	1.526835
440.796295	942.065613	16017.390625	1278.842651	2.233962
441.155029	998.953613	17264.376953	1312.975464	1.930610
441.513672	928.412476	17243.896484	1285.669312	2.189680
441.872253	878.351013	17064.130859	1265.189575	2.389990
442.230865	903.381775	16638.607422	1278.842651	2.386117
442.589386	944.341125	16777.414063	1265.189575	2.026444
442.947876	928.412476	16597.648438	1199.199463	1.728144
443.306335	894.279663	15971.880859	1244.709839	2.324177
443.664764	962.545288	15471.265625	1208.301514	1.693852
444.023102	921.585938	15612.348633	1281.118164	2.447335
444.381500	921.585938	15607.796875	1203.750488	1.921289
444.739777	955.718750	15573.664063	1287.944824	2.272727
445.098022	951.167725	16090.208008	1240.158813	1.908913
445.456238	930.687988	15876.308594	1233.332275	2.024970
445.814423	921.585938	16679.568359	1262.914063	2.166065
446.172577	937.514587	17330.367188	1267.465088	2.012770
446.530701	930.687988	17437.316406	1228.781250	1.805900
446.888733	962.545288	17799.123047	1260.638550	1.770510
447.246765	967.096313	18898.201172	1351.659302	2.144670
447.604736	957.994263	18215.544922	1353.934937	2.294304
447.962677	894.279663	18741.189453	1281.118164	2.167538
448.320587	935.239075	18732.087891	1253.812012	1.790052
448.678436	989.851563	18361.177734	1249.260864	1.493319
449.036255	996.678101	17869.664063	1240.158813	1.443021
449.394043	926.136963	16852.507813	1228.781250	1.900272
449.751770	939.790100	17264.376953	1237.883301	1.826038
450.109467	1008.055725	16652.261719	1171.893188	1.047272
450.467163	951.167725	16424.708984	1180.995239	1.485294
450.824768	948.892151	16411.056641	1299.322388	2.266372
451.182343	923.861450	16126.616211	1283.393677	2.364915
451.539886	937.514587	15573.664063	1278.842651	2.332089
451.897369	1017.157776	15889.961914	1171.893188	1.040392
452.254822	898.830688	15393.898438	1274.291626	2.590267
452.612274	942.065613	16176.677734	1174.168701	1.523525
452.969635	919.310425	15978.707031	1358.485962	2.916289
453.326965	921.585938	15942.298828	1140.035889	1.454325
453.684326	914.759338	15562.287109	1244.709839	2.252602
454.041534	942.065613	15245.989258	1217.403687	1.924913
454.398773	967.096313	14900.110352	1190.097412	1.600523
454.755951	976.198425	14602.016602	1221.954712	1.803608
455.113098	980.749451	14247.036133	1208.301514	1.715266
455.470215	1001.229126	14390.393555	1201.474976	1.495581
455.827240	930.687988	14363.086914	1274.291626	2.558022
456.184265	996.678101	13764.625000	1112.729614	0.908929
456.541260	935.239075	14162.841797	1203.750488	2.029932
456.898193	926.136963	14181.045898	1244.709839	2.403433
457.255096	910.208313	14274.341797	1115.005249	1.532437
457.611969	880.626526	14208.351563	1203.750488	2.424450
457.968781	953.443237	14347.158203	1196.923950	1.817873
458.325531	976.198425	14460.934570	1242.434326	1.974350
458.682312	989.851563	15207.305664	1115.005249	0.880282
459.039001	953.443237	15837.625000	1178.719727	1.513530
459.395630	951.167725	16599.923828	1226.505737	1.759488
459.752289	996.678101	18215.544922	1333.455200	1.955861
460.108856	955.718750	19514.867188	1340.281738	2.072094
460.465363	932.963501	19967.695313	1308.424438	1.972504
460.821899	948.892151	20136.083984	1258.363037	1.612903
461.178345	951.167725	19271.384766	1287.944824	1.838281
461.534760	964.820801	19114.375000	1335.730713	2.043631
461.891144	905.657288	18195.064453	1251.536499	2.000527
462.247467	960.269775	17105.089844	1310.699951	2.170542
462.603760	951.167725	16891.191406	1165.066650	1.341898
462.960052	894.279663	16115.238281	1221.954712	2.152788
463.316254	914.759338	15644.205078	1210.577026	2.008342
463.672424	967.096313	15300.601563	1260.638550	2.047945
464.028564	914.759338	14902.385742	1190.097412	1.968440
464.384644	942.065613	15022.988281	1183.270874	1.712993
464.740723	873.799988	15170.897461	1185.546387	2.180487
465.096741	896.555176	14872.803711	1258.363037	2.588734
465.452698	951.167725	14683.935547	1233.332275	2.054681
465.808655	1053.566162	14777.232422	1219.679199	1.210413
466.164520	928.412476	14647.527344	1158.240112	1.675237
466.520355	921.585938	15398.449219	1278.842651	2.467777
466.876190	937.514587	16094.758789	1265.189575	2.161838
467.231964	926.136963	15555.459961	1242.434326	2.162078
467.587677	960.269775	16208.535156	1210.577026	1.641546
467.943390	1003.504700	16279.076172	1276.567139	1.787576
468.299011	898.830688	15819.420898	1206.026001	2.058868
468.654633	939.790100	15619.174805	1246.985352	2.092698
469.010223	896.555176	15587.317383	1199.199463	2.060099
469.365723	969.371887	15123.111328	1203.750488	1.655948
469.721191	964.820801	15491.746094	1219.679199	1.754386
470.076660	964.820801	14708.966797	1171.893188	1.506622
470.432068	946.616638	15002.508789	1219.679199	1.942691
470.787445	905.657288	14918.314453	1258.363037	2.517051
471.142792	862.422363	14668.006836	1133.209351	1.961431
471.498016	955.718750	15191.376953	1246.985352	2.046035
471.853271	939.790100	15054.845703	1246.985352	2.176366
472.208496	957.994263	15111.733398	1219.679199	1.848875
472.563660	951.167725	15412.102539	1162.791138	1.463415
472.918762	969.371887	15521.327148	1249.260864	1.923377
473.273865	907.932800	15751.155273	1253.812012	2.330216
473.628876	907.932800	16433.810547	1206.026001	1.919976
473.983917	912.483826	16206.258789	1244.709839	2.172296
474.338837	942.065613	16169.850586	1242.434326	1.972504
474.693787	971.647400	16137.993164	1269.740601	1.965491
475.048645	1028.535400	15742.052734	1219.679199	1.299103
475.403503	880.626526	16213.085938	1308.424438	2.790145
475.758270	923.861450	16454.291016	1199.199463	1.772894
476.113037	971.647400	16313.208984	1224.230225	1.646396
476.467773	987.576050	16820.650391	1208.301514	1.394078
476.822418	996.678101	17623.908203	1249.260864	1.519091
477.177063	955.718750	17312.162109	1267.465088	1.905954
477.531647	923.861450	17673.970703	1249.260864	1.942670
477.886200	992.127075	18115.421875	1251.536499	1.514950
478.240723	971.647400	18568.250000	1162.791138	1.086254
478.595184	923.861450	18800.353516	1246.985352	1.807535
478.949585	923.861450	19319.171875	1297.046875	2.028699
479.303986	960.269775	19457.978516	1249.260864	1.562307
479.658325	1026.259888	19442.048828	1290.220337	1.433338
480.012634	930.687988	19603.611328	1281.118164	1.876675
480.366913	951.167725	20386.390625	1256.087524	1.568903
480.721130	989.851563	20914.312500	1294.771362	1.530379
481.075317	912.483826	21253.365234	1315.250977	1.980087
481.429474	919.310425	22197.705078	1315.250977	1.860763
481.783569	889.728638	23358.220703	1356.210449	2.076160
482.137604	969.371887	24639.339844	1376.690063	1.720823
482.491669	955.718750	26657.726563	1424.476074	1.823816
482.845612	921.585938	29668.240234	1449.506714	1.836460
483.199554	967.096313	33365.960938	1499.568237	1.643489
483.553436	926.136963	38749.843750	1640.650513	1.889063
483.907318	994.402588	46288.644531	1772.630737	1.718161
484.261139	973.922913	52205.000000	1911.437500	1.829972
484.614899	944.341125	54667.113281	1843.171875	1.673091
484.968628	912.483826	54116.437500	1834.069824	1.732176
485.322357	969.371887	51265.207031	1824.967651	1.701126
485.675964	885.177612	47594.792969	1836.345337	2.036342
486.029572	928.412476	43378.253906	1663.405762	1.731439
486.383148	948.892151	40620.320313	1640.650513	1.743719
486.736694	903.381775	38790.804688	1642.926025	1.951952
487.090149	946.616638	39154.886719	1670.232300	1.893872
487.443604	919.310425	40167.492188	1758.977539	2.139378
487.796997	873.799988	42199.535156	1752.151001	2.125433
488.150360	973.922913	43610.355469	1702.089600	1.707851
488.503693	939.790100	43660.417969	1670.232300	1.709811
488.856964	989.851563	42836.679688	1708.916138	1.718325
489.210175	996.678101	40602.117188	1683.885376	1.735134
489.563416	946.616638	38014.851563	1576.935913	1.700430
489.916565	967.096313	35768.910156	1665.681274	2.007324
490.269653	1053.566162	33482.011719	1638.375000	1.803382
490.622772	951.167725	32835.765625	1524.598877	1.798458
490.975769	882.902100	32824.386719	1444.955688	1.759635
491.328735	976.198425	34474.140625	1599.691162	1.861287
491.681732	892.004150	36585.824219	1483.639526	1.657529
492.034607	989.851563	38167.308594	1565.558350	1.548537
492.387482	967.096313	39232.253906	1579.211426	1.599667
492.740326	901.106262	38372.105469	1522.323364	1.657861
493.093079	957.994263	36462.945313	1572.384888	1.730437
493.445862	930.687988	32983.675781	1529.150024	1.867102
493.798523	921.585938	30585.275391	1490.466064	1.917766
494.151215	846.493713	28170.947266	1463.159912	2.256829
494.503815	917.034912	26241.306641	1399.445313	1.904933
494.856384	898.830688	24477.777344	1349.383789	1.910828
495.208923	955.718750	23940.753906	1367.588013	1.791902
495.561432	919.310425	23201.210938	1388.067749	2.103758
495.913879	973.922913	22336.511719	1301.597900	1.533873
496.266296	1003.504700	23110.189453	1349.383789	1.564590
496.618683	946.616638	23171.628906	1353.934937	1.832702
496.970978	946.616638	23879.314453	1306.148926	1.567771
497.323273	894.279663	23672.242188	1415.373901	2.287712
497.675507	964.820801	24120.519531	1344.832764	1.641116
498.027710	948.892151	24172.857422	1390.343262	1.900843
498.379852	921.585938	23870.212891	1349.383789	1.864154
498.731995	921.585938	23221.689453	1376.690063	2.040816
499.084076	928.412476	22894.015625	1308.424438	1.730032
499.436096	957.994263	22841.677734	1342.557251	1.757305
499.788086	921.585938	22238.664063	1278.842651	1.675918
500.140106	1035.361938	21908.714844	1299.322388	1.264581
500.491943	912.483826	21476.365234	1283.393677	1.803696
500.843842	923.861450	21305.701172	1351.659302	2.098917
501.195679	980.749451	20584.361328	1299.322388	1.625073
501.547455	873.799988	20231.656250	1376.690063	2.597861
501.899231	1001.229126	19924.460938	1303.873413	1.599327
502.250885	864.697876	19995.001953	1237.883301	1.950755
502.602600	1014.882263	19715.111328	1331.179688	1.691409
502.954193	892.004150	19863.021484	1356.210449	2.446923
503.305786	942.065613	19844.816406	1260.638550	1.685326
503.657379	948.892151	20204.349609	1369.863525	2.186244
504.008820	1035.361938	19876.673828	1333.455200	1.582126
504.360291	957.994263	20349.982422	1317.526489	1.854025
504.711700	907.932800	20288.542969	1244.709839	1.737701
505.063080	942.065613	20538.851563	1258.363037	1.614027
505.414368	973.922913	20459.207031	1338.006226	1.868504
505.765656	994.402588	20136.083984	1262.914063	1.402758
506.116943	926.136963	20179.318359	1342.557251	2.162865
506.468109	1003.504700	20111.052734	1308.424438	1.595808
506.819305	1001.229126	19776.550781	1322.077637	1.708884
507.170410	923.861450	19837.990234	1265.189575	1.804620
507.521484	976.198425	19913.082031	1344.832764	1.946647
507.872559	964.820801	20115.603516	1303.873413	1.770437
508.223480	912.483826	20415.972656	1315.250977	2.065103
508.574493	985.300537	20450.105469	1294.771362	1.589899
508.925385	901.106262	20764.126953	1258.363037	1.798602
509.276245	983.024963	21073.597656	1394.894287	2.050063
509.627045	985.300537	21235.160156	1244.709839	1.281042
509.977814	948.892151	21576.488281	1324.353149	1.820188
510.328613	953.443237	21649.304688	1374.414551	2.034085
510.679260	1026.259888	21840.449219	1374.414551	1.672679
511.029999	962.545288	22029.316406	1372.139038	1.944264
511.380585	985.300537	22309.205078	1376.690063	1.835450
511.731140	983.024963	22473.042969	1347.108276	1.694197
512.081726	969.371887	22609.574219	1431.302612	2.134595
512.432129	889.728638	22730.177734	1358.485962	2.146281
512.782654	992.127075	23114.740234	1347.108276	1.604608
513.133057	935.239075	22909.943359	1349.383789	1.884643
513.483398	892.004150	22725.626953	1415.373901	2.397082
513.833801	937.514587	22859.882813	1390.343262	2.065601
514.183960	898.830688	22532.207031	1326.628662	1.977491
514.534302	994.402588	22338.787109	1408.547363	1.940298
514.884460	932.963501	22400.226563	1290.220337	1.664194
515.234619	871.524475	22211.359375	1378.965576	2.377906
515.584717	928.412476	22099.857422	1378.965576	2.128117
515.934753	921.585938	22395.675781	1299.322388	1.759034
516.284851	953.443237	22493.523438	1324.353149	1.721952
516.634766	903.381775	22816.646484	1440.404663	2.450675
516.984741	885.177612	22711.972656	1394.894287	2.335279
517.334595	896.555176	23606.251953	1390.343262	2.174349
517.684448	1005.780212	24593.828125	1397.169800	1.659271
518.034363	1012.606750	25588.230469	1451.782227	1.787037
518.384094	901.106262	26298.193359	1510.945801	2.401218
518.733826	946.616638	27722.669922	1531.425537	2.184074
519.083496	901.106262	28175.498047	1533.701050	2.319373
519.433167	932.963501	28450.835938	1508.670288	2.092119
519.782776	980.749451	27954.773438	1510.945801	1.965581
520.132324	892.004150	27854.650391	1431.302612	2.000169
520.481873	919.310425	27131.035156	1488.190552	2.170327
520.831299	903.381775	26502.990234	1424.476074	2.035556
521.180786	905.657288	25560.925781	1465.435425	2.270420
521.530151	998.953613	25533.619141	1479.088501	1.956965
521.879517	957.994263	25080.791016	1417.649414	1.905480
522.228882	928.412476	24575.625000	1406.271851	2.020785
522.578064	955.718750	24891.921875	1444.955688	2.043921
522.927307	894.279663	24814.554688	1465.435425	2.387748
523.276489	969.371887	24725.808594	1429.027100	1.934866
523.625610	980.749451	25042.105469	1454.057739	1.967089
523.974792	930.687988	25433.496094	1524.598877	2.423848
524.323792	905.657288	25990.998047	1442.680176	2.140784
524.672852	896.555176	26853.421875	1554.180664	2.533532
525.021790	964.820801	27781.833984	1463.159912	1.858295
525.370728	907.932800	28746.654297	1524.598877	2.215138
525.719604	939.790100	30480.601563	1595.140137	2.218457
526.068420	957.994263	32041.609375	1656.579102	2.247437
526.417297	980.749451	33274.941406	1645.201538	2.057497
526.765991	905.657288	34094.128906	1617.895264	2.146040
527.114746	951.167725	35347.941406	1692.987427	2.156655
527.463379	973.922913	36383.300781	1720.293701	2.107834
527.812012	951.167725	38768.046875	1652.028076	1.853300
528.160706	998.953613	42026.593750	1813.590088	1.985580
528.509155	948.892151	46812.015625	1950.121338	2.183081
528.857727	946.616638	51590.609375	2068.448486	2.215133
529.206177	955.718750	54471.417969	2102.581299	2.143039
529.554565	955.718750	54412.253906	2104.856689	2.149668
529.902893	971.647400	53010.531250	2059.346436	2.090166
530.251221	910.208313	49868.039063	1911.437500	2.045085
530.599548	901.106262	45956.417969	1938.743774	2.303030
530.947876	930.687988	42479.421875	1845.447388	2.201654
531.296021	955.718750	39432.500000	1752.151001	2.069904
531.644165	942.065613	36918.050781	1708.916138	2.131562
531.992249	946.616638	35259.195313	1706.640625	2.215001
532.340454	948.892151	34246.589844	1699.814087	2.255177
532.688354	955.718750	34417.253906	1631.548462	2.019721
533.036438	953.443237	35850.832031	1692.987427	2.119196
533.384338	948.892151	37823.707031	1836.345337	2.406665
533.732239	882.902100	39896.707031	1793.110352	2.333041
534.080139	987.576050	40165.218750	1790.834839	2.050299
534.427917	976.198425	39487.113281	1809.039063	2.162609
534.775757	907.932800	37568.847656	1749.875488	2.296568
535.123474	901.106262	35800.769531	1708.916138	2.314664
535.471191	896.555176	34123.710938	1692.987427	2.396932
535.818848	901.106262	32644.621094	1531.425537	1.985663
536.166382	957.994263	32000.648438	1649.752563	2.228412
536.513977	962.545288	31848.189453	1556.456177	1.922935
536.861511	1008.055725	32558.152344	1661.130127	2.069960
537.208984	971.647400	32373.833984	1595.140137	1.985507
537.556396	885.177612	32442.099609	1629.272949	2.357946
537.903809	939.790100	31304.339844	1601.966675	2.180756
538.251160	944.341125	30808.275391	1624.721802	2.278269
538.598389	953.443237	29247.269531	1615.619751	2.340357
538.945740	905.657288	28630.603516	1483.639526	2.084701
539.292969	905.657288	28175.498047	1531.425537	2.294727
539.640137	910.208313	28091.304688	1590.588989	2.503139
539.987244	955.718750	28177.773438	1642.926025	2.524451
540.334351	939.790100	28826.296875	1554.180664	2.203182
540.681458	964.820801	30853.787109	1656.579102	2.314427
541.028442	951.167725	33766.453125	1715.742676	2.329935
541.375366	905.657288	37179.734375	1806.763550	2.484160
541.722290	951.167725	39869.398438	1788.559326	2.151669
542.069153	948.892151	41678.437500	1906.886475	2.352087
542.416016	917.034912	41632.929688	1918.264038	2.459062
542.762756	932.963501	40044.613281	1872.753662	2.402840
543.109558	887.453125	38617.863281	1865.927002	2.593330
543.456299	937.514587	37439.144531	1818.141113	2.412568
543.802917	921.585938	35916.820313	1838.620850	2.620456
544.149536	903.381775	34207.902344	1674.783325	2.316207
544.496094	953.443237	31763.994141	1840.896362	2.880355
544.842651	928.412476	30214.365234	1640.650513	2.432013
545.189148	992.127075	28510.000000	1706.640625	2.596544
545.535583	935.239075	27916.089844	1592.864502	2.437378
545.882019	926.136963	27299.423828	1624.721802	2.648835
546.228333	1010.331238	26939.890625	1620.170776	2.351909
546.574707	978.473938	27046.839844	1586.037964	2.330657
546.920898	910.208313	27144.687500	1715.742676	3.070518
547.267212	903.381775	27272.117188	1629.272949	2.752848
547.613342	910.208313	27005.880859	1620.170776	2.720614
547.959473	976.198425	26309.572266	1597.415649	2.452169
548.305664	994.402588	25727.039063	1590.588989	2.410525
548.651611	962.545288	24448.195313	1595.140137	2.693538
548.997742	935.239075	23883.867188	1485.915039	2.399603
549.343689	973.922913	22737.003906	1522.323364	2.519866
549.689575	894.279663	21719.845703	1545.078613	3.125000
550.035522	930.687988	21178.271484	1501.843750	2.820859
550.381287	917.034912	20429.625000	1415.373901	2.553936
550.727173	976.198425	19888.052734	1551.905151	3.044158
551.072876	898.830688	19462.529297	1490.466064	3.187055
551.418640	887.453125	19505.763672	1510.945801	3.348814
551.764282	885.177612	19291.865234	1492.741699	3.300779
552.109863	960.269775	19510.314453	1545.078613	3.152601
552.455505	898.830688	19694.632813	1567.833862	3.559322
552.801025	964.820801	19910.806641	1515.496826	2.906558
553.146545	930.687988	20411.421875	1529.150024	3.072071
553.491943	973.922913	20447.830078	1565.558350	3.038093
553.837341	926.136963	20445.554688	1531.425537	3.100956
554.182800	901.106262	19794.755859	1622.446289	3.817897
554.528015	978.473938	19428.396484	1542.803101	3.058708
554.873352	998.953613	19050.660156	1538.252075	2.987521
555.218628	1014.882263	19157.609375	1538.252075	2.884736
555.563721	887.453125	18595.556641	1558.731689	3.790799
555.908875	903.381775	18445.371094	1506.394775	3.437540
556.254028	935.239075	18147.279297	1565.558350	3.662083
556.599121	914.759338	18131.349609	1549.629639	3.687550
556.944031	951.167725	17751.337891	1601.966675	3.873764
557.289063	914.759338	17762.714844	1604.242188	4.092383
557.633972	978.473938	17557.917969	1624.721802	3.897886
557.978882	935.239075	17387.253906	1570.109375	3.858921
558.323792	964.820801	17503.306641	1549.629639	3.536048
558.668518	996.678101	17362.224609	1611.068726	3.754171
559.013306	978.473938	17232.519531	1561.007324	3.583929
559.358032	960.269775	17346.294922	1545.078613	3.568949
559.702637	901.106262	17141.498047	1558.731689	4.049320
560.047363	953.443237	17055.029297	1567.833862	3.815715
560.391846	930.687988	17284.855469	1636.099487	4.313344
560.736450	960.269775	16902.568359	1586.037964	3.925207
561.080933	892.004150	17373.601563	1615.619751	4.390446
561.425354	987.576050	17450.968750	1677.058838	4.187975
561.769775	944.341125	17655.765625	1654.303589	4.248366
562.114136	923.861450	17519.234375	1688.436401	4.607157
562.458496	921.585938	17596.601563	1656.579102	4.407751
562.802673	894.279663	17548.816406	1749.875488	5.137314
563.146912	953.443237	17400.908203	1690.711914	4.482567
563.491150	942.065613	17430.490234	1722.569214	4.733646
563.835266	960.269775	17255.273438	1784.008301	5.055160
564.179443	1012.606750	17389.529297	1765.804199	4.599139
564.523438	964.820801	16954.906250	1781.732788	5.108866
564.867493	905.657288	17353.121094	1761.253052	5.201993
565.211426	901.106262	17519.234375	1915.988525	6.107079
565.555359	901.106262	17412.285156	1884.131226	5.953693
565.899231	937.514587	17899.246094	1870.478149	5.500402
566.243042	948.892151	18572.800781	1872.753662	5.242092
566.586914	983.024963	18734.363281	2025.213501	5.871042
566.930603	962.545288	19460.253906	1934.192627	5.252798
567.274292	937.514587	19391.988281	2038.866699	5.967940
567.617981	946.616638	19494.386719	2050.244141	5.950190
567.961609	971.647400	18788.974609	2104.856689	6.360152
568.305237	898.830688	18518.187500	2170.846924	7.219425
568.648682	919.310425	18563.699219	2034.315552	6.319319
568.992188	860.146851	18031.226563	2029.764526	6.811556
569.335632	926.136963	18172.308594	2102.581299	6.821481
569.679016	942.065613	17947.033203	2107.132324	6.851332
570.022461	960.269775	17956.134766	2143.540527	6.962110
570.365662	942.065613	18076.736328	2136.714111	6.972112
570.708984	887.453125	17917.451172	2145.816162	7.389097
571.052185	935.239075	18033.501953	2202.704102	7.412829
571.395386	951.167725	18245.125000	2286.898438	7.723685
571.738525	951.167725	18748.015625	2300.551514	7.582150
572.081604	880.626526	19159.884766	2339.235352	7.979585
572.424683	923.861450	19605.886719	2453.011475	8.185141
572.767578	946.616638	19428.396484	2505.348389	8.433884
573.110596	985.300537	19640.019531	2487.144287	8.050744
573.453552	964.820801	19580.857422	2512.175049	8.311942
573.796387	896.555176	19237.251953	2648.706299	9.553350
574.139282	939.790100	19041.558594	2571.338623	9.013201
574.481995	928.412476	19112.099609	2630.501953	9.360530
574.824768	866.973450	18445.371094	2657.808350	10.187702
575.167480	946.616638	18668.373047	2712.420898	9.964047
575.510132	946.616638	18543.218750	2671.461426	9.802147
575.852722	921.585938	18854.964844	2748.829102	10.189062
576.195251	937.514587	18206.441406	2767.033203	10.594280
576.537842	923.861450	18019.849609	2864.880615	11.353653
576.880188	946.616638	17881.042969	2757.931152	10.696049
577.222717	978.473938	17498.755859	2753.380127	10.743802
577.565063	930.687988	17478.275391	2880.809326	11.784928
577.907410	978.473938	16711.423828	2853.503174	11.917850
578.249756	978.473938	16597.648438	2782.961914	11.553031
578.591919	1017.157776	16360.994141	2757.931152	11.345099
578.934204	973.922913	15908.166016	2848.952148	12.555235
579.276306	955.718750	15471.265625	2876.258301	13.230914
579.618469	955.718750	15232.335938	2903.564453	13.643608
579.960571	996.678101	14959.273438	2839.849854	13.200782
580.302551	967.096313	14765.854492	2939.972900	14.297494
580.644531	1023.984375	14865.977539	2969.554688	14.055565
580.986511	935.239075	14490.516602	3019.616211	15.376868
581.328369	917.034912	14590.639648	2960.452637	14.944251
581.670227	901.106262	14265.240234	2990.034424	15.630854
582.012024	928.412476	14358.536133	3065.126465	15.909860
582.353821	907.932800	14253.862305	3092.432861	16.368286
582.695496	907.932800	14313.025391	3151.596191	16.737394
583.037231	962.545288	14112.780273	3106.085938	16.300396
583.378845	942.065613	14090.024414	3181.177979	17.030113
583.720398	944.341125	14260.688477	3244.892578	17.276144
584.062012	864.697876	13769.176758	3188.004639	18.003878
584.403442	923.861450	14051.340820	3447.414063	19.223436
584.744934	969.371887	13823.789063	3420.107666	19.065321
585.086365	1003.504700	13721.390625	3461.067139	19.323671
585.427734	942.065613	13632.645508	3420.107666	19.526625
585.768982	1033.086426	13928.462891	3529.332764	19.357683
586.110291	1005.780212	13796.482422	3508.853027	19.569471
586.451599	951.167725	13443.777344	3618.078125	21.347904
586.792725	955.718750	13578.032227	3506.577637	20.209124
587.133850	937.514587	13646.297852	3713.649902	21.844225
587.474915	951.167725	13823.789063	3781.915527	21.990454
587.815979	976.198425	13521.144531	3893.416016	23.254126
588.157043	1012.606750	13737.319336	3909.344727	22.764664
588.497925	987.576050	13732.767578	4054.978027	24.067131
588.838867	989.851563	14071.820313	4077.733398	23.604107
589.179749	923.861450	14117.331055	4205.162598	24.870647
589.520569	869.248962	14037.687500	4284.805664	25.937447
589.861450	951.167725	14003.554688	4293.907715	25.610182
590.202087	942.065613	14429.077148	4366.724609	25.392273
590.542847	892.004150	14212.903320	4466.847168	26.836349
590.883484	960.269775	14376.740234	4357.622559	25.322254
591.224121	912.483826	14053.616211	4601.103027	28.069263
591.564636	987.576050	14365.363281	4669.368652	27.521685
591.905151	921.585938	14060.443359	4596.552246	27.970213
592.245667	903.381775	13871.575195	4603.378418	28.531319
592.585999	928.412476	13805.584961	4698.950684	29.280790
592.926453	1008.055725	13518.869141	4578.347656	28.537649
593.266724	946.616638	13805.584961	4714.878906	29.304544
593.607056	1026.259888	13655.400391	4830.930664	30.126127
593.947388	967.096313	13958.044922	4976.563965	30.863550
594.287476	889.728638	13771.452148	4931.053711	31.372551
594.627686	967.096313	14210.626953	5113.095215	31.305845
594.967773	969.371887	14353.985352	5115.370605	30.975857
595.307861	948.892151	14383.567383	5240.524414	31.944445
595.647888	976.198425	14394.944336	5436.219238	33.237240
595.987854	892.004150	14724.895508	5431.667969	32.817898
596.327820	953.443237	14788.609375	5645.566895	33.914471
596.667725	885.177612	14986.580078	5973.242188	36.081974
597.007568	946.616638	15919.543945	6061.987305	34.164131
597.347351	912.483826	16158.473633	6403.315430	36.014923
597.687073	969.371887	16611.302734	6451.101563	35.045094
598.026794	1010.331238	16474.771484	6439.723633	35.108887
598.366455	942.065613	16087.931641	6385.111328	35.937500
598.706116	937.514587	15332.458984	6296.366211	37.227318
599.045654	985.300537	15057.121094	6100.671387	36.351879
599.385193	944.341125	14408.597656	5891.323242	36.741589
599.724731	878.351013	14058.167969	5870.843750	37.879833
600.064087	957.994263	13955.769531	5647.842773	36.081932
600.403564	957.994263	13575.756836	5609.158691	36.862038
600.742920	930.687988	13248.082031	5736.587891	39.017178
601.082153	953.443237	13111.550781	5743.414551	39.397343
601.421387	992.127075	13307.246094	5693.353027	38.174427
601.760620	964.820801	13179.816406	5816.230957	39.716839
602.099854	962.545288	13136.582031	5838.986328	40.056072
602.438843	871.524475	13095.622070	6016.477051	42.088608
602.778015	894.279663	13694.083984	6075.640625	40.480000
603.117065	960.269775	13830.615234	6148.457031	40.311172
603.456055	937.514587	13923.912109	6316.845703	41.422813
603.794983	967.096313	14342.607422	6523.917969	41.544746
604.133850	914.759338	14943.344727	6853.868652	42.335770
604.472778	983.024963	15682.889648	6983.573242	40.820435
604.811584	917.034912	16056.075195	7136.033203	41.079208
605.150330	880.626526	16454.291016	7377.238281	41.715370
605.489075	930.687988	16552.138672	7602.515137	42.709393
605.827698	907.932800	16367.821289	7479.636719	42.508095
606.166382	935.239075	16219.912109	7356.758789	42.012802
606.504883	989.851563	15744.328125	7097.349609	41.394203
606.843445	957.994263	15161.794922	7170.166016	43.735981
607.181946	964.820801	14624.772461	6712.786133	42.078960
607.520386	921.585938	14292.545898	6733.266113	43.464943
607.858826	944.341125	13898.880859	6546.673340	43.246090
608.197083	873.799988	13757.798828	6512.540527	43.765453
608.535461	923.861450	13434.674805	6537.571289	44.870861
608.873718	992.127075	13675.879883	6446.550293	43.003231
609.211914	937.514587	14017.208008	6696.857910	44.032707
609.550171	910.208313	14442.730469	7026.808105	45.199257
609.888245	889.728638	14863.702148	6919.858887	43.152580
610.226318	960.269775	14854.599609	7229.329590	45.119553
610.564392	951.167725	15280.122070	7270.289063	44.100365
610.902344	926.136963	14586.087891	7286.217773	46.560059
611.240295	957.994263	14840.946289	7274.839844	45.500736
611.578247	998.953613	14435.904297	7060.940918	45.114307
611.916138	855.595825	14237.933594	7147.410645	47.015812
612.253845	937.514587	13930.738281	6826.562500	45.323994
612.591675	917.034912	13318.623047	6917.583008	48.385319
612.929382	960.269775	12990.948242	6528.469238	46.283333
613.267090	948.892151	12554.047852	6480.683105	47.666668
613.604736	898.830688	12645.069336	6492.061035	47.617207
613.942261	939.790100	12324.220703	6180.314453	46.032379
614.279785	942.065613	12269.608398	6168.937012	46.143032
614.617310	894.279663	11962.413086	5993.721680	46.073185
614.954712	976.198425	11809.953125	6123.426270	47.511024
615.292175	905.657288	11894.147461	5986.895020	46.241455
615.629517	935.239075	11805.402344	6084.742676	47.372826
615.966797	880.626526	11714.380859	6098.395508	48.162151
616.304138	907.932800	11611.982422	5920.905273	46.832485
616.641296	921.585938	11773.544922	5984.619629	46.655479
616.978516	962.545288	11759.891602	5925.456055	45.964169
617.315552	932.963501	11577.849609	5991.446289	47.520313
617.652771	1033.086426	11671.146484	5920.905273	45.946522
617.989685	944.341125	11916.902344	5836.710938	44.587307
618.326721	901.106262	11530.063477	5989.170898	47.869839
618.663696	912.483826	11491.379883	5927.731445	47.408039
619.000549	957.994263	11566.472656	5848.088379	46.096092
619.337463	930.687988	11746.238281	6050.609863	47.338520
619.674194	932.963501	11382.155273	5904.976563	47.582756
620.010986	985.300537	11377.604492	5914.078613	47.427197
620.347778	992.127075	11461.797852	5829.884277	46.207348
620.684387	976.198425	11475.451172	5829.884277	46.228870
621.020996	1053.566162	11338.919922	5827.608887	46.415936
621.357605	992.127075	11425.389648	5857.190430	46.630318
621.694214	976.198425	11470.900391	5768.445313	45.663486
622.030579	951.167725	11250.174805	5513.586914	44.299603
622.367065	923.861450	11077.235352	5670.597656	46.750336
622.703430	942.065613	11068.132813	5722.935059	47.213490
623.039795	926.136963	11218.317383	5586.403809	45.279682
623.376160	1008.055725	11040.827148	5718.383789	46.949421
623.712402	907.932800	10797.346680	5556.821777	47.008743
624.048645	946.616638	10906.571289	5777.547363	48.503540
624.384766	942.065613	10963.458984	5629.638672	46.775661
624.720886	1012.606750	10824.652344	5490.831543	45.640068
625.057007	953.443237	11284.307617	5684.250977	45.792950
625.392944	953.443237	11159.154297	5779.822754	47.290966
625.729004	948.892151	11288.858398	5709.281738	46.038738
626.064941	978.473938	11466.349609	5722.935059	45.237576
626.400818	994.402588	11737.136719	5861.741699	45.308193
626.736633	935.239075	11730.309570	6123.426270	48.060707
627.072449	953.443237	11746.238281	6021.027832	46.953403
627.408264	969.371887	11900.973633	6116.600098	47.085762
627.743896	971.647400	12085.291016	6230.375977	47.317772
628.079590	937.514587	12119.423828	5991.446289	45.197395
628.415161	946.616638	11976.066406	5955.038086	45.409531
628.750793	912.483826	11885.044922	6016.477051	46.515968
629.086365	957.994263	11755.340820	5843.537598	45.247631
629.421753	955.718750	11514.135742	5736.587891	45.280170
629.757263	973.922913	11313.889648	5802.578125	46.698944
630.092651	962.545288	11022.623047	5716.108398	47.251751
630.427917	976.198425	10958.908203	5620.536621	46.523823
630.763184	969.371887	10979.387695	5654.669434	46.806095
631.098511	841.942688	10779.141602	5522.688965	47.103271
631.433716	896.555176	10526.559570	5554.546387	48.369568
631.768799	901.106262	10456.018555	5449.872559	47.606571
632.103943	923.861450	10499.252930	5199.564941	44.653042
632.438965	969.371887	10371.824219	5286.034668	45.909966
632.773987	967.096313	10066.904297	5135.850586	45.811455
633.109070	939.790100	10192.057617	5110.819824	45.081161
633.443848	935.239075	10096.485352	5097.166504	45.429707
633.778870	926.136963	10137.445313	5265.555176	47.109680
634.113708	1035.361938	10522.007813	5226.871094	44.183262
634.448425	930.687988	10358.170898	5115.370605	44.388123
634.783264	960.269775	10296.731445	5229.146973	45.722641
635.117859	942.065613	10201.160156	5190.462891	45.883507
635.452576	973.922913	10303.558594	5026.625488	43.439022
635.787170	976.198425	9925.821289	4978.839355	44.724129
636.121704	953.443237	10178.404297	5056.207031	44.474590
636.456177	907.932800	9652.758789	5026.625488	47.098625
636.790588	892.004150	9896.240234	4992.492676	45.539547
637.125122	962.545288	9630.003906	4874.165527	45.129951
637.459412	901.106262	9545.809570	4867.338867	45.880497
637.793762	973.922913	9472.993164	4694.399414	43.775101
638.128052	887.453125	9356.941406	4805.899902	46.265450
638.462280	928.412476	9341.012695	4607.929688	43.738163
638.796509	978.473938	9031.541992	4760.389648	46.962421
639.130615	960.269775	9129.389648	4676.195313	45.487465
639.464722	919.310425	8735.724609	4512.357910	45.967976
639.798767	937.514587	9074.777344	4642.062500	45.525726
640.132751	892.004150	8883.632813	4507.806641	45.244873
640.466736	866.973450	8769.857422	4460.020996	45.465019
640.800598	980.749451	8644.703125	4560.143555	46.704277
641.134521	967.096313	8619.672852	4293.907715	43.473091
641.468262	898.830688	8601.468750	4412.234863	45.612999
641.802063	948.892151	8644.703125	4314.387207	43.731518
642.135803	939.790100	8678.835938	4309.836426	43.546021
642.469421	951.167725	8512.723633	4332.591797	44.718628
642.803101	964.820801	8282.895508	4441.816406	47.512436
643.136658	937.514587	8346.610352	4230.193359	44.441032
643.470215	998.953613	8519.549805	4318.938477	44.145233
643.803711	912.483826	8419.426758	4193.784668	43.710213
644.137085	994.402588	8467.212891	4284.805664	44.031666
644.470581	914.759338	8510.448242	4262.050293	44.068298
644.803833	973.922913	8298.824219	4250.672852	44.734390
645.137207	919.310425	8303.375000	4255.224121	45.177200
645.470459	953.443237	8385.293945	4223.366699	43.998775
645.803589	1003.504700	8196.425781	4095.937500	42.992725
646.136780	971.647400	8464.937500	4089.110840	41.603401
646.469849	964.820801	8130.436035	4227.917480	45.538261
646.802979	917.034912	8449.008789	4250.672852	44.259819
647.135986	939.790100	8282.895508	4052.702637	42.392319
647.468994	939.790100	8307.926758	4252.948242	44.966026
647.801941	944.341125	8239.661133	4114.141602	43.449783
648.134766	976.198425	8571.886719	4300.734375	43.768723
648.467651	885.177612	8474.039063	4282.530273	44.767620
648.800354	926.136963	8282.895508	4237.019531	45.004635
649.133179	914.759338	8198.701172	4125.519043	44.079975
649.465881	932.963501	8203.252930	4232.468750	45.383411
649.798462	957.994263	8237.385742	4280.254395	45.639256
650.131104	912.483826	8414.875977	4123.243652	42.796482
650.463623	937.514587	8412.600586	4305.285156	45.053268
650.796143	973.922913	8373.916992	4184.682617	43.388680
651.128662	962.545288	8471.763672	4164.203125	42.636364
651.461060	953.443237	8376.192383	4150.549805	43.071732
651.793396	914.759338	8360.263672	4020.845215	41.717602
652.125732	921.585938	8344.334961	4109.590332	42.949108
652.458008	967.096313	8137.262207	4189.233887	44.938118
652.790222	957.994263	8517.274414	4221.091309	43.166771
653.122437	885.177612	8271.518555	4145.999023	44.146641
653.454529	971.647400	8289.722656	4182.407227	43.874374
653.786621	896.555176	8276.069336	4184.682617	44.557507
654.118713	937.514587	8173.670898	4082.284424	43.459118
654.450623	917.034912	8091.751953	4123.243652	44.687599
654.782654	926.136963	8214.629883	4007.192139	42.272869
655.114502	903.381775	7993.904785	4048.151611	44.351734
655.446350	973.922913	7930.189941	3948.028564	42.754333
655.778198	953.443237	8100.854004	3938.926514	41.770138
656.109863	962.545288	7939.291992	3927.548828	42.498367
656.441650	978.473938	7859.648926	3866.109863	41.964287
656.773254	901.106262	7741.321777	4034.498291	45.808384
657.104919	921.585938	8000.730957	3918.446777	42.333656
657.436462	939.790100	7798.209961	4116.416992	46.317184
657.767944	923.861450	7998.455566	4109.590332	45.030556
658.099548	917.034912	7996.180176	4000.365479	43.555122
658.430908	955.718750	8228.283203	4034.498291	42.334167
658.762268	914.759338	8378.467773	4050.427002	42.012196
659.093628	928.412476	8692.489258	4202.886719	42.174675
659.424927	862.422363	8733.449219	4348.520020	44.290253
659.756226	942.065613	9247.716797	4444.092285	42.164383
660.087341	992.127075	9161.247070	4507.806641	43.036209
660.418518	923.861450	9270.471680	4539.664063	43.320614
660.749573	912.483826	9193.104492	4489.602539	43.198677
661.080627	957.994263	9172.624023	4325.765137	40.997234
661.411621	912.483826	9040.644531	4437.265625	43.365059
661.742554	907.932800	8690.213867	4330.315918	43.976604
662.073547	923.861450	8542.304688	4123.243652	41.995224
662.404297	994.402588	8398.947266	4157.376465	42.716656
662.735229	926.136963	8312.477539	4014.018799	41.805298
663.065979	957.994263	8073.547852	4100.488281	44.163734
663.396667	932.963501	8014.384277	3945.753174	42.544987
663.727417	976.198425	7641.198730	3713.649902	41.072037
664.057922	935.239075	7668.504883	3809.221924	42.683342
664.388611	869.248962	7579.759766	3825.150391	44.048828
664.719116	928.412476	7575.208984	3750.058350	42.451218
665.049622	969.371887	7388.616211	3693.170166	42.431763
665.380005	996.678101	7306.697266	3558.914551	40.605843
665.710388	885.177612	7379.514160	3622.629150	42.151367
666.040771	971.647400	7245.258301	3527.057129	40.732677
666.371033	930.687988	7320.350586	3634.006836	42.307693
666.701294	930.687988	7117.829102	3581.669678	42.846634
667.031555	939.790100	7145.135254	3656.761963	43.784378
667.361633	919.310425	7402.269043	3574.843262	40.961742
667.691772	889.728638	7445.503906	3599.874023	41.339817
668.021790	857.871338	7249.809082	3593.047363	42.791031
668.351807	926.136963	7249.809082	3531.608398	41.201878
668.681763	969.371887	7233.880859	3447.414063	39.556847
669.011719	901.106262	7318.074707	3643.108887	42.730499
669.341614	942.065613	7268.013672	3604.425049	42.086330
669.671387	932.963501	7258.911133	3711.374512	43.920868
670.001221	967.096313	7293.043945	3672.690674	42.769783
670.330933	928.412476	7295.319824	3713.649902	43.745529
670.660583	896.555176	7172.441406	3492.924316	41.370560
670.990173	905.657288	7131.482422	3545.261475	42.397659
671.319763	889.728638	7026.808105	3545.261475	43.270298
671.649292	937.514587	7060.940918	3495.199951	41.768860
671.978821	1001.229126	7115.553711	3558.914551	41.831039
672.308289	964.820801	6933.511719	3465.618164	41.898590
672.637695	989.851563	6938.062988	3506.577637	42.310635
672.966980	946.616638	7017.706055	3354.117676	39.655174
673.296326	914.759338	6926.685547	3310.882813	39.856171
673.625610	926.136963	6915.307617	3376.872803	40.919453
673.954773	914.759338	6856.144043	3345.015625	40.903870
674.283936	960.269775	6737.816895	3408.730225	42.378895
674.613037	921.585938	6744.643555	3356.393066	41.813206
674.942078	919.310425	6694.582031	3349.566650	42.080383
675.271118	932.963501	6765.123535	3331.362549	41.123680
675.600098	869.248962	6690.031250	3319.984863	42.103203
675.928955	912.483826	6594.459473	3329.086914	42.531036
676.257813	919.310425	6605.836914	3331.362549	42.416969
676.586670	978.473938	6649.071777	3322.260254	41.332264
676.915466	921.585938	6530.744629	3411.005615	44.381336
677.244141	955.718750	6498.887207	3201.657715	40.517242
677.572876	953.443237	6569.428711	3217.586426	40.316044
677.901489	957.994263	6592.183594	3188.004639	39.579967
678.230042	932.963501	6562.602051	3276.750000	41.632984
678.558594	951.167725	6585.357422	3310.882813	41.882069
678.887085	942.065613	6796.980469	3147.045166	37.660316
679.215515	917.034912	6703.684082	3370.046387	42.390877
679.543945	969.371887	6862.970703	3381.423828	40.926643
679.872253	912.483826	6915.307617	3258.545898	39.082642
680.200562	907.932800	7001.777344	3390.525879	40.739353
680.528809	917.034912	7277.115723	3451.965088	39.856884
680.856995	960.269775	7347.656738	3415.556641	38.439613
681.185120	951.167725	7404.544922	3533.883789	40.021156
681.513306	866.973450	7327.176758	3451.965088	40.014091
681.841309	914.759338	7356.758789	3552.087891	40.939598
682.169373	996.678101	7204.298828	3440.587402	39.369499
682.497314	928.412476	7381.789551	3524.781738	40.232719
682.825134	957.994263	7170.166016	3442.863037	40.000000
683.153076	946.616638	7022.257324	3395.077148	40.299625
683.480896	928.412476	7090.522949	3342.739990	39.180206
683.808655	969.371887	6928.960938	3231.239502	37.953419
684.136414	873.799988	6767.398926	3206.208740	39.575287
684.464050	960.269775	6571.704102	3108.361328	38.280613
684.791626	930.687988	6507.989258	3185.729004	40.432476
685.119263	1001.229126	6546.673340	3294.954102	41.362331
685.446838	912.483826	6558.050781	3096.983887	38.694077
685.774292	980.749451	6362.355957	3040.095703	38.266384
686.101685	960.269775	6287.264160	3040.095703	39.043144
686.429077	957.994263	6241.753418	3017.340576	38.975018
686.756348	937.514587	6407.866699	3046.922363	38.560730
687.083679	962.545288	6223.549316	3128.841064	41.176476
687.410950	896.555176	6275.886230	3058.300049	40.186127
687.738159	1001.229126	6259.957520	3087.881836	39.679798
688.065308	992.127075	6207.620605	3149.320801	41.361259
688.392395	921.585938	6366.907227	3140.218750	40.743835
688.719421	926.136963	6544.397949	3040.095703	37.626568
689.046448	1014.882263	6296.366211	3096.983887	39.422661
689.373413	919.310425	6262.233398	3117.463379	41.141392
689.700317	962.545288	6184.865723	3065.126465	40.261433
690.027100	978.473938	6100.671387	2996.860840	39.404709
690.353943	882.902100	6036.956543	2960.452637	40.309052
690.680725	935.239075	5986.895020	2974.105713	40.360363
691.007446	930.687988	5980.068848	2917.217773	39.342049
691.334106	964.820801	5970.966797	2807.992676	36.818180
691.660645	960.269775	5875.394531	2807.992676	37.592594
691.987244	983.024963	5752.516602	2753.380127	37.118320
692.313721	955.718750	5775.271973	2805.717041	38.385265
692.640259	973.922913	5597.781250	2666.910400	36.614174
692.966675	907.932800	5647.842773	2826.196777	40.470470
693.293030	832.840637	5606.883301	2726.073975	39.656818
693.619324	857.871338	5590.954590	2769.308838	40.384617
693.945618	996.678101	5470.352051	2769.308838	39.623604
694.271851	944.341125	5361.126953	2723.798340	40.288513
694.598083	901.106262	5593.229980	2671.461426	37.730362
694.924194	871.524475	5454.423340	2737.451416	40.714993
695.250244	894.279663	5538.617676	2669.185791	38.216560
695.576294	960.269775	5440.770020	2657.808350	37.887257
695.902283	855.595825	5443.045898	2732.900391	40.922615
696.228210	962.545288	5356.576172	2723.798340	40.082855
696.554138	923.861450	5402.086426	2751.104736	40.802845
696.879944	894.279663	5584.127930	2739.727051	39.349831
697.205750	903.381775	5593.229980	2641.879639	37.069386
697.531433	962.545288	5750.241211	2833.023438	39.068443
697.857178	971.647400	5798.026855	2787.512939	37.623760
698.182739	962.545288	5889.047852	2821.645752	37.736721
698.508423	971.647400	6232.651367	2967.279053	37.932526
698.833984	985.300537	6385.111328	3065.126465	38.516647
699.159485	978.473938	6710.510742	3124.290039	37.435493
699.484924	960.269775	6769.674316	3322.260254	40.658051
699.810303	960.269775	6935.787598	3281.301025	38.842346
700.135681	953.443237	6851.593262	3231.239502	38.618828
700.460999	987.576050	6774.225586	3188.004639	38.025955
700.786255	1001.229126	6505.713867	3108.361328	38.280281
701.111450	998.953613	6485.234375	3137.943115	38.987968
701.436646	889.728638	6271.335449	3005.962891	39.323467
701.761719	889.728638	6011.925781	2880.809326	38.871613
702.086792	1044.463989	5916.354004	2721.522949	34.423168
702.411865	919.310425	5700.179688	2807.992676	39.504997
702.736816	978.473938	5456.698730	2746.553711	39.481712
703.061646	1001.229126	5413.463867	2548.583252	35.069622
703.386536	948.892151	5210.942871	2562.236328	37.853706
703.711365	976.198425	5081.237793	2468.940186	36.363636
704.036194	885.177612	5019.798828	2525.828125	39.680794
704.360901	948.892151	4969.737305	2512.175049	38.879463
704.685547	994.402588	5115.370605	2437.082764	35.008286
705.010132	989.851563	4885.542969	2459.837891	37.733643
705.334717	1023.984375	4739.909668	2459.837891	38.640537
705.659302	903.381775	4810.451172	2400.674561	38.322655
705.983765	889.728638	4892.369629	2261.867676	34.280842
706.308228	892.004150	4883.267578	2366.541748	36.944130
706.632568	926.136963	4685.297363	2484.868652	41.464890
706.956909	935.239075	4796.797852	2380.194824	37.418976
707.281189	989.851563	4708.052734	2368.817139	37.086899
707.605408	980.749451	4667.093262	2466.664551	40.308640
707.929626	905.657288	4830.930664	2380.194824	37.565220
708.253784	1010.331238	4862.788086	2430.256104	36.857643
708.577820	951.167725	4783.144531	2519.001465	40.914490
708.901855	973.922913	4844.583984	2446.184814	38.036446
709.225830	921.585938	4855.961426	2457.562500	39.039909
709.549805	919.310425	4867.338867	2468.940186	39.250725
709.873718	837.391663	4849.134766	2380.194824	38.457180
710.197510	1028.535400	4824.104004	2409.776611	36.390892
710.521362	935.239075	4906.022949	2346.062012	35.530087
710.845093	964.820801	5088.064453	2516.726074	37.637970
711.168701	987.576050	5053.931641	2562.236328	38.724117
711.492432	948.892151	4985.666016	2619.124512	41.375427
711.816040	921.585938	4997.043457	2569.062988	40.424347
712.139587	942.065613	5138.125977	2612.297852	39.804768
712.463074	898.830688	5201.840332	2619.124512	39.978851
712.786499	937.514587	5065.309082	2548.583252	39.029770
713.109924	1001.229126	5065.309082	2580.440674	38.857788
713.433350	971.647400	5119.921875	2523.552490	37.410858
713.756592	921.585938	4960.635254	2487.144287	38.760567
714.079834	907.932800	4983.390625	2473.491211	38.414295
714.403015	973.922913	4744.460938	2512.175049	40.796623
714.726196	1001.229126	4953.808594	2439.358398	36.384575
715.049255	869.248962	4833.206055	2380.194824	38.117107
715.372375	905.657288	4735.358887	2375.643799	38.383839
715.695435	998.953613	4710.328125	2443.909424	38.933170
716.018311	967.096313	4774.042480	2305.102539	35.146442
716.341248	983.024963	4880.992188	2225.459229	31.873903
716.664063	946.616638	4769.491699	2402.949951	38.095238
716.987000	953.443237	4680.746094	2350.613037	37.484741
717.309692	864.697876	4744.460938	2375.643799	38.944283
717.632385	978.473938	4767.216309	2359.715088	36.456455
717.955078	937.514587	4571.521484	2302.827148	37.570442
718.277649	932.963501	4594.276367	2311.929199	37.663147
718.600220	983.024963	4505.531250	2175.397949	33.850132
718.922791	901.106262	4425.888184	2234.561523	37.830860
719.245300	971.647400	4441.816406	2291.449463	38.032787
719.567688	919.310425	4341.693848	2138.989502	35.638294
719.890015	912.483826	4177.855957	2175.397949	38.675961
720.212341	967.096313	4127.794922	2123.060791	36.573067
720.534607	928.412476	4080.008789	2091.203613	36.895309
720.856873	994.402588	4175.580566	2036.591064	32.761086
721.179016	937.514587	4114.141602	2184.500000	39.255013
721.501160	980.749451	4202.886719	2077.550537	34.039551
721.823242	905.657288	4027.671875	1979.703125	34.402332
722.145264	983.024963	3927.548828	2068.448486	36.862446
722.467224	971.647400	3932.099854	1915.988525	31.898540
722.789185	973.922913	3957.130615	2148.091553	39.359268
723.111023	921.585938	3838.803711	1997.907227	36.895473
723.432861	919.310425	3909.344727	2047.968750	37.747337
723.754578	973.922913	3932.099854	1981.978638	34.076923
724.076294	937.514587	3843.354736	1952.396851	34.925606
724.397949	960.269775	3779.640137	1961.498901	35.512508
724.719666	946.616638	3982.161377	2034.315552	35.832085
725.041260	892.004150	3731.854004	2000.182739	39.022434
725.362732	971.647400	3893.416016	2016.111450	35.747669
725.684265	912.483826	3920.722412	1988.805176	35.779121
726.005676	912.483826	3841.079102	1986.529663	36.674438
726.327087	912.483826	3829.701416	2150.367188	42.433701
726.648438	994.402588	3938.926514	2057.070801	36.089645
726.969666	969.371887	3943.477539	2032.040039	35.730682
727.290894	976.198425	3904.793701	2084.376953	37.839931
727.612061	978.473938	3936.650879	2034.315552	35.692307
727.933228	971.647400	4009.467773	2061.621826	35.880146
728.254395	903.381775	4070.906738	2102.581299	37.859196
728.575378	987.576050	4130.070313	2057.070801	34.033310
728.896301	957.994263	4034.498291	2066.172852	36.020710
729.217285	935.239075	4084.559814	2047.968750	35.332371
729.538147	912.483826	4093.661865	2093.479248	37.124466
729.858948	1033.086426	4084.559814	2041.142212	33.035049
730.179810	953.443237	4107.314941	2034.315552	34.271286
730.500549	980.749451	4159.651855	2095.754639	35.075161
730.821228	962.545288	4086.835449	2075.274902	35.615440
731.141846	942.065613	4098.212891	2109.407715	36.986298
731.462402	892.004150	4016.294189	2120.785400	39.329937
731.782898	921.585938	4193.784668	2154.918213	37.691238
732.103455	973.922913	4280.254395	2154.918213	35.719204
732.423889	955.718750	4166.478516	2102.581299	35.719353
732.744263	971.647400	4141.447754	2100.305664	35.606602
733.064636	921.585938	4186.958496	2102.581299	36.167248
733.384888	962.545288	4271.152344	2179.948975	36.795052
733.705200	942.065613	4248.397461	2054.795166	33.654503
734.025330	953.443237	4145.999023	2129.887451	36.849606
734.345520	923.861450	4280.254395	2045.693237	33.423733
734.665527	976.198425	4234.744141	2045.693237	32.821232
734.985596	923.861450	4082.284424	2036.591064	35.230545
735.305542	967.096313	3918.446777	1995.631714	34.849651
735.625549	953.443237	3882.038574	2041.142212	37.140640
735.945435	907.932800	3932.099854	2072.999512	38.525208
736.265259	964.820801	3861.558838	1931.917114	33.385700
736.585083	930.687988	3861.558838	1886.406738	32.608696
736.904785	937.514587	3759.160400	1956.947876	36.129032
737.224426	930.687988	3852.456787	1954.672363	35.046730
737.544128	944.341125	3752.333740	1959.223389	36.142624
737.863708	978.473938	3720.476563	1938.743774	35.020748
738.183289	905.657288	3695.445801	1927.366089	36.623161
738.502808	1003.504700	3777.364502	2034.315552	37.161602
738.822205	823.738525	3763.711426	1979.703125	39.318886
739.141541	971.647400	3841.079102	1945.570313	33.941319
739.460938	1010.331238	3918.446777	2009.284912	34.350552
739.780212	973.922913	3995.814453	2029.764526	34.939754
740.099426	960.269775	3913.895752	1988.805176	34.822803
740.418640	937.514587	3954.855225	2007.009399	35.444950
740.737793	921.585938	3845.630127	1995.631714	36.731518
741.056885	928.412476	3920.722412	1936.468262	33.688213
741.375977	946.616638	3845.630127	1941.019287	34.301414
741.694946	951.167725	3754.609375	1913.713013	34.334415
742.013855	928.412476	3718.200928	1961.498901	37.030994
742.332703	907.932800	3688.619141	1929.641602	36.743046
742.651550	905.657288	3606.700439	1879.580200	36.057289
742.970398	919.310425	3558.914551	1893.233276	36.896553
743.289124	892.004150	3606.700439	1927.366089	38.139145
743.607788	957.994263	3563.465576	1827.243164	33.362446
743.926453	935.239075	3470.169189	1865.927002	36.714539
744.245056	967.096313	3492.924316	1802.212524	33.063065
744.563599	985.300537	3417.832275	1849.998413	35.547237
744.882141	971.647400	3454.240479	1859.100464	35.747021
745.200500	907.932800	3438.312012	1834.069824	36.600723
745.518860	896.555176	3451.965088	1856.824951	37.577915
745.837219	919.310425	3517.955078	1774.906250	32.924698
746.155518	901.106262	3440.587402	1788.559326	34.946236
746.473755	919.310425	3411.005615	1815.865601	35.981735
746.791992	923.861450	3365.495361	1820.416626	36.719479
747.110107	964.820801	3370.046387	1686.160889	29.990538
747.428162	964.820801	3281.301025	1777.181763	35.068764
747.746216	919.310425	3445.138428	1772.630737	33.783783
748.064148	887.453125	3392.801514	1827.243164	37.511353
748.382080	930.687988	3322.260254	1852.273926	38.534733
748.700073	1008.055725	3417.832275	1861.375977	35.410763
749.017822	951.167725	3404.179199	1736.222412	32.003712
749.335632	1001.229126	3331.362549	1729.395752	31.249998
749.653320	939.790100	3438.312012	1818.141113	35.154823
749.971008	930.687988	3399.628174	1840.896362	36.866360
750.288696	948.892151	3385.974854	1822.692139	35.854343
750.606262	983.024963	3458.791504	1772.630737	31.893385
750.923828	921.585938	3349.566650	1784.008301	35.520149
751.241272	876.075500	3304.056152	1731.671387	35.238991
751.558716	946.616638	3358.668701	1824.967651	36.415096
751.876038	946.616638	3420.107666	1715.742676	31.094759
752.193481	951.167725	3354.117676	1745.324463	33.049240
752.510681	987.576050	3322.260254	1774.906250	33.723202
752.827942	992.127075	3326.811523	1765.804199	33.138401
753.145081	903.381775	3272.198975	1708.916138	34.005764
753.462219	937.514587	3263.096924	1699.814087	32.778866
753.779297	1001.229126	3226.688477	1690.711914	30.981592
754.096375	976.198425	3224.413086	1715.742676	32.894737
754.413330	973.922913	3210.759766	1708.916138	32.858597
754.730286	983.024963	3190.280273	1733.946899	34.020618
755.047119	953.443237	3137.943115	1697.538574	34.062500
755.363892	935.239075	3142.494141	1733.946899	36.185570
755.680725	983.024963	3162.973877	1681.609863	32.045929
755.997498	957.994263	3331.362549	1654.303589	29.338446
756.314148	962.545288	3267.647949	1679.334351	31.095757
756.630737	935.239075	3213.035400	1599.691162	29.170830
756.947327	946.616638	3192.555664	1715.742676	34.245190
757.263855	914.759338	3194.831299	1686.160889	33.832333
757.580261	910.208313	3096.983887	1724.844727	37.252857
757.896729	887.453125	3128.841064	1688.436401	35.736038
758.213074	989.851563	3228.964111	1688.436401	31.199184
758.529419	930.687988	3249.443604	1770.355225	36.211975
758.845642	910.208313	3199.382324	1611.068726	30.616301
759.161865	946.616638	3381.423828	1708.916138	31.308414
759.478149	967.096313	3367.770752	1713.467163	31.090050
759.794189	894.279663	3365.495361	1661.130127	31.031303
760.110229	957.994263	3322.260254	1829.518677	36.862366
760.426270	985.300537	3324.535889	1793.110352	34.533070
760.742249	917.034912	3329.086914	1695.262939	32.264149
761.058105	989.851563	3276.750000	1724.844727	32.139301
761.374023	955.718750	3354.117676	1729.395752	32.258060
761.689819	942.065613	3299.505127	1786.283813	35.810810
762.005554	930.687988	3351.842041	1738.497925	33.364666
762.321289	955.718750	3242.617188	1763.528564	35.323380
762.636902	948.892151	3290.403076	1729.395752	33.333332
762.952515	983.024963	3449.689453	1754.426514	31.273062
763.268127	946.616638	3463.342773	1774.906250	32.911392
763.583618	917.034912	3618.078125	1863.651489	35.046333
763.899048	962.545288	4036.773926	2013.835938	34.196892
764.214478	976.198425	4378.102051	2107.132324	33.244148
764.529785	973.922913	4696.674805	2232.285889	33.801956
764.845093	1033.086426	4796.797852	2177.673340	30.411123
765.160400	910.208313	4769.491699	2202.704102	33.490566
765.475586	971.647400	4541.939453	2225.459229	35.117905
765.790771	976.198425	4423.612305	2054.795166	31.287125
766.105835	960.269775	4262.050293	2002.458252	31.564438
766.420837	889.728638	3847.905762	2025.213501	38.384613
766.735840	932.963501	3845.630127	1975.152100	35.781254
767.050842	912.483826	3761.435791	1929.641602	35.702877
767.365662	939.790100	3583.945313	1911.437500	36.746986
767.680542	912.483826	3529.332764	1877.304688	36.869568
767.995300	894.279663	3470.169189	1784.008301	34.540634
768.309998	896.555176	3533.883789	1795.385864	34.081104
768.624817	853.320313	3461.067139	1754.426514	34.554974
768.939392	910.208313	3308.607178	1708.916138	33.301708
769.254028	937.514587	3310.882813	1772.630737	35.186962
769.568481	948.892151	3101.534912	1702.089600	34.989429
769.882935	914.759338	3108.361328	1583.762451	30.497925
770.197388	935.239075	3233.515137	1681.609863	32.475243
770.511841	932.963501	3256.270264	1640.650513	30.460337
770.826172	944.341125	3099.259277	1681.609863	34.213306
771.140442	892.004150	3112.912354	1695.262939	36.168034
771.454651	951.167725	2976.381104	1629.272949	33.483150
771.768860	946.616638	3083.330566	1615.619751	31.309906
772.082886	896.555176	2965.003662	1601.966675	34.103413
772.397034	973.922913	3005.962891	1656.579102	33.594624
772.711060	957.994263	2951.350586	1670.232300	35.730595
773.025024	887.453125	2994.585449	1624.721802	34.989197
773.338928	946.616638	2919.493164	1595.140137	32.871979
773.652771	923.861450	2805.717041	1586.037964	35.187424
773.966614	971.647400	2839.849854	1576.935913	32.399513
774.280457	955.718750	2848.952148	1547.354126	31.249996
774.594116	910.208313	2892.187012	1595.140137	34.557980
774.907776	887.453125	2805.717041	1545.078613	34.282326
775.221375	848.769287	2780.686523	1576.935913	37.691399
775.534912	953.443237	2746.553711	1510.945801	31.091368
775.848450	894.279663	2730.625000	1588.313477	37.794296
776.161926	967.096313	2748.829102	1499.568237	29.885061
776.475342	917.034912	2614.573486	1535.976563	36.461124
776.788696	946.616638	2771.584229	1588.313477	35.162098
777.101990	944.341125	2737.451416	1517.772339	31.979694
777.415283	971.647400	2737.451416	1490.466064	29.381441
777.728516	921.585938	2851.227539	1529.150024	31.485851
778.041626	967.096313	2616.848877	1469.986450	30.482761
778.354736	962.545288	2705.594238	1495.017212	30.548306
778.667725	951.167725	2723.798340	1495.017212	30.680363
778.980774	932.963501	2707.869873	1531.425537	33.717949
779.293640	921.585938	2694.216553	1506.394775	32.991016
779.606567	987.576050	2653.257324	1465.435425	28.688524
779.919434	967.096313	2721.522949	1451.782227	27.626457
780.232239	946.616638	2698.767578	1535.976563	33.636368
780.544983	907.932800	2744.278076	1476.812988	30.978935
780.857666	860.146851	2619.124512	1463.159912	34.282021
781.170227	953.443237	2707.869873	1531.425537	32.944229
781.482849	978.473938	2607.746826	1506.394775	32.402233
781.795410	976.198425	2519.001465	1435.853638	29.793514
782.107910	985.300537	2578.165039	1570.109375	36.714287
782.420288	944.341125	2498.521729	1413.098389	30.161053
782.732666	1008.055725	2591.818115	1460.884399	28.591957
783.044983	912.483826	2471.215576	1481.364014	36.496349
783.357300	948.892151	2550.858887	1469.986450	32.528408
783.669495	969.371887	2514.450439	1444.955688	30.780558
783.981689	914.759338	2623.675537	1469.986450	32.490013
784.293762	983.024963	2425.705078	1376.690063	27.287067
784.605835	923.861450	2539.481201	1447.231201	32.394363
784.917908	882.902100	2521.277100	1458.608887	35.138889
785.229858	905.657288	2464.388916	1458.608887	35.474457
785.541748	876.075500	2489.419678	1413.098389	33.286316
785.853577	967.096313	2434.807373	1472.261963	34.418602
786.165405	844.218201	2443.909424	1399.445313	34.708393
786.477173	953.443237	2503.072998	1401.720825	28.928045
786.788879	935.239075	2371.092773	1419.924927	33.755936
787.100525	967.096313	2396.123291	1431.302612	32.484081
787.412109	967.096313	2427.980713	1415.373901	30.685356
787.723694	1035.361938	2382.470215	1424.476074	28.885141
788.035156	921.585938	2450.735840	1431.302612	33.333336
788.346558	919.310425	2432.531738	1422.200562	33.233086
788.658081	985.300537	2459.837891	1347.108276	24.537035
788.969360	962.545288	2539.481201	1447.231201	30.735929
789.280640	971.647400	2580.440674	1520.047852	34.087692
789.591919	996.678101	2687.390137	1483.639526	28.802151
789.903076	937.514587	2712.420898	1542.803101	34.102562
790.214172	955.718750	2628.226563	1429.027100	28.299320
790.525269	967.096313	2528.103516	1451.782227	31.049562
790.836365	953.443237	2534.930176	1522.323364	35.971218
791.147339	983.024963	2473.491211	1467.710938	32.519081
791.458191	957.994263	2437.082764	1481.364014	35.384613
791.769104	957.994263	2402.949951	1403.996338	30.866142
792.079895	960.269775	2430.256104	1472.261963	34.829723
792.390686	892.004150	2412.052002	1410.822876	34.131737
792.701416	882.902100	2509.899414	1410.822876	32.447552
793.012085	944.341125	2289.173828	1369.863525	31.641287
793.322693	928.412476	2341.510986	1385.792114	32.367146
793.633240	973.922913	2327.857666	1408.547363	32.100842
793.943787	948.892151	2282.347412	1369.863525	31.569965
794.254272	944.341125	2266.418701	1433.578125	37.005165
794.564636	912.483826	2243.663574	1356.210449	33.333340
794.875000	967.096313	2371.092773	1303.873413	23.987034
795.185303	903.381775	2334.684326	1463.159912	39.109703
795.495544	937.514587	2175.397949	1322.077637	31.066179
795.805786	937.514587	2339.235352	1301.597900	25.974028
796.115906	994.402588	2368.817139	1410.822876	30.298012
796.426025	980.749451	2355.164063	1312.975464	24.172184
796.736023	971.647400	2352.888428	1426.751587	32.948936
797.045959	901.106262	2346.062012	1440.404663	37.322830
797.355896	921.585938	2264.143311	1392.618774	35.084747
797.665833	953.443237	2359.715088	1342.557251	27.669899
797.975708	955.718750	2364.266113	1383.516602	30.371563
798.285461	885.177612	2446.184814	1317.526489	27.696789
798.595154	903.381775	2323.306641	1410.822876	35.737183
798.904846	919.310425	2311.929199	1422.200562	36.111115
799.214478	930.687988	2298.276123	1442.680176	37.437599
799.524109	957.994263	2327.857666	1403.996338	32.558144
799.833557	1012.606750	2218.632813	1383.516602	30.754711
800.143005	942.065613	2220.908203	1310.699951	28.825624
800.452393	951.167725	2166.295898	1351.659302	32.958794
800.761780	869.248962	2189.051025	1317.526489	33.965515
801.071106	1003.504700	2277.796387	1324.353149	25.178572
801.380371	896.555176	2107.132324	1315.250977	34.586460
801.689575	917.034912	2152.642578	1333.455200	33.701660
801.998718	873.799988	2164.020264	1303.873413	33.333336
802.307800	919.310425	2104.856689	1221.954712	25.527834
802.616882	996.678101	2138.989502	1219.679199	19.521919
802.925903	946.616638	2216.357178	1310.699951	28.673838
803.234863	942.065613	2107.132324	1308.424438	31.445311
803.543701	892.004150	2204.979736	1340.281738	34.142113
803.852539	992.127075	2104.856689	1294.771362	27.198368
804.161316	944.341125	2050.244141	1269.740601	29.423870
804.470032	928.412476	2123.060791	1322.077637	32.952389
804.778809	944.341125	2143.540527	1233.332275	24.098673
805.087341	903.381775	2118.509766	1328.904175	35.018734
805.395935	926.136963	2170.846924	1328.904175	32.358318
805.704468	985.300537	2066.172852	1292.495850	28.421055
806.012939	969.371887	2086.652588	1292.495850	28.920570
806.321350	951.167725	2138.989502	1310.699951	30.268196
806.629761	937.514587	2161.744873	1326.628662	31.784388
806.938049	928.412476	2191.326416	1342.557251	32.792793
807.246277	896.555176	2195.877686	1269.740601	28.721539
807.554504	969.371887	2223.183838	1340.281738	29.582573
807.862671	1010.331238	2111.683350	1331.179688	29.132233
808.170715	948.892151	2209.530762	1283.393677	26.534290
808.478821	953.443237	2154.918213	1274.291626	26.704542
808.786804	1008.055725	2104.856689	1278.842651	24.688791
809.094727	953.443237	2068.448486	1306.148926	31.632648
809.402649	1019.433350	2134.438477	1290.220337	24.285717
809.710510	996.678101	2123.060791	1215.128052	19.393938
810.018311	996.678101	2134.438477	1290.220337	25.800005
810.326050	960.269775	2032.040039	1308.424438	32.484077
810.633667	930.687988	2107.132324	1312.975464	32.495159
810.941345	898.830688	2041.142212	1246.985352	30.478085
811.248901	914.759338	2054.795166	1224.230225	27.145714
811.556396	944.341125	1927.366089	1262.914063	32.407410
811.863892	955.718750	1993.356201	1258.363037	29.166670
812.171326	885.177612	1991.080688	1385.792114	45.267483
812.478699	969.371887	2025.213501	1287.944824	30.172419
812.786011	944.341125	1906.886475	1251.536499	31.914898
813.093262	939.790100	2000.182739	1308.424438	34.763950
813.400391	932.963501	1959.223389	1217.403687	27.716194
813.707642	987.576050	1929.641602	1226.505737	25.362320
814.014709	921.585938	1920.539551	1176.444214	25.512524
814.321716	978.473938	1959.223389	1180.995239	20.649647
814.628723	985.300537	1847.722900	1208.301514	25.857513
814.935669	989.851563	1972.876587	1219.679199	23.379633
815.242554	928.412476	1877.304688	1283.393677	37.410065
815.549438	944.341125	2047.968750	1215.128052	24.536076
815.856201	992.127075	1945.570313	1260.638550	28.162292
816.162964	957.994263	1988.805176	1246.985352	28.035315
816.469604	996.678101	1977.427612	1231.056763	23.897913
816.776184	871.524475	1979.703125	1258.363037	34.907597
817.082825	889.728638	2050.244141	1224.230225	28.823534
817.389343	957.994263	2011.560425	1285.669312	31.101517
817.695801	957.994263	2018.386963	1285.669312	30.901293
818.002197	946.616638	2009.284912	1265.189575	29.978590
818.308533	939.790100	2022.937988	1287.944824	32.142860
818.614868	953.443237	1943.294800	1262.914063	31.264366
818.921143	978.473938	2009.284912	1258.363037	27.152319
819.227356	901.106262	2013.835938	1376.690063	42.740280
819.533447	823.738525	2000.182739	1351.659302	44.874271
819.839539	919.310425	2068.448486	1308.424438	33.861382
820.145569	919.310425	2134.438477	1276.567139	29.400745
820.451538	889.728638	2204.979736	1272.016113	29.065741
820.757568	903.381775	2309.653564	1433.578125	37.702271
821.063416	994.402588	2496.246338	1415.373901	28.030300
821.369263	932.963501	2721.522949	1435.853638	28.117048
821.675049	946.616638	2660.083740	1492.741699	31.872517
821.980713	878.351013	2767.033203	1442.680176	29.879520
822.286438	964.820801	3213.035400	1613.344238	28.846153
822.592102	932.963501	4059.529053	1827.243164	28.602621
822.897583	937.514587	5884.496582	2623.675537	34.084637
823.203125	935.239075	8271.518555	3190.280273	30.738214
823.508545	932.963501	9903.066406	3763.711426	31.557589
823.813965	957.994263	10421.885742	3806.946289	30.103390
824.119263	978.473938	9375.145508	3463.342773	29.593498
824.424622	962.545288	7884.679688	3046.922363	30.111767
824.729858	887.453125	6753.745605	2730.625000	31.419706
825.035095	987.576050	5838.986328	2437.082764	29.878050
825.340149	887.453125	5072.135742	2311.929199	34.040241
825.645264	892.004150	4689.848145	2125.336426	32.474537
825.950256	942.065613	4200.611328	2013.835938	32.891060
826.255310	967.096313	4082.284424	1797.661377	26.661797
826.560242	987.576050	3797.844238	1840.896362	30.364374
826.865112	971.647400	3597.598389	1777.181763	30.675911
827.169922	892.004150	3338.188965	1731.671387	34.325584
827.474670	935.239075	3618.078125	1781.732788	31.552160
827.779419	948.892151	4177.855957	1943.294800	30.796339
828.084045	996.678101	4651.164551	2070.723877	29.389788
828.388672	921.585938	5012.972168	2184.500000	30.867632
828.693176	855.595825	4974.288574	2116.234375	30.607735
828.997681	903.381775	4305.285156	2025.213501	32.976593
829.302124	896.555176	3811.497314	1895.508789	34.270100
829.606567	946.616638	3467.893799	1695.262939	29.693138
829.910828	919.310425	3128.841064	1667.956787	33.882595
830.215149	960.269775	2839.849854	1586.037964	33.292980
830.519348	910.208313	2682.839111	1595.140137	38.639282
830.823547	937.514587	2682.839111	1440.404663	28.813559
831.127686	928.412476	2473.491211	1381.241089	29.307802
831.431763	896.555176	2391.572266	1338.006226	29.528160
831.735779	917.034912	2220.908203	1367.588013	34.554977
832.039734	967.096313	2161.744873	1297.046875	27.619049
832.343628	971.647400	2214.081787	1272.016113	24.175821
832.647461	973.922913	2161.744873	1338.006226	30.651335
832.951233	957.994263	2057.070801	1237.883301	25.465837
833.255127	946.616638	2098.030273	1274.291626	28.458496
833.558777	969.371887	2132.163086	1303.873413	28.767117
833.862366	967.096313	2257.316650	1374.414551	31.569664
834.165955	946.616638	2587.267090	1413.098389	28.432734
834.469482	1010.331238	3008.238525	1458.608887	22.437361
834.773010	948.892151	3347.291016	1692.987427	31.024668
835.076416	1012.606750	3479.271240	1774.906250	30.904060
835.379822	946.616638	3415.556641	1713.467163	31.059910
835.683105	998.953613	3115.187988	1658.854614	31.182795
835.986389	946.616638	2899.013428	1608.793213	33.916088
836.289612	910.208313	2803.441650	1469.986450	29.567307
836.592773	928.412476	2582.716064	1419.924927	29.711140
836.895874	939.790100	2393.847900	1369.863525	29.577463
837.198914	1008.055725	2284.622803	1401.720825	30.837791
837.501892	910.208313	2232.285889	1363.036987	34.251293
837.804871	939.790100	2070.723877	1269.740601	29.175049
838.107666	955.718750	2032.040039	1221.954712	24.735733
838.410583	992.127075	1984.254150	1237.883301	24.770639
838.713379	914.759338	1856.824951	1262.914063	36.956528
839.016052	953.443237	1811.314575	1199.199463	28.647213
839.318787	973.922913	1822.692139	1224.230225	29.490620
839.621338	919.310425	1886.406738	1160.515625	24.941177
839.923889	923.861450	1770.355225	1099.076538	20.698923
840.226440	996.678101	1699.814087	1174.168701	25.242714
840.528931	907.932800	1859.100464	1185.546387	29.186609
840.831299	910.208313	1952.396851	1146.862427	22.707420
841.133606	903.381775	2075.274902	1272.016113	31.456312
841.435913	973.922913	2075.274902	1256.087524	25.619839
841.738220	942.065613	1972.876587	1224.230225	27.373068
842.040405	901.106262	1877.304688	1192.372925	29.836830
842.342529	876.075500	1740.773438	1194.648438	36.842106
842.644592	930.687988	1831.794189	1217.403687	31.818192
842.946594	980.749451	1722.569214	1231.056763	33.742336
843.248596	960.269775	1681.609863	1108.178589	20.504726
843.550598	953.443237	1677.058838	1174.168701	30.503138
843.852478	946.616638	1622.446289	1160.515625	31.649837
844.154236	951.167725	1535.976563	1083.147949	22.568096
844.455994	969.371887	1556.456177	1078.596802	18.604639
844.757690	919.310425	1547.354126	1144.586914	35.869556
845.059326	967.096313	1526.874512	1078.596802	19.918692
845.360962	1001.229126	1533.701050	1035.361938	6.410256
845.662476	953.443237	1515.496826	1115.005249	28.744947
845.963989	905.657288	1474.537476	1094.525513	33.200001
846.265381	910.208313	1463.159912	1046.739624	24.691368
846.566772	921.585938	1488.190552	1085.423462	28.915670
846.868042	985.300537	1415.373901	1126.382813	32.804234
847.169373	987.576050	1479.088501	1049.015137	12.500007
847.470581	946.616638	1465.435425	1119.556274	33.333340
847.771729	846.493713	1490.466064	1064.943726	33.922264
848.072815	967.096313	1417.649414	1085.423462	26.262642
848.373901	942.065613	1435.853638	1064.943726	24.884790
848.674866	964.820801	1474.537476	1030.810913	12.946430
848.975891	926.136963	1454.057739	1094.525513	31.896557
849.276794	939.790100	1469.986450	1105.903076	31.330463
849.577637	923.861450	1451.782227	1087.698975	31.034491
849.878357	971.647400	1363.036987	1085.423462	29.069773
850.179077	983.024963	1397.169800	1005.780212	5.494515
850.479736	946.616638	1374.414551	1039.912964	21.808504
850.780396	953.443237	1401.720825	1058.117188	23.350252
851.080994	994.402588	1429.027100	1044.463989	11.518311
851.381470	973.922913	1403.996338	1096.801025	28.571426
851.681946	948.892151	1369.863525	1019.433350	16.756769
851.982361	955.718750	1394.894287	1053.566162	22.279795
852.282715	985.300537	1390.343262	1033.086426	11.797740
852.583008	903.381775	1322.077637	1055.841675	36.413040
852.883240	930.687988	1433.578125	1119.556274	37.556568
853.183411	939.790100	1322.077637	1119.556274	47.023811
853.483521	901.106262	1333.455200	1053.566162	35.263161
853.783630	917.034912	1399.445313	1035.361938	24.528292
854.083679	964.820801	1381.241089	1037.637451	17.486336
854.383667	896.555176	1401.720825	1037.637451	27.927923
854.683533	955.718750	1333.455200	1085.423462	34.337357
854.983337	998.953613	1381.241089	1019.433350	5.357156
855.283203	935.239075	1392.618774	1030.810913	20.895514
855.582886	962.545288	1324.353149	1053.566162	25.157240
855.882629	964.820801	1388.067749	1019.433350	12.903235
856.182312	996.678101	1413.098389	1071.770264	18.032782
856.481873	932.963501	1403.996338	960.269775	5.797106
856.781372	923.861450	1351.659302	1108.178589	43.085102
857.080872	1030.810913	1331.179688	996.678101	-11.363635
857.380310	960.269775	1356.210449	1019.433350	14.942535
857.679688	926.136963	1403.996338	1085.423462	33.333344
857.979004	876.075500	1342.557251	978.473938	21.951220
858.278259	992.127075	1331.179688	1010.331238	5.369126
858.577454	994.402588	1417.649414	1076.321289	19.354830
858.876648	1021.708862	1317.526489	1012.606750	-3.076934
859.175720	1019.433350	1408.547363	1089.974487	18.128654
859.474792	912.483826	1372.139038	1101.352051	41.089108
859.773743	980.749451	1278.842651	1014.882263	11.450383
860.072693	960.269775	1326.628662	1074.045776	31.055887
860.371521	989.851563	1365.312500	1019.433350	7.878792
860.670349	1005.780212	1253.812012	976.198425	-11.926611
860.969116	951.167725	1294.771362	1062.668213	32.450321
861.267883	976.198425	1328.904175	1035.361938	16.774185
861.566589	946.616638	1265.189575	957.994263	3.571435
861.865112	987.576050	1308.424438	987.576050	0.000000
862.163635	937.514587	1406.271851	1044.463989	22.815519
862.462158	967.096313	1394.894287	1021.708862	12.765967
862.760620	944.341125	1353.934937	1049.015137	25.555565
863.059021	914.759338	1294.771362	989.851563	19.760487
863.357361	935.239075	1349.383789	1030.810913	23.076918
863.655640	919.310425	1356.210449	1049.015137	29.687504
863.953857	898.830688	1358.485962	987.576050	19.306938
864.251953	937.514587	1285.669312	1001.229126	18.300638
864.550110	962.545288	1388.067749	978.473938	3.743316
864.848206	980.749451	1440.404663	1019.433350	8.415852
865.146179	969.371887	1303.873413	1014.882263	13.605432
865.444092	878.351013	1340.281738	1035.361938	33.990147
865.741943	942.065613	1344.832764	983.024963	10.169486
866.039795	896.555176	1363.036987	1071.770264	37.560970
866.337646	876.075500	1342.557251	1064.943726	40.487804
866.635376	914.759338	1351.659302	1003.504700	20.312513
866.933044	953.443237	1297.046875	1046.739624	27.152328
867.230652	992.127075	1324.353149	1085.423462	28.082199
867.528198	976.198425	1317.526489	948.892151	-8.000009
867.825745	996.678101	1292.495850	1053.566162	19.230780
868.123230	873.799988	1322.077637	1078.596802	45.685261
868.420593	914.759338	1331.179688	1033.086426	28.415298
868.717896	951.167725	1367.588013	998.953613	11.475399
869.015198	928.412476	1299.322388	1046.739624	31.901857
869.312439	980.749451	1351.659302	1124.107300	38.650322
869.609619	992.127075	1342.557251	1092.250000	28.571434
869.906738	873.799988	1331.179688	1074.045776	43.781082
870.203796	994.402588	1312.975464	1037.637451	13.571420
870.500854	942.065613	1310.699951	1051.290649	29.629642
870.797791	926.136963	1349.383789	1071.770264	34.408600
871.094666	905.657288	1272.016113	1046.739624	38.509331
871.391602	953.443237	1308.424438	1069.494751	32.692299
871.688293	967.096313	1331.179688	1005.780212	10.625011
871.985107	946.616638	1360.761475	1021.708862	18.131874
872.281738	955.718750	1326.628662	1033.086426	20.858887
872.578369	926.136963	1292.495850	985.300537	16.149076
872.874939	928.412476	1331.179688	987.576050	14.689273
873.171509	862.422363	1358.485962	973.922913	22.477068
873.467957	994.402588	1397.169800	962.545288	-7.909606
873.764343	914.759338	1331.179688	1026.259888	26.775961
874.060669	907.932800	1331.179688	1019.433350	26.344091
874.356995	967.096313	1306.148926	1014.882263	14.093963
874.653198	971.647400	1328.904175	1035.361938	17.834383
874.949463	973.922913	1363.036987	978.473938	1.169586
875.245544	937.514587	1294.771362	1030.810913	26.114641
875.541626	901.106262	1358.485962	1089.974487	41.293530
875.837646	928.412476	1344.832764	1051.290649	29.508209
876.133606	907.932800	1347.108276	960.269775	11.917099
876.429565	885.177612	1349.383789	1037.637451	32.843132
876.725403	992.127075	1310.699951	976.198425	-5.000002
877.021179	946.616638	1249.260864	987.576050	13.533849
877.316956	964.820801	1285.669312	998.953613	10.638295
877.612610	919.310425	1360.761475	1083.147949	37.113407
877.908203	885.177612	1310.699951	1051.290649	39.037441
878.203857	928.412476	1312.975464	1087.698975	41.420132
878.499390	905.657288	1283.393677	1012.606750	28.313253
878.794800	992.127075	1365.312500	980.749451	-3.048786
879.090271	889.728638	1326.628662	962.545288	16.666662
879.385559	980.749451	1319.802124	1055.841675	22.147657
879.680847	948.892151	1429.027100	1017.157776	14.218008
879.976196	932.963501	1442.680176	1076.321289	28.124994
880.271301	951.167725	1567.833862	1117.280762	26.937273
880.566467	917.034912	1485.915039	1140.035889	39.199993
880.861572	978.473938	1697.538574	1142.311401	22.784803
881.156555	957.994263	1797.661377	1162.791138	24.390245
881.451477	887.453125	1993.356201	1278.842651	35.390942
881.746460	932.963501	2537.205811	1335.730713	25.106382
882.041321	1003.504700	3372.321777	1606.517700	25.456291
882.336121	926.136963	4132.345703	1824.967651	28.034067
882.630798	907.932800	4478.225098	2002.458252	30.656466
882.925537	998.953613	4528.286621	1895.508789	25.402964
883.220215	937.514587	4159.651855	1879.580200	29.237291
883.514771	1010.331238	3813.772949	1827.243164	29.139608
883.809326	1001.229126	3622.629150	1727.120239	27.690971
884.103760	914.759338	3306.331787	1586.037964	28.068504
884.398132	1037.637451	3135.667725	1597.415649	26.681131
884.692505	1035.361938	2924.044189	1472.261963	23.132532
884.986816	962.545288	2848.952148	1372.139038	21.712906
885.281067	907.932800	2664.634766	1403.996338	28.238344
885.575256	964.820801	2473.491211	1258.363037	19.457016
885.869385	971.647400	2257.316650	1262.914063	22.654869
886.163452	1008.055725	2020.662476	1285.669312	27.415735
886.457458	948.892151	1975.152100	1105.903076	15.299332
886.751465	964.820801	1849.998413	1155.964600	21.593836
887.045410	926.136963	1747.599976	1219.679199	35.734077
887.339233	866.973450	1681.609863	1119.556274	31.005590
887.632996	939.790100	1613.344238	1096.801025	23.310810
887.926758	935.239075	1561.007324	1119.556274	29.454546
888.220398	960.269775	1488.190552	1021.708862	11.637937
888.514099	937.514587	1438.129150	1062.668213	24.999996
888.807678	983.024963	1385.792114	1053.566162	17.514139
889.101196	928.412476	1474.537476	1074.045776	26.666660
889.394653	862.422363	1422.200562	1074.045776	37.804871
889.688049	951.167725	1385.792114	971.647400	4.712040
889.981384	987.576050	1369.863525	1046.739624	15.476200
890.274719	889.728638	1365.312500	1035.361938	30.622002
890.567932	932.963501	1372.139038	939.790100	1.554412
>>>>>End Processed Spectral Data<<<<<
