Jaz Data File
++++++++++++++++++++++++++++++++++++
Date: Wed Feb 07 06:51:07 2024
User: jaz
Dark Spectrum Present: Yes
Reference Spectrum Present: Yes
Processed Spectrum Present: Yes
Spectrometers: JAZA3692
Integration Time (usec): 42900 (JAZA3692)
Spectra Averaged: 1 (JAZA3692)
Boxcar Smoothing: 0 (JAZA3692)
Correct for Electrical Dark: No (JAZA3692)
Strobe/Lamp Enabled: Yes (JAZA3692)
Correct for Detector Non-linearity: No (JAZA3692)
Correct for Stray Light: No (JAZA3692)
Number of Pixels in Processed Spectrum: 2048
>>>>>Begin Processed Spectral Data<<<<<
W	D	R	S	P
190.244385	0.000000	0.000000	0.000000	0.000000
190.627136	0.000000	0.000000	0.000000	0.000000
191.009842	907.932800	948.892151	953.443237	111.111229
191.392532	985.300537	1028.535400	841.942688	-331.579285
191.775177	917.034912	967.096313	935.239075	36.363670
192.157791	989.851563	903.381775	917.034912	84.210510
192.540390	992.127075	917.034912	960.269775	42.424267
192.922943	905.657288	1001.229126	921.585938	16.666677
193.305481	1003.504700	1035.361938	930.687988	-228.571945
193.687958	1010.331238	1023.984375	1005.780212	-33.333183
194.070419	948.892151	1019.433350	1003.504700	77.419365
194.452866	1064.943726	928.412476	978.473938	63.333332
194.835251	1030.810913	1012.606750	1062.668213	-175.000076
195.217621	1008.055725	976.198425	994.402588	42.857170
195.599960	1039.912964	1003.504700	964.820801	206.250320
195.982254	1080.872437	976.198425	1012.606750	65.217415
196.364517	1033.086426	971.647400	1078.596802	-74.074051
196.746750	962.545288	1003.504700	989.851563	66.666664
197.128952	1014.882263	994.402588	932.963501	400.000305
197.511139	1067.219238	1001.229126	996.678101	106.896523
197.893280	992.127075	1010.331238	1019.433350	150.000168
198.275391	998.953613	935.239075	994.402588	7.142837
198.657471	1001.229126	1003.504700	1060.392700	2599.940918
199.039520	1049.015137	967.096313	951.167725	119.444359
199.421539	948.892151	1037.637451	980.749451	35.897449
199.803513	967.096313	973.922913	964.820801	-33.333035
200.185471	1001.229126	948.892151	1055.841675	-104.347931
200.567383	1010.331238	1010.331238	996.678101	0.000000
200.949265	989.851563	989.851563	957.994263	0.000000
201.331131	930.687988	1044.463989	983.024963	46.000011
201.712967	946.616638	1037.637451	1012.606750	72.500023
202.094742	976.198425	1030.810913	1012.606750	66.666664
202.476517	980.749451	1026.259888	1014.882263	74.999969
202.858231	957.994263	1055.841675	1001.229126	44.186005
203.239944	969.371887	994.402588	969.371887	0.000000
203.621582	955.718750	935.239075	994.402588	-188.888916
204.003235	937.514587	969.371887	967.096313	92.856979
204.384827	935.239075	1019.433350	953.443237	21.621616
204.766388	937.514587	1017.157776	894.279663	-54.285778
205.147934	985.300537	1039.912964	894.279663	-166.666962
205.529449	1021.708862	953.443237	951.167725	103.333321
205.910904	976.198425	1044.463989	980.749451	6.666649
206.292343	948.892151	1019.433350	964.820801	22.580633
206.673767	930.687988	992.127075	1008.055725	125.925919
207.055115	998.953613	980.749451	1046.739624	-262.500458
207.436462	1010.331238	1012.606750	971.647400	-1700.005371
207.817780	1014.882263	1069.494751	946.616638	-125.000031
208.199051	967.096313	976.198425	1023.984375	624.998474
208.580307	994.402588	983.024963	951.167725	379.999023
208.961517	928.412476	971.647400	998.953613	163.157776
209.342712	983.024963	987.576050	989.851563	149.999329
209.723846	976.198425	989.851563	935.239075	-299.999542
210.104965	1096.801025	1069.494751	1028.535400	249.999771
210.486069	955.718750	1074.045776	935.239075	-17.307690
210.867111	985.300537	1044.463989	985.300537	0.000000
211.248123	962.545288	1046.739624	994.402588	37.837818
211.629120	962.545288	998.953613	996.678101	93.750023
212.010071	994.402588	1044.463989	907.932800	-172.727463
212.390991	951.167725	1026.259888	919.310425	-42.424267
212.771881	983.024963	923.861450	939.790100	73.076904
213.152756	962.545288	992.127075	962.545288	0.000000
213.533569	962.545288	944.341125	1001.229126	-212.499954
213.914368	930.687988	960.269775	964.820801	115.384552
214.295135	989.851563	985.300537	885.177612	2300.008057
214.675858	989.851563	928.412476	932.963501	92.592621
215.056549	978.473938	992.127075	985.300537	50.000225
215.437225	1019.433350	978.473938	962.545288	138.888870
215.817841	978.473938	1071.770264	955.718750	-24.390230
216.198441	1010.331238	985.300537	1001.229126	36.363792
216.579025	928.412476	1028.535400	1019.433350	90.909126
216.959549	1053.566162	1017.157776	930.687988	337.499634
217.340057	973.922913	1012.606750	989.851563	41.176498
217.720535	1003.504700	1008.055725	951.167725	-1150.004028
218.100967	1003.504700	1001.229126	967.096313	1599.965088
218.481369	994.402588	987.576050	1017.157776	-333.334229
218.861740	1003.504700	1067.219238	978.473938	-39.285793
219.242065	955.718750	978.473938	901.106262	-240.000168
219.622391	969.371887	1019.433350	930.687988	-77.272812
220.002670	994.402588	1012.606750	978.473938	-87.500038
220.382919	976.198425	962.545288	1005.780212	-216.666595
220.763123	932.963501	996.678101	946.616638	21.428585
221.143295	937.514587	1014.882263	917.034912	-26.470583
221.523453	992.127075	1005.780212	946.616638	-333.333191
221.903549	957.994263	1003.504700	989.851563	69.999985
222.283630	1046.739624	1023.984375	1019.433350	119.999893
222.663696	976.198425	1035.361938	935.239075	-69.230759
223.043701	923.861450	978.473938	921.585938	-4.166653
223.423676	978.473938	1033.086426	917.034912	-112.499962
223.803635	967.096313	1012.606750	901.106262	-144.999817
224.183548	928.412476	996.678101	1003.504700	110.000053
224.563431	962.545288	1014.882263	957.994263	-8.695621
224.943283	946.616638	1008.055725	917.034912	-48.148056
225.323105	937.514587	1058.117188	992.127075	45.283009
225.702881	1008.055725	1033.086426	1008.055725	0.000000
226.082642	919.310425	1026.259888	978.473938	55.319130
226.462357	1017.157776	1035.361938	994.402588	-124.999916
226.842041	998.953613	967.096313	951.167725	149.999802
227.221695	926.136963	1019.433350	980.749451	58.536552
227.601318	937.514587	1021.708862	1030.810913	110.810768
227.980911	989.851563	996.678101	1030.810913	600.001770
228.360474	976.198425	1021.708862	971.647400	-9.999960
228.739990	1028.535400	1135.484863	919.310425	-102.127655
229.119476	971.647400	1124.107300	976.198425	2.985064
229.498932	1005.780212	1130.933838	1023.984375	14.545454
229.878372	996.678101	1187.821899	939.790100	-29.761887
230.257736	1008.055725	1212.852539	1003.504700	-2.222215
230.637115	980.749451	1203.750488	998.953613	8.163263
231.016449	992.127075	1128.658325	978.473938	-10.000009
231.395737	903.381775	1121.831787	969.371887	30.208336
231.774994	937.514587	1014.882263	1037.637451	129.411743
232.154221	964.820801	1146.862427	969.371887	2.500025
232.533417	937.514587	1146.862427	951.167725	6.521748
232.912582	917.034912	1167.342163	1042.188477	49.999977
233.291702	928.412476	1115.005249	969.371887	21.951231
233.670792	996.678101	1119.556274	994.402588	-1.851845
234.049866	907.932800	1133.209351	985.300537	34.343449
234.428894	957.994263	1176.444214	983.024963	11.458323
234.807892	973.922913	1183.270874	992.127075	8.695648
235.186874	985.300537	1133.209351	939.790100	-30.769253
235.565781	967.096313	1212.852539	871.524475	-38.888878
235.944687	1028.535400	1185.546387	962.545288	-42.028976
236.323547	948.892151	1256.087524	953.443237	1.481496
236.702377	926.136963	1201.474976	987.576050	22.314058
237.081177	980.749451	1174.168701	955.718750	-12.941163
237.459946	980.749451	1190.097412	1023.984375	20.652184
237.838669	942.065613	1165.066650	987.576050	20.408173
238.217361	928.412476	1256.087524	1014.882263	26.388884
238.596039	994.402588	1208.301514	1001.229126	3.191478
238.974670	942.065613	1208.301514	907.932800	-12.820515
239.353271	957.994263	1224.230225	1035.361938	29.059814
239.731842	980.749451	1240.158813	1019.433350	14.912298
240.110367	919.310425	1158.240112	944.341125	10.476178
240.488876	928.412476	1237.883301	1044.463989	37.499985
240.867340	964.820801	1253.812012	994.402588	10.236224
241.245789	1019.433350	1258.363037	973.922913	-19.047628
241.624176	969.371887	1228.781250	951.167725	-7.017543
242.002548	957.994263	1467.710938	1008.055725	9.821429
242.380890	1023.984375	1495.017212	1021.708862	-0.483090
242.759186	1019.433350	1533.701050	919.310425	-19.469028
243.137451	932.963501	1592.864502	989.851563	8.620696
243.515686	971.647400	1658.854614	930.687988	-5.960271
243.893890	964.820801	1658.854614	1042.188477	11.147537
244.272049	967.096313	1517.772339	1021.708862	9.917364
244.650192	889.728638	1606.517700	1108.178589	30.476183
245.028290	905.657288	1506.394775	1060.392700	25.757576
245.406357	960.269775	1492.741699	1010.331238	9.401710
245.784393	955.718750	1447.231201	1010.331238	11.111110
246.162384	907.932800	1501.843750	1021.708862	19.157091
246.540359	948.892151	1592.864502	1064.943726	18.021204
246.918289	955.718750	1615.619751	1053.566162	14.827590
247.296204	989.851563	1756.702026	1035.361938	5.934713
247.674057	973.922913	2066.172852	1071.770264	8.958329
248.051895	976.198425	2243.663574	964.820801	-0.897668
248.429703	948.892151	2352.888428	1135.484863	13.290113
248.807465	1010.331238	2336.959961	1069.494751	4.459689
249.185196	1019.433350	2095.754639	994.402588	-2.325585
249.562897	964.820801	1893.233276	1046.739624	8.823538
249.940567	1001.229126	1840.896362	969.371887	-3.794031
250.318192	1021.708862	1779.457275	987.576050	-4.504505
250.695801	994.402588	1649.752563	1037.637451	6.597218
251.073349	980.749451	1579.211426	1021.708862	6.844112
251.450882	955.718750	1501.843750	985.300537	5.416670
251.828400	1053.566162	1524.598877	983.024963	-14.975860
252.205872	987.576050	1565.558350	971.647400	-2.755906
252.583313	926.136963	1636.099487	1005.780212	11.217951
252.960693	980.749451	1722.569214	1026.259888	6.134972
253.338074	955.718750	1913.713013	1030.810913	7.838477
253.715408	1019.433350	1845.447388	1008.055725	-1.377413
254.092682	923.861450	1665.681274	1044.463989	16.257660
254.469955	989.851563	1654.303589	1005.780212	2.397261
254.847198	937.514587	1574.660400	1060.392700	19.285713
255.224365	1017.157776	1508.670288	973.922913	-8.796289
255.601563	910.208313	1506.394775	962.545288	8.778625
255.978683	973.922913	1547.354126	1033.086426	10.317456
256.355743	976.198425	1499.568237	1042.188477	12.608685
256.732819	930.687988	1570.109375	1055.841675	19.572960
257.109894	944.341125	1549.629639	1023.984375	13.157899
257.486877	1005.780212	1576.935913	1074.045776	11.952181
257.863831	1028.535400	1683.885376	976.198425	-7.986111
258.240753	1008.055725	1672.507813	1044.463989	5.479442
258.617645	1017.157776	1692.987427	1019.433350	0.336708
258.994507	1003.504700	1799.937012	1049.015137	5.714288
259.371307	980.749451	1836.345337	1089.974487	12.765961
259.748108	985.300537	2125.336426	1055.841675	6.187624
260.124878	998.953613	2314.204590	1012.606750	1.038063
260.501617	898.830688	2500.797363	1108.178589	13.068181
260.878296	919.310425	2803.441650	1135.484863	11.473428
261.254944	951.167725	2889.911377	1140.035889	9.741781
261.631561	989.851563	2864.880615	1069.494751	4.247571
262.008179	946.616638	2521.277100	1083.147949	8.670525
262.384735	960.269775	2168.571289	1051.290649	7.532960
262.761261	973.922913	2018.386963	1117.280762	13.725493
263.137695	926.136963	2027.489014	1105.903076	16.322311
263.514191	928.412476	1934.192627	1014.882263	8.597285
263.890594	996.678101	1970.601074	1003.504700	0.700938
264.267029	944.341125	1909.161987	994.402588	5.188680
264.643341	978.473938	1875.029175	1064.943726	9.644670
265.019653	942.065613	1845.447388	994.402588	5.793450
265.395935	992.127075	1831.794189	1137.760376	17.344172
265.772217	1017.157776	1863.651489	932.963501	-9.946238
266.148407	953.443237	1829.518677	964.820801	1.298697
266.524597	992.127075	1970.601074	1026.259888	3.488372
266.900726	926.136963	2029.764526	1010.331238	7.628867
267.276855	967.096313	2004.733887	967.096313	0.000000
267.652924	967.096313	2241.387939	1051.290649	6.607148
268.028992	953.443237	2168.571289	1037.637451	6.928835
268.404999	955.718750	2118.509766	1044.463989	7.632089
268.781006	894.279663	2111.683350	1026.259888	10.841123
269.156921	980.749451	2125.336426	1062.668213	7.157059
269.532837	973.922913	2170.846924	1078.596802	8.745240
269.908661	953.443237	2086.652588	1126.382813	15.261044
270.284546	892.004150	2143.540527	1124.107300	18.545458
270.660339	1023.984375	2148.091553	1110.454102	7.692303
271.036133	937.514587	2141.265137	1046.739624	9.073728
271.411835	944.341125	2364.266113	1067.219238	8.653845
271.787537	969.371887	2448.460449	1058.117188	5.999999
272.163239	967.096313	2616.848877	1119.556274	9.241384
272.538849	1035.361938	2780.686523	1142.311401	6.127769
272.914459	987.576050	2812.543701	1051.290649	3.491273
273.290070	980.749451	2632.777588	1062.668213	4.958679
273.665588	944.341125	2491.695313	1096.801025	9.852941
274.041046	996.678101	2537.205811	1064.943726	4.431314
274.416565	1010.331238	2441.633789	1128.658325	8.267092
274.791962	1005.780212	2389.296875	1071.770264	4.769733
275.167389	971.647400	2316.480225	1060.392700	6.598984
275.542755	983.024963	2402.949951	1053.566162	4.967952
275.918060	989.851563	2245.938965	1028.535400	3.079709
276.293365	1005.780212	2336.959961	1130.933838	9.401708
276.668640	976.198425	2475.766602	1099.076538	8.194234
277.043854	1023.984375	2489.419678	1039.912964	1.086953
277.419037	937.514587	2514.450439	1026.259888	5.627706
277.794189	964.820801	2439.358398	1074.045776	7.407405
278.169312	971.647400	2491.695313	1094.525513	8.083832
278.544373	976.198425	2514.450439	1058.117188	5.325445
278.919464	930.687988	2509.899414	1033.086426	6.484150
279.294464	935.239075	2330.133301	1103.627563	12.071774
279.669464	985.300537	2459.837891	1080.872437	6.481484
280.044403	1012.606750	2380.194824	1069.494751	4.159732
280.419312	944.341125	2437.082764	1030.810913	5.792683
280.794189	1019.433350	2430.256104	1108.178589	6.290318
281.169037	1037.637451	2559.960938	1046.739624	0.597913
281.543854	998.953613	2553.134277	1117.280762	7.613474
281.918671	980.749451	2589.542725	1087.698975	6.647810
282.293365	987.576050	2869.431641	1092.250000	5.562273
282.668091	926.136963	2878.533936	1076.321289	7.692305
283.042786	978.473938	3003.687500	1049.015137	3.483149
283.417419	967.096313	3005.962891	1110.454102	7.031249
283.792053	980.749451	2889.911377	1080.872437	5.244342
284.166595	973.922913	2937.697266	1142.311401	8.574737
284.541138	960.269775	2785.237549	1144.586914	10.099748
284.915619	998.953613	2939.972900	1117.280762	6.096135
285.290100	1055.841675	2921.768799	1069.494751	0.731705
285.664520	996.678101	2894.462402	1085.423462	4.676262
286.038940	930.687988	2935.421875	1060.392700	6.469922
286.413300	987.576050	3140.218750	1080.872437	4.334040
286.787628	896.555176	3165.249512	1151.413574	11.233704
287.161896	955.718750	3219.861816	1133.209351	7.839195
287.536194	1001.229126	3304.056152	1178.719727	7.707509
287.910400	987.576050	3137.943115	1130.933838	6.666666
288.284607	937.514587	3074.228516	1099.076538	7.561235
288.658752	955.718750	2935.421875	1144.586914	9.540227
289.032867	971.647400	2814.819336	1185.546387	11.604939
289.406921	1005.780212	2851.227539	1115.005249	5.918622
289.781006	912.483826	2853.503174	1160.515625	12.778430
290.154999	1008.055725	2878.533936	1074.045776	3.527977
290.529022	1003.504700	3169.800537	1112.729614	5.042013
290.902954	910.208313	3112.912354	1112.729614	9.194213
291.276825	1026.259888	3253.994629	1155.964600	5.822269
291.650757	985.300537	3331.362549	1160.515625	7.468476
292.024597	960.269775	3297.229736	1101.352051	6.037000
292.398407	962.545288	3265.372314	1165.066650	8.794467
292.772156	969.371887	3119.739014	1117.280762	6.878308
293.145905	978.473938	3115.187988	1119.556274	6.602771
293.519592	989.851563	2969.554688	1064.943726	3.793102
293.893280	1037.637451	3053.749023	1117.280762	3.950342
294.266907	917.034912	3110.636963	1137.760376	10.062238
294.640533	980.749451	3294.954102	1146.862427	7.177973
295.014069	978.473938	3249.443604	1144.586914	7.314628
295.387604	1001.229126	3547.536865	1162.791138	6.344953
295.761078	1019.433350	3588.496338	1151.413574	5.137290
296.134552	967.096313	3465.618164	1105.903076	5.555555
296.507996	967.096313	3547.536865	1219.679199	9.788363
296.881378	923.861450	3549.812500	1178.719727	9.705370
297.254730	939.790100	3729.578613	1194.648438	9.135400
297.628021	1028.535400	3988.988037	1178.719727	5.073019
298.001282	953.443237	4034.498291	1224.230225	8.788774
298.374573	1019.433350	4091.386475	1312.975464	9.555553
298.747803	1001.229126	3909.344727	1219.679199	7.511739
299.121002	998.953613	3747.782715	1185.546387	6.788082
299.494141	885.177612	3602.149414	1169.617676	10.469011
299.867188	1001.229126	3565.741211	1206.026001	7.985802
300.240265	1001.229126	3388.250488	1176.444214	7.340323
300.613312	969.371887	3367.770752	1128.658325	6.641366
300.986328	1026.259888	3345.015625	1221.954712	8.439648
301.359314	987.576050	3203.933350	1165.066650	8.008212
301.732239	951.167725	3140.218750	1217.403687	12.162164
302.105103	921.585938	3265.372314	1128.658325	8.834951
302.477997	953.443237	3188.004639	1194.648438	10.794296
302.850830	1003.504700	3367.770752	1160.515625	6.641001
303.223602	1008.055725	3135.667725	1199.199463	8.983956
303.596375	1051.290649	3208.484375	1210.577026	7.383962
303.969116	973.922913	3071.953125	1160.515625	8.893709
304.341766	987.576050	3076.504150	1105.903076	5.664485
304.714478	980.749451	3156.147461	1130.933838	6.903766
305.087067	944.341125	3162.973877	1149.138062	9.230772
305.459656	989.851563	3144.769775	1192.372925	9.398100
305.832214	1003.504700	3172.075928	1155.964600	7.030431
306.204681	971.647400	3040.095703	1092.250000	5.830584
306.577148	907.932800	3056.024414	1055.841675	6.885594
306.949646	998.953613	3140.218750	1117.280762	5.526039
307.322021	921.585938	3167.524902	1130.933838	9.321175
307.694397	935.239075	3126.565674	1087.698975	6.957425
308.066742	1019.433350	3053.749023	1094.525513	3.691274
308.439026	980.749451	3324.535889	1119.556274	5.922333
308.811279	1001.229126	3217.586426	1078.596802	3.490758
309.183502	998.953613	3417.832275	1121.831787	5.079964
309.555695	946.616638	3481.546875	1171.893188	8.886893
309.927887	951.167725	3415.556641	1101.352051	6.094181
310.299988	1023.984375	3556.638916	1190.097412	6.558851
310.672058	942.065613	3499.750977	1089.974487	5.782919
311.044128	946.616638	3558.914551	1124.107300	6.794426
311.416168	914.759338	3654.486328	1192.372925	10.132892
311.788147	942.065613	3636.282227	1153.689087	7.854732
312.160065	967.096313	3615.802490	1165.066650	7.474228
312.531982	944.341125	3549.812500	1201.474976	9.868995
312.903870	992.127075	3433.760986	1171.893188	7.362534
313.275696	948.892151	3417.832275	1171.893188	9.032258
313.647491	1014.882263	3319.984863	1185.546387	7.403754
314.019318	1001.229126	3404.179199	1133.209351	5.492424
314.391022	1017.157776	3415.556641	1133.209351	4.838710
314.762726	1003.504700	3445.138428	1051.290649	1.957130
315.134369	989.851563	3563.465576	1126.382813	5.305040
315.505981	937.514587	3699.996826	1151.413574	7.743000
315.877594	976.198425	3759.160400	1051.290649	2.698284
316.249146	1049.015137	3593.047363	1240.158813	7.513414
316.620636	928.412476	3467.893799	1142.311401	8.422937
316.992157	973.922913	3276.750000	1133.209351	6.916995
317.363586	896.555176	3290.403076	1144.586914	10.361216
317.735016	985.300537	3256.270264	1171.893188	8.216431
318.106354	960.269775	3304.056152	1169.617676	8.932038
318.477722	1026.259888	3347.291016	1012.606750	-0.588236
318.849060	919.310425	3253.994629	1130.933838	9.064327
319.220306	910.208313	3244.892578	1219.679199	13.255363
319.591522	1014.882263	3442.863037	1167.342163	6.279288
319.962738	985.300537	3454.240479	1119.556274	5.437788
320.333923	944.341125	3304.056152	1101.352051	6.653809
320.705017	1042.188477	3310.882813	1094.525513	2.306923
321.076111	998.953613	3329.086914	1115.005249	4.980472
321.447144	978.473938	3283.576416	1126.382813	6.416585
321.818176	914.759338	3222.137451	1158.240112	10.552270
322.189178	967.096313	3201.657715	1099.076538	5.906314
322.560120	1005.780212	3326.811523	1130.933838	5.392156
322.931030	962.545288	3299.505127	1165.066650	8.666018
323.301910	985.300537	3411.005615	1171.893188	7.692306
323.672729	1030.810913	3679.517090	1160.515625	4.896908
324.043549	980.749451	3795.568604	1176.444214	6.952303
324.414337	983.024963	3918.446777	1199.199463	7.364342
324.785095	976.198425	4132.345703	1180.995239	6.488823
325.155792	985.300537	4089.110840	1176.444214	6.158356
325.526428	910.208313	4109.590332	1158.240112	7.752491
325.897034	987.576050	3968.508301	1242.434326	8.549617
326.267670	946.616638	3893.416016	1092.250000	4.942086
326.638184	889.728638	4009.467773	1183.270874	9.409191
327.008728	1028.535400	4068.631104	1178.719727	4.940118
327.379211	1014.882263	4048.151611	1171.893188	5.176294
327.749634	937.514587	3927.548828	1180.995239	8.143072
328.120026	978.473938	3891.140625	1215.128052	8.124998
328.490417	937.514587	3811.497314	1171.893188	8.155185
328.860748	987.576050	3659.037354	1228.781250	9.028960
329.231079	946.616638	3654.486328	1149.138062	7.478994
329.601318	973.922913	3834.252441	1178.719727	7.159903
329.971558	942.065613	3786.466553	1221.954712	9.840002
330.341736	969.371887	3754.609375	1235.607788	9.558822
330.711914	971.647400	3690.894775	1199.199463	8.368200
331.082062	957.994263	3756.884766	1158.240112	7.154472
331.452148	973.922913	3709.098877	1165.066650	6.988352
331.822174	1021.708862	3634.006836	1180.995239	6.097558
332.192200	926.136963	3877.487549	1183.270874	8.712415
332.562134	989.851563	3872.936523	1231.056763	8.366219
332.932129	996.678101	4009.467773	1215.128052	7.250754
333.302063	894.279663	4077.733398	1192.372925	9.363832
333.671906	953.443237	4145.999023	1294.771362	10.691376
334.041718	930.687988	4152.825684	1221.954712	9.039549
334.411499	967.096313	4216.540039	1233.332275	8.193277
334.781281	992.127075	4307.561035	1324.353149	10.020591
335.151001	1008.055725	4230.193359	1208.301514	6.214687
335.520721	1010.331238	3986.712402	1244.709839	7.874617
335.890350	944.341125	4216.540039	1221.954712	8.484007
336.259979	926.136963	4221.091309	1276.567139	10.635358
336.629547	930.687988	4266.601563	1190.097412	7.776263
336.999084	948.892151	4328.040527	1267.465088	9.427610
337.368622	912.483826	4150.549805	1256.087524	10.611387
337.738098	878.351013	4303.009766	1194.648438	9.235882
338.107513	951.167725	4243.846191	1272.016113	9.744298
338.476898	944.341125	4252.948242	1281.118164	10.178816
338.846252	967.096313	4419.061523	1269.740601	8.767303
339.215576	1055.841675	4425.888184	1215.128052	4.726534
339.584869	971.647400	4189.233887	1260.638550	8.981612
339.954132	944.341125	4186.958496	1317.526489	11.508769
340.323334	1028.535400	4155.101074	1256.087524	7.278021
340.692505	926.136963	3950.304199	1208.301514	9.330322
341.061646	960.269775	3977.610352	1240.158813	9.276017
341.430786	967.096313	4173.305176	1262.914063	9.226402
341.799896	926.136963	4127.794922	1244.709839	9.950247
342.168915	876.075500	4373.550781	1287.944824	11.776190
342.537903	937.514587	4428.163574	1319.802124	10.951761
342.906830	1026.259888	4478.225098	1322.077637	8.569546
343.275757	1001.229126	4496.429199	1310.699951	8.854166
343.644684	1042.188477	4460.020996	1378.965576	9.853528
344.013550	1017.157776	4587.449707	1278.842651	7.329509
344.382355	1001.229126	4828.655273	1326.628662	8.501784
344.751129	983.024963	4849.134766	1406.271851	10.947617
345.119873	1092.250000	5015.248047	1385.792114	7.482596
345.488586	1008.055725	5311.065430	1353.934937	8.038076
345.857269	1001.229126	5301.963379	1283.393677	6.560846
346.225891	1008.055725	5531.791016	1403.996338	8.752515
346.594482	1035.361938	5570.475098	1378.965576	7.576517
346.963043	1046.739624	5622.812012	1283.393677	5.171554
347.331543	1010.331238	5042.554199	1399.445313	9.650113
347.700043	948.892151	4976.563965	1392.618774	11.016951
348.068512	887.453125	4933.329102	1283.393677	9.786275
348.436951	994.402588	4985.666016	1413.098389	10.490308
348.805328	951.167725	4769.491699	1303.873413	9.237186
349.173645	1021.708862	4776.318359	1353.934937	8.848486
349.541931	983.024963	4760.389648	1278.842651	7.831325
349.910217	978.473938	4865.063477	1310.699951	8.548009
350.278473	923.861450	4944.706543	1363.036987	10.922468
350.646667	1021.708862	4999.319336	1333.455200	7.837528
351.014801	914.759338	5085.789063	1278.842651	8.728859
351.382935	980.749451	5024.350098	1328.904175	8.610018
351.751007	1035.361938	5010.696777	1378.965576	8.643389
352.119049	1071.770264	5188.187500	1283.393677	5.140962
352.487091	1028.535400	5126.748535	1333.455200	7.440311
352.855072	917.034912	5185.912109	1435.853638	12.153518
353.222992	985.300537	5092.615723	1315.250977	8.033238
353.590881	1010.331238	5427.117188	1381.241089	8.397732
353.958740	987.576050	5620.536621	1303.873413	6.827111
354.326599	987.576050	5697.904297	1347.108276	7.632849
354.694397	985.300537	5889.047852	1401.720825	8.491879
355.062134	898.830688	5964.140137	1397.169800	9.838276
355.429840	994.402588	5925.456055	1399.445313	8.214121
355.797516	992.127075	6159.834961	1451.782227	8.894758
356.165192	1014.882263	6259.957520	1474.537476	8.763558
356.532776	912.483826	6401.040039	1465.435425	10.074628
356.900360	978.473938	6583.081543	1558.731689	10.353228
357.267883	992.127075	6528.469238	1556.456177	10.193175
357.635376	1051.290649	6803.807129	1558.731689	8.821200
358.002808	1008.055725	7493.290039	1583.762451	8.877192
358.370270	948.892151	7682.158203	1556.456177	9.023318
358.737640	955.718750	7552.453613	1620.170776	10.072438
359.105011	1005.780212	7322.625977	1433.578125	6.772335
359.472321	1044.463989	7111.002441	1460.884399	6.864218
359.839569	1067.219238	7090.522949	1438.129150	6.157915
360.206787	962.545288	7024.532715	1447.231201	7.995495
360.574005	873.799988	7136.033203	1599.691162	11.591570
360.941193	962.545288	7754.975098	1581.486938	9.112227
361.308319	926.136963	8021.210938	1617.895264	9.749839
361.675415	1017.157776	8676.560547	1572.384888	7.248961
362.042450	926.136963	9129.389648	1690.711914	9.320388
362.409424	928.412476	9871.208984	1665.681274	8.244275
362.776428	1014.882263	9916.719727	1722.569214	7.949897
363.143402	1033.086426	9432.034180	1674.783325	7.640206
363.510284	946.616638	8792.612305	1601.966675	8.352669
363.877136	989.851563	7898.332520	1504.119263	7.444005
364.243988	955.718750	7388.616211	1454.057739	7.746727
364.610779	964.820801	7172.441406	1381.241089	6.708211
364.977539	951.167725	6967.644531	1440.404663	8.131618
365.344269	1044.463989	6658.173828	1385.792114	6.080259
365.710938	985.300537	6737.816895	1331.179688	6.012658
366.077576	905.657288	6637.694336	1390.343262	8.455737
366.444183	976.198425	6587.632813	1360.761475	6.853204
366.810760	983.024963	6471.581055	1392.618774	7.462688
367.177277	944.341125	6583.081543	1397.169800	8.030671
367.543823	976.198425	6660.449219	1360.761475	6.765413
367.910248	1051.290649	6583.081543	1310.699951	4.689427
368.276642	948.892151	6517.091797	1328.904175	6.824684
368.643036	935.239075	6476.132324	1356.210449	7.597537
369.009399	980.749451	6303.192383	1324.353149	6.455752
369.375671	932.963501	6253.131348	1381.241089	8.426004
369.741974	987.576050	6253.131348	1310.699951	6.136559
370.108215	948.892151	6216.722656	1376.690063	8.120951
370.474396	921.585938	6091.569336	1331.179688	7.922535
370.840546	892.004150	6125.702148	1292.495850	7.652174
371.206665	973.922913	6401.040039	1408.547363	8.008386
371.572784	964.820801	6644.520508	1360.761475	6.971155
371.938843	1008.055725	6601.285645	1301.597900	5.248169
372.304840	935.239075	6705.959961	1363.036987	7.413249
372.670807	932.963501	6649.071777	1290.220337	6.250001
373.036713	962.545288	6712.786133	1335.730713	6.489910
373.402649	964.820801	6503.438477	1363.036987	7.189812
373.768524	985.300537	6594.459473	1301.597900	5.638944
374.134308	960.269775	6494.336426	1353.934937	7.113488
374.500122	894.279663	6412.417480	1338.006226	8.041238
374.865875	971.647400	6692.306641	1347.108276	6.563245
375.231567	996.678101	6708.235352	1356.210449	6.294822
375.597260	1019.433350	6730.990723	1322.077637	5.298805
375.962891	996.678101	6951.715820	1292.495850	4.967521
376.328461	1008.055725	7156.512695	1331.179688	5.255367
376.694031	1019.433350	7215.676270	1306.148926	4.627249
377.059540	985.300537	7659.402832	1460.884399	7.125810
377.425049	1005.780212	7932.465332	1347.108276	4.927726
377.790497	1001.229126	8314.752930	1469.986450	6.409459
378.155945	935.239075	8612.846680	1444.955688	6.639003
378.521301	962.545288	8301.099609	1390.343262	5.829459
378.886597	894.279663	8121.333984	1335.730713	6.108313
379.251892	935.239075	7802.760742	1199.199463	3.843605
379.617157	1010.331238	7584.311035	1312.975464	4.603668
379.982422	944.341125	7286.217773	1283.393677	5.346250
380.347595	942.065613	7167.890625	1269.740601	5.263157
380.712738	998.953613	7240.707031	1303.873413	4.885162
381.077820	992.127075	7288.493164	1297.046875	4.842790
381.442902	960.269775	7463.708008	1372.139038	6.333100
381.807953	983.024963	7163.339355	1269.740601	4.639175
382.172974	980.749451	7161.063965	1383.516602	6.516936
382.537933	951.167725	7097.349609	1274.291626	5.257311
382.902832	987.576050	7151.961914	1310.699951	5.241786
383.267700	998.953613	7593.413086	1331.179688	5.037958
383.632538	932.963501	7566.106445	1324.353149	5.900516
383.997345	976.198425	7805.036133	1312.975464	4.931689
384.362152	912.483826	7741.321777	1301.597900	5.698101
384.726898	971.647400	7761.801270	1358.485962	5.697052
385.091553	942.065613	7939.291992	1317.526489	5.365853
385.456238	985.300537	8114.507324	1449.506714	6.511330
385.820862	980.749451	7962.047363	1322.077637	4.889180
386.185425	980.749451	7925.639160	1287.944824	4.423330
386.549988	946.616638	8157.742188	1224.230225	3.849796
386.914490	960.269775	8109.956055	1319.802124	5.028645
387.278961	983.024963	8166.844238	1312.975464	4.592968
387.643372	1012.606750	8319.303711	1262.914063	3.425725
388.007782	996.678101	8542.304688	1340.281738	4.553679
388.372101	957.994263	8749.377930	1312.975464	4.556074
388.736450	930.687988	8401.222656	1369.863525	5.878770
389.100739	942.065613	8348.885742	1290.220337	4.700461
389.464966	969.371887	8285.170898	1287.944824	4.354589
389.829163	983.024963	8166.844238	1301.597900	4.434590
390.193329	989.851563	8043.965820	1338.006226	4.935484
390.557495	926.136963	8305.651367	1285.669312	4.872033
390.921570	882.902100	8469.488281	1272.016113	5.128974
391.285614	948.892151	8642.427734	1349.383789	5.205560
391.649597	1012.606750	9017.888672	1297.046875	3.553156
392.013550	978.473938	9504.850586	1315.250977	3.949826
392.377502	964.820801	9752.881836	1351.659302	4.401865
392.741455	1019.433350	9507.125977	1306.148926	3.378016
393.105316	1014.882263	9536.708008	1292.495850	3.257677
393.469086	973.922913	9534.432617	1312.975464	3.960658
393.832886	1026.259888	9279.574219	1228.781250	2.453819
394.196655	973.922913	9454.789063	1287.944824	3.702710
394.560333	973.922913	9666.412109	1360.761475	4.450262
394.924042	983.024963	9593.595703	1312.975464	3.831924
395.287659	987.576050	9623.177734	1367.588013	4.400527
395.651245	928.412476	9520.779297	1347.108276	4.872880
396.014771	939.790100	9131.665039	1353.934937	5.055556
396.378296	1035.361938	8854.051758	1287.944824	3.230501
396.741791	928.412476	8776.683594	1231.056763	3.856191
397.105255	953.443237	8453.559570	1292.495850	4.520631
397.468628	1001.229126	8351.161133	1212.852539	2.879257
397.832001	935.239075	8260.140625	1283.393677	4.753028
398.195313	948.892151	8656.081055	1244.709839	3.838205
398.558624	935.239075	8540.029297	1258.363037	4.248953
398.921844	898.830688	8565.060547	1206.026001	4.007123
399.285095	946.616638	8669.734375	1206.026001	3.358868
399.648254	942.065613	8701.591797	1315.250977	4.809383
400.011383	932.963501	8574.162109	1260.638550	4.288268
400.374451	953.443237	8501.345703	1226.505737	3.617727
400.737549	992.127075	8608.294922	1176.444214	2.420077
401.100586	973.922913	8469.488281	1194.648438	2.944748
401.463562	983.024963	8553.682617	1310.699951	4.328224
401.826508	994.402588	8844.949219	1246.985352	3.217391
402.189392	1014.882263	8626.499023	1285.669312	3.557550
402.552246	960.269775	8694.764648	1251.536499	3.765814
402.915070	996.678101	8685.663086	1312.975464	4.113643
403.277893	996.678101	8872.255859	1212.852539	2.744871
403.640656	955.718750	9131.665039	1267.465088	3.812969
404.003326	953.443237	9568.565430	1269.740601	3.671421
404.366028	962.545288	9454.789063	1258.363037	3.483387
404.728699	969.371887	9896.240234	1267.465088	3.339281
405.091248	939.790100	10103.312500	1342.557251	4.395331
405.453857	994.402588	10301.282227	1301.597900	3.300734
405.816345	971.647400	9934.923828	1335.730713	4.061944
406.178833	1030.810913	10176.128906	1224.230225	2.114954
406.541260	1008.055725	10112.414063	1274.291626	2.924269
406.903687	944.341125	9775.637695	1283.393677	3.839216
407.266052	962.545288	9707.372070	1262.914063	3.434817
407.628387	967.096313	9552.636719	1294.771362	3.816592
407.990662	1001.229126	9552.636719	1240.158813	2.794039
408.352905	1008.055725	9463.890625	1212.852539	2.421958
408.715118	989.851563	9336.461914	1235.607788	2.944384
409.077332	998.953613	9236.338867	1253.812012	3.093924
409.439484	1037.637451	9409.278320	1251.536499	2.555043
409.801575	1021.708862	9648.208008	1199.199463	2.057504
410.163605	951.167725	9853.004883	1294.771362	3.859918
410.525635	1055.841675	9971.332031	1235.607788	2.016335
410.887604	971.647400	10112.414063	1331.179688	3.933284
411.249573	978.473938	10148.823242	1381.241089	4.392059
411.611481	994.402588	10219.364258	1269.740601	2.984706
411.973328	976.198425	9937.199219	1276.567139	3.351955
412.335144	926.136963	10064.628906	1292.495850	4.008964
412.696930	1008.055725	9752.881836	1196.923950	2.159771
413.058685	946.616638	9923.545898	1310.699951	4.055767
413.420410	953.443237	9707.372070	1299.322388	3.951131
413.782104	980.749451	9837.076172	1331.179688	3.956835
414.143707	978.473938	9900.791016	1306.148926	3.672532
414.505310	989.851563	9907.617188	1226.505737	2.653738
414.866852	987.576050	9932.648438	1301.597900	3.510557
415.228394	1003.504700	10360.446289	1283.393677	2.991244
415.589874	932.963501	10294.456055	1290.220337	3.816238
415.951324	978.473938	10346.792969	1265.189575	3.060481
416.312683	973.922913	10663.090820	1290.220337	3.264444
416.674072	955.718750	11029.449219	1303.873413	3.456065
417.035370	967.096313	11393.532227	1333.455200	3.513750
417.396667	1033.086426	11527.788086	1347.108276	2.992194
417.757935	1021.708862	11725.758789	1356.210449	3.125000
418.119141	1026.259888	12174.036133	1397.169800	3.327210
418.480286	985.300537	12328.771484	1317.526489	2.928786
418.841400	887.453125	13157.061523	1403.996338	4.209940
419.202484	869.248962	13216.224609	1338.006226	3.796535
419.563568	953.443237	13830.615234	1454.057739	3.887612
419.924591	973.922913	14813.640625	1358.485962	2.778692
420.285553	917.034912	14708.966797	1381.241089	3.365781
420.646484	987.576050	16024.217773	1401.720825	2.754237
421.007355	960.269775	15990.084961	1533.701050	3.815292
421.368225	976.198425	17257.548828	1438.129150	2.837177
421.729065	998.953613	17457.794922	1435.853638	2.654500
422.089874	955.718750	17962.960938	1495.017212	3.170993
422.450592	935.239075	17699.000000	1515.496826	3.461381
422.811279	987.576050	17787.746094	1501.843750	3.061086
423.171936	962.545288	17689.898438	1479.088501	3.088015
423.532593	1005.780212	17282.580078	1463.159912	2.810010
423.893127	955.718750	17614.806641	1510.945801	3.332878
424.253723	985.300537	18033.501953	1435.853638	2.642819
424.614197	1042.188477	18001.644531	1508.670288	2.750571
424.974670	1012.606750	18290.636719	1460.884399	2.594495
425.335052	1026.259888	18879.996094	1531.425537	2.829467
425.695496	1014.882263	17787.746094	1442.680176	2.550536
426.055817	932.963501	17960.685547	1476.812988	3.193906
426.416168	1003.504700	17792.296875	1449.506714	2.656546
426.776398	1023.984375	16720.527344	1485.915039	2.942882
427.136627	955.718750	16126.616211	1454.057739	3.284835
427.496826	930.687988	16160.749023	1567.833862	4.183475
427.856995	935.239075	15562.287109	1483.639526	3.749222
428.217102	971.647400	14902.385742	1338.006226	2.629859
428.577179	1010.331238	14731.721680	1392.618774	2.786070
428.937195	1003.504700	14381.291016	1399.445313	2.959687
429.297180	969.371887	13807.860352	1315.250977	2.694080
429.657135	996.678101	13587.134766	1315.250977	2.530272
430.017059	971.647400	13707.737305	1367.588013	3.108808
430.376984	978.473938	13878.401367	1374.414551	3.069324
430.736786	939.790100	13414.195313	1292.495850	2.827435
431.096588	964.820801	13471.083008	1319.802124	2.838429
431.456360	896.555176	13584.859375	1319.802124	3.335725
431.816071	983.024963	13234.428711	1410.822876	3.491828
432.175781	964.820801	13400.541992	1353.934937	3.129004
432.535400	937.514587	13352.755859	1333.455200	3.189150
432.895020	942.065613	13359.583008	1394.894287	3.646693
433.254578	976.198425	13687.257813	1338.006226	2.846402
433.614105	985.300537	13764.625000	1363.036987	2.955841
433.973602	953.443237	14190.147461	1351.659302	3.008423
434.333038	871.524475	13967.146484	1374.414551	3.840139
434.692444	969.371887	14356.260742	1328.904175	2.685705
435.051819	957.994263	14233.382813	1344.832764	2.913952
435.411133	1021.708862	14285.719727	1367.588013	2.607651
435.770416	932.963501	13939.840820	1301.597900	2.834150
436.129669	989.851563	14267.515625	1419.924927	3.239074
436.488861	992.127075	13946.666992	1326.628662	2.582119
436.848083	992.127075	14051.340820	1351.659302	2.753093
437.207184	998.953613	13930.738281	1333.455200	2.586662
437.566254	969.371887	14433.628906	1358.485962	2.889978
437.925293	1010.331238	14308.474609	1376.690063	2.754962
438.284363	967.096313	14374.464844	1419.924927	3.377461
438.643311	1046.739624	14572.435547	1417.649414	2.742260
439.002258	932.963501	14449.556641	1433.578125	3.703704
439.361145	1021.708862	15478.092773	1401.720825	2.628679
439.719971	948.892151	15614.624023	1408.547363	3.134213
440.078827	971.647400	15842.175781	1369.863525	2.677888
440.437592	1037.637451	16379.198242	1463.159912	2.773658
440.796295	1042.188477	16545.312500	1481.364014	2.832820
441.155029	1017.157776	17614.806641	1458.608887	2.659721
441.513672	898.830688	18336.146484	1465.435425	3.249380
441.872253	969.371887	17960.685547	1465.435425	2.919513
442.230865	923.861450	17544.265625	1431.302612	3.053122
442.589386	1085.423462	17341.744141	1531.425537	2.743561
442.947876	960.269775	17068.681641	1433.578125	2.938268
443.306335	967.096313	16820.650391	1351.659302	2.425721
443.664764	957.994263	16074.279297	1501.843750	3.597772
444.023102	919.310425	16688.669922	1367.588013	2.842713
444.381500	973.922913	16586.271484	1408.547363	2.783850
444.739777	957.994263	16424.708984	1385.792114	2.765926
445.098022	851.044800	16467.943359	1424.476074	3.671864
445.456238	978.473938	16631.781250	1374.414551	2.529437
445.814423	917.034912	17150.599609	1433.578125	3.181946
446.172577	996.678101	18217.820313	1381.241089	2.233086
446.530701	932.963501	18365.728516	1426.751587	2.832529
446.888733	910.208313	18727.537109	1449.506714	3.026820
447.246765	944.341125	19808.408203	1479.088501	2.834741
447.604736	962.545288	18905.027344	1540.527588	3.221306
447.962677	930.687988	19376.060547	1504.119263	3.108808
448.320587	967.096313	19637.744141	1524.598877	2.985984
448.678436	1005.780212	18859.515625	1419.924927	2.319653
449.036255	971.647400	18907.302734	1442.680176	2.626237
449.394043	971.647400	17696.724609	1401.720825	2.571429
449.751770	971.647400	17869.664063	1424.476074	2.679774
450.109467	939.790100	17398.632813	1388.067749	2.723628
450.467163	935.239075	17325.814453	1410.822876	2.901569
450.824768	980.749451	16959.457031	1349.383789	2.307035
451.182343	953.443237	17166.529297	1447.231201	3.045614
451.539886	923.861450	16097.034180	1419.924927	3.269346
451.897369	951.167725	16388.300781	1303.873413	2.284788
452.254822	985.300537	16392.851563	1383.516602	2.584551
452.612274	962.545288	16438.361328	1424.476074	2.984856
452.969635	996.678101	16624.955078	1324.353149	2.096681
453.326965	957.994263	16647.710938	1385.792114	2.726613
453.684326	953.443237	16165.299805	1444.955688	3.231114
454.041534	967.096313	15971.880859	1381.241089	2.760085
454.398773	978.473938	15532.705078	1287.944824	2.126329
454.755951	880.626526	15305.153320	1324.353149	3.076195
455.113098	1021.708862	14902.385742	1315.250977	2.114754
455.470215	969.371887	14747.650391	1297.046875	2.378200
455.827240	932.963501	15018.437500	1297.046875	2.584815
456.184265	960.269775	14704.415039	1315.250977	2.582781
456.541260	962.545288	14565.608398	1358.485962	2.910673
456.898193	1008.055725	14834.120117	1392.618774	2.781435
457.255096	1010.331238	14972.926758	1372.139038	2.591264
457.611969	964.820801	14649.802734	1267.465088	2.211507
457.968781	1003.504700	15009.334961	1294.771362	2.079610
458.325531	1010.331238	15321.082031	1308.424438	2.083002
458.682312	973.922913	15762.532227	1326.628662	2.384983
459.039001	953.443237	16816.099609	1413.098389	2.897719
459.395630	969.371887	17287.130859	1358.485962	2.384605
459.752289	971.647400	18870.894531	1504.119263	2.974828
460.108856	951.167725	20306.748047	1488.190552	2.774512
460.465363	930.687988	20816.464844	1476.812988	2.746310
460.821899	921.585938	20930.240234	1488.190552	2.831798
461.178345	928.412476	20238.482422	1515.496826	3.040302
461.534760	942.065613	19869.847656	1454.057739	2.704977
461.891144	976.198425	18597.832031	1433.578125	2.595558
462.247467	1023.984375	18158.656250	1438.129150	2.416999
462.603760	937.514587	17769.541016	1292.495850	2.108963
462.960052	987.576050	16793.343750	1401.720825	2.620213
463.316254	1049.015137	16317.759766	1388.067749	2.220567
463.672424	967.096313	16001.461914	1376.690063	2.724383
464.028564	962.545288	15616.899414	1306.148926	2.344720
464.384644	1008.055725	15585.041992	1272.016113	1.810802
464.740723	992.127075	15990.084961	1301.597900	2.063420
465.096741	921.585938	15614.624023	1388.067749	3.174849
465.452698	932.963501	15703.369141	1326.628662	2.665229
465.808655	901.106262	15849.001953	1333.455200	2.892373
466.164520	889.728638	15439.408203	1299.322388	2.815139
466.520355	971.647400	16347.341797	1356.210449	2.501110
466.876190	973.922913	16413.332031	1278.842651	1.974944
467.231964	978.473938	16331.413086	1431.302612	2.949459
467.587677	983.024963	17155.150391	1367.588013	2.377938
467.943390	948.892151	17246.171875	1390.343262	2.708741
468.299011	998.953613	16404.228516	1287.944824	1.875924
468.654633	939.790100	16467.943359	1376.690063	2.813599
469.010223	1039.912964	16565.791016	1353.934937	2.022571
469.365723	1005.780212	15673.787109	1363.036987	2.435619
469.721191	1030.810913	16015.115234	1417.649414	2.581625
470.076660	1005.780212	15589.592773	1365.312500	2.465283
470.432068	973.922913	15928.645508	1335.730713	2.419355
470.787445	996.678101	15318.805664	1344.832764	2.430887
471.142792	987.576050	15703.369141	1208.301514	1.499922
471.498016	951.167725	15748.879883	1351.659302	2.706443
471.853271	996.678101	15539.531250	1353.934937	2.456580
472.208496	994.402588	15753.430664	1344.832764	2.374345
472.563660	951.167725	15739.777344	1299.322388	2.354208
472.918762	935.239075	16310.933594	1326.628662	2.545508
473.273865	987.576050	16649.986328	1278.842651	1.859654
473.628876	980.749451	17055.029297	1369.863525	2.420725
473.983917	969.371887	16995.865234	1326.628662	2.229164
474.338837	978.473938	17004.966797	1381.241089	2.513133
474.693787	978.473938	16938.976563	1363.036987	2.409467
475.048645	939.790100	16695.496094	1367.588013	2.715194
475.403503	946.616638	16784.242188	1406.271851	2.902299
475.758270	1023.984375	17027.722656	1401.720825	2.360301
476.113037	946.616638	16768.312500	1383.516602	2.761398
476.467773	994.402588	17419.111328	1312.975464	1.939595
476.822418	1026.259888	18315.666016	1440.404663	2.395367
477.177063	917.034912	18183.687500	1367.588013	2.609383
477.531647	976.198425	18700.230469	1413.098389	2.465015
477.886200	928.412476	19109.824219	1381.241089	2.490613
478.240723	919.310425	19703.734375	1340.281738	2.241066
478.595184	964.820801	19690.082031	1422.200562	2.442581
478.949585	951.167725	20377.289063	1367.588013	2.143610
479.303986	907.932800	20322.675781	1383.516602	2.449601
479.658325	1023.984375	20322.675781	1472.261963	2.322839
480.012634	962.545288	20349.982422	1474.537476	2.640845
480.366913	955.718750	21021.261719	1483.639526	2.630982
480.721130	901.106262	21558.283203	1424.476074	2.533598
481.075317	946.616638	22486.697266	1463.159912	2.398057
481.429474	962.545288	23492.476563	1549.629639	2.605797
481.783569	996.678101	24436.818359	1501.843750	2.155131
482.137604	962.545288	25881.773438	1563.282837	2.410739
482.491669	964.820801	28155.019531	1620.170776	2.410243
482.845612	1019.433350	31054.033203	1663.405762	2.144102
483.199554	939.790100	35204.582031	1727.120239	2.297782
483.553436	1019.433350	41039.019531	1904.610962	2.211861
483.907318	980.749451	47870.132813	1995.631714	2.164418
484.261139	937.514587	53791.035156	2209.530762	2.406682
484.614899	892.004150	56366.925781	2307.378174	2.551376
484.968628	1014.882263	55886.789063	2239.112549	2.231069
485.322357	989.851563	53520.250000	2168.571289	2.243881
485.675964	964.820801	49763.363281	2027.489014	2.177664
486.029572	989.851563	45565.027344	2013.835938	2.297208
486.383148	976.198425	43346.394531	1875.029175	2.121375
486.736694	1026.259888	40661.281250	1815.865601	1.992192
487.090149	1001.229126	40847.875000	1829.518677	2.078693
487.443604	944.341125	41958.328125	1875.029175	2.269197
487.796997	932.963501	44281.636719	1886.406738	2.199475
488.150360	987.576050	45189.566406	1915.988525	2.100386
488.503693	962.545288	45797.132813	1947.845825	2.197635
488.856964	835.116150	45071.242188	1913.713013	2.438272
489.210175	953.443237	42074.378906	1938.743774	2.396104
489.563416	917.034912	40065.093750	1863.651489	2.418042
489.916565	996.678101	37700.828125	1815.865601	2.231866
490.269653	948.892151	35341.113281	1733.946899	2.282652
490.622772	967.096313	34267.066406	1677.058838	2.132022
490.975769	960.269775	34125.984375	1690.711914	2.202401
491.328735	957.994263	35564.113281	1790.834839	2.406628
491.681732	980.749451	37780.472656	1895.508789	2.485778
492.034607	1005.780212	40306.300781	1752.151001	1.899137
492.387482	1005.780212	40998.058594	1827.243164	2.054054
492.740326	946.616638	39530.347656	1913.713013	2.506487
493.093079	1008.055725	37689.449219	1840.896362	2.270472
493.445862	1026.259888	34558.335938	1754.426514	2.171553
493.798523	960.269775	31911.904297	1636.099487	2.183502
494.151215	937.514587	29486.199219	1613.344238	2.367288
494.503815	942.065613	27454.158203	1595.140137	2.463308
494.856384	951.167725	25943.212891	1547.354126	2.385505
495.208923	1035.361938	24632.511719	1481.364014	1.890068
495.561432	923.861450	23874.763672	1506.394775	2.538172
495.913879	969.371887	24197.888672	1592.864502	2.684169
496.266296	926.136963	24345.796875	1510.945801	2.497085
496.618683	1021.708862	24015.845703	1454.057739	1.880257
496.970978	969.371887	24914.677734	1467.710938	2.081156
497.323273	985.300537	25158.158203	1533.701050	2.268662
497.675507	1019.433350	25296.964844	1492.741699	1.949574
498.027710	1028.535400	25349.300781	1463.159912	1.787051
498.379852	923.861450	24955.636719	1495.017212	2.376669
498.731995	971.647400	24409.511719	1438.129150	1.990291
499.084076	1051.290649	24320.765625	1538.252075	2.092705
499.436096	1080.872437	23981.712891	1495.017212	1.808426
499.788086	1049.015137	23340.017578	1501.843750	2.031441
500.140106	989.851563	22666.462891	1442.680176	2.089019
500.491943	1033.086426	22322.859375	1506.394775	2.223172
500.843842	1044.463989	22081.654297	1472.261963	2.033532
501.195679	1001.229126	21544.630859	1506.394775	2.459017
501.547455	1001.229126	21237.435547	1472.261963	2.327673
501.899231	987.576050	21189.650391	1501.843750	2.545618
502.250885	932.963501	21080.423828	1433.578125	2.484753
502.602600	957.994263	20941.617188	1438.129150	2.402642
502.954193	930.687988	20843.771484	1422.200562	2.468290
503.305786	1026.259888	20861.974609	1397.169800	1.869910
503.657379	932.963501	20909.759766	1454.057739	2.608497
504.008820	971.647400	20918.863281	1456.333252	2.429842
504.360291	994.402588	21096.353516	1442.680176	2.230020
504.711700	994.402588	21253.365234	1431.302612	2.156576
505.063080	946.616638	21226.058594	1456.333252	2.513465
505.414368	951.167725	21146.414063	1312.975464	1.791549
505.765656	1037.637451	21053.119141	1349.383789	1.557526
506.116943	932.963501	21353.486328	1410.822876	2.340094
506.468109	960.269775	20693.585938	1485.915039	2.663745
506.819305	989.851563	20880.179688	1456.333252	2.345269
507.170410	1023.984375	20930.240234	1499.568237	2.389118
507.521484	978.473938	20877.904297	1419.924927	2.218410
507.872559	1021.708862	21073.597656	1465.435425	2.212892
508.223480	967.096313	21073.597656	1431.302612	2.308737
508.574493	885.177612	21262.466797	1451.782227	2.780569
508.925385	994.402588	21788.111328	1492.741699	2.396586
509.276245	946.616638	21926.917969	1444.955688	2.375271
509.627045	939.790100	22284.175781	1440.404663	2.345416
509.977814	926.136963	22739.279297	1476.812988	2.524515
510.328613	1014.882263	22832.576172	1542.803101	2.419691
510.679260	1010.331238	22991.861328	1438.129150	1.946170
511.029999	987.576050	23171.628906	1526.874512	2.431019
511.380585	1017.157776	23201.210938	1531.425537	2.318187
511.731140	960.269775	23362.771484	1506.394775	2.437786
512.081726	1008.055725	23556.191406	1508.670288	2.220204
512.432129	1039.912964	23692.722656	1435.853638	1.747866
512.782654	978.473938	24061.357422	1545.078613	2.454653
513.133057	955.718750	23738.232422	1472.261963	2.267279
513.483398	989.851563	23968.060547	1579.211426	2.564864
513.833801	983.024963	24152.376953	1488.190552	2.180318
514.183960	1026.259888	23189.832031	1526.874512	2.258727
514.534302	983.024963	23406.007813	1481.364014	2.222448
514.884460	946.616638	23410.558594	1504.119263	2.481767
515.234619	953.443237	23091.984375	1513.221313	2.528523
515.584717	996.678101	23228.515625	1570.109375	2.579325
515.934753	898.830688	23228.515625	1558.731689	2.955263
516.284851	932.963501	23522.058594	1467.710938	2.367281
516.634766	948.892151	23239.894531	1506.394775	2.501021
516.984741	964.820801	24375.378906	1520.047852	2.371695
517.334595	1028.535400	24841.861328	1481.364014	1.901577
517.684448	994.402588	25497.210938	1592.864502	2.442422
518.034363	1014.882263	26805.634766	1652.028076	2.470443
518.384094	937.514587	27913.814453	1611.068726	2.496837
518.733826	969.371887	29092.533203	1579.211426	2.168460
519.083496	978.473938	29463.443359	1640.650513	2.324653
519.433167	962.545288	29993.640625	1672.507813	2.445524
519.782776	937.514587	29716.025391	1620.170776	2.372104
520.132324	944.341125	29001.511719	1718.018188	2.757502
520.481873	944.341125	28471.316406	1636.099487	2.513020
520.831299	1049.015137	27925.191406	1652.028076	2.243671
521.180786	930.687988	26867.074219	1642.926025	2.746096
521.530151	998.953613	26491.613281	1629.272949	2.472552
521.879517	1019.433350	26300.468750	1529.150024	2.016202
522.228882	953.443237	26352.806641	1551.905151	2.356208
522.578064	987.576050	25906.804688	1567.833862	2.328554
522.927307	930.687988	26020.580078	1604.242188	2.684564
523.276489	935.239075	25786.201172	1556.456177	2.499771
523.625610	976.198425	26459.755859	1595.140137	2.428789
523.974792	992.127075	27005.880859	1570.109375	2.221833
524.323792	889.728638	27486.015625	1702.089600	3.054415
524.672852	1012.606750	27542.904297	1688.436401	2.547388
525.021790	992.127075	28767.134766	1665.681274	2.425037
525.370728	1003.504700	30485.152344	1622.446289	2.099413
525.719604	973.922913	31427.218750	1749.875488	2.548009
526.068420	919.310425	33479.738281	1761.253052	2.585785
526.417297	932.963501	35088.531250	1779.457275	2.478348
526.765991	951.167725	35894.066406	1888.682251	2.682990
527.114746	964.820801	37357.226563	1870.478149	2.488589
527.463379	1019.433350	38074.015625	1849.998413	2.241464
527.812012	976.198425	40579.363281	1945.570313	2.447713
528.160706	996.678101	44131.449219	2070.723877	2.489977
528.509155	1012.606750	49189.933594	2086.652588	2.229360
528.857727	1062.668213	53458.808594	2361.990479	2.479805
529.206177	951.167725	56300.937500	2373.368164	2.569479
529.554565	1003.504700	56191.710938	2453.011475	2.626479
529.902893	994.402588	54935.625000	2400.674561	2.607045
530.251221	957.994263	52339.253906	2282.347412	2.577502
530.599548	1008.055725	48313.859375	2179.948975	2.477272
530.947876	951.167725	44802.730469	1956.947876	2.293602
531.296021	914.759338	41305.253906	2004.733887	2.698592
531.644165	1017.157776	38961.468750	1829.518677	2.140929
531.992249	980.749451	37025.000000	1929.641602	2.632576
532.340454	962.545288	36335.515625	1943.294800	2.772596
532.688354	983.024963	36740.558594	1920.539551	2.621866
533.036438	951.167725	37864.667969	1856.824951	2.453458
533.384338	967.096313	39432.500000	2000.182739	2.685755
533.732239	1012.606750	41605.621094	1988.805176	2.404843
534.080139	932.963501	42103.960938	2109.407715	2.857459
534.427917	946.616638	41940.125000	2054.795166	2.703302
534.775757	932.963501	39448.429688	1984.254150	2.729529
535.123474	1033.086426	38074.015625	1959.223389	2.500307
535.471191	896.555176	35598.246094	1788.559326	2.570492
535.818848	1019.433350	34287.546875	1815.865601	2.393981
536.166382	989.851563	33807.414063	1877.304688	2.704202
536.513977	921.585938	33406.921875	1822.692139	2.773886
536.861511	946.616638	34207.902344	1786.283813	2.524458
537.208984	1030.810913	33928.015625	1849.998413	2.490143
537.556396	939.790100	33862.023438	1836.345337	2.723252
537.903809	976.198425	32872.171875	1868.202637	2.796605
538.251160	935.239075	32066.638672	1802.212524	2.784884
538.598389	1001.229126	30960.736328	1786.283813	2.620386
538.945740	1046.739624	29486.199219	1802.212524	2.656425
539.292969	969.371887	29192.656250	1663.405762	2.459083
539.640137	898.830688	29256.371094	1645.201538	2.632001
539.987244	946.616638	29422.484375	1811.314575	3.036599
540.334351	951.167725	30228.017578	1738.497925	2.689259
540.681458	994.402588	32282.814453	1756.702026	2.436363
541.028442	978.473938	35184.101563	1865.927002	2.594465
541.375366	971.647400	38706.609375	2011.560425	2.755835
541.722290	960.269775	41466.816406	2129.887451	2.887478
542.069153	978.473938	43143.875000	2111.683350	2.687534
542.416016	1012.606750	43473.824219	2234.561523	2.877814
542.762756	989.851563	42204.085938	2029.764526	2.523189
543.109558	944.341125	40850.148438	2072.999512	2.828306
543.456299	894.279663	38672.476563	1995.631714	2.915311
543.802917	951.167725	37111.468750	2020.662476	2.957649
544.149536	962.545288	35668.789063	1993.356201	2.970102
544.496094	985.300537	33263.562500	1834.069824	2.629538
544.842651	1014.882263	31766.269531	1879.580200	2.811899
545.189148	912.483826	29968.609375	1854.549438	3.242227
545.535583	917.034912	29158.523438	1711.191650	2.812021
545.882019	960.269775	28459.939453	1765.804199	2.929251
546.228333	962.545288	27904.710938	1711.191650	2.778716
546.574707	967.096313	28334.785156	1743.048950	2.835287
546.920898	948.892151	28414.427734	1793.110352	3.073737
547.267212	1010.331238	28339.335938	1770.355225	2.781016
547.613342	1001.229126	27868.302734	1695.262939	2.583213
547.959473	1021.708862	27856.925781	1809.039063	2.933944
548.305664	914.759338	27094.626953	1749.875488	3.189917
548.651611	1033.086426	25761.171875	1713.467163	2.751449
548.997742	992.127075	24564.246094	1631.548462	2.712617
549.343689	946.616638	23660.865234	1665.681274	3.165699
549.689575	951.167725	22741.554688	1642.926025	3.174603
550.035522	896.555176	21897.335938	1579.211426	3.250623
550.381287	1001.229126	21128.210938	1526.874512	2.611645
550.727173	1017.157776	21094.078125	1656.579102	3.184858
551.072876	983.024963	20452.380859	1604.242188	3.190744
551.418640	987.576050	20293.093750	1604.242188	3.194248
551.764282	923.861450	20463.757813	1663.405762	3.784791
552.109863	967.096313	20309.023438	1556.456177	3.047059
552.455505	994.402588	20861.974609	1574.660400	2.920628
552.801025	1008.055725	20846.046875	1636.099487	3.165864
553.146545	969.371887	21210.128906	1590.588989	3.069139
553.491943	953.443237	21075.873047	1658.854614	3.505597
553.837341	992.127075	21464.988281	1588.313477	2.912081
554.182800	996.678101	21221.507813	1704.365112	3.499100
554.528015	1010.331238	20670.830078	1695.262939	3.483796
554.873352	964.820801	19983.623047	1670.232300	3.709022
555.218628	978.473938	20179.318359	1638.375000	3.436834
555.563721	935.239075	19756.072266	1688.436401	4.001934
555.908875	987.576050	19323.722656	1656.579102	3.648548
556.254028	930.687988	19057.486328	1601.966675	3.703239
556.599121	942.065613	18859.515625	1608.793213	3.721108
556.944031	903.381775	18745.740234	1617.895264	4.004591
557.289063	996.678101	18666.097656	1672.507813	3.824855
557.633972	960.269775	18704.781250	1656.579102	3.924083
557.978882	969.371887	18593.281250	1670.232300	3.976759
558.323792	994.402588	18352.076172	1626.997314	3.644467
558.668518	998.953613	17846.910156	1642.926025	3.822258
559.013306	1003.504700	18176.859375	1631.548462	3.657082
559.358032	987.576050	17931.103516	1642.926025	3.867849
559.702637	1014.882263	18049.431641	1677.058838	3.887256
560.047363	994.402588	18272.431641	1699.814087	4.082708
560.391846	1019.433350	18047.156250	1631.548462	3.594815
560.736450	964.820801	17926.552734	1686.160889	4.252750
561.080933	948.892151	18256.503906	1740.773438	4.575336
561.425354	939.790100	18092.666016	1667.956787	4.245158
561.769775	957.994263	18461.300781	1872.753662	5.226209
562.114136	1012.606750	18368.003906	1784.008301	4.444736
562.458496	1001.229126	18374.830078	1688.436401	3.955468
562.802673	951.167725	18456.750000	1761.253052	4.627583
563.146912	980.749451	18149.554688	1827.243164	4.930417
563.491150	946.616638	18003.919922	1768.079712	4.815903
563.835266	980.749451	18181.412109	1795.385864	4.736076
564.179443	948.892151	18167.757813	1859.100464	5.286111
564.523438	894.279663	18333.871094	1852.273926	5.493215
564.867493	973.922913	18072.185547	1840.896362	5.070536
565.211426	1003.504700	18170.033203	1913.713013	5.302227
565.555359	928.412476	18882.271484	1984.254150	5.880862
565.899231	987.576050	19184.916016	1875.029175	4.876829
566.243042	1008.055725	19794.755859	2000.182739	5.281008
566.586914	973.922913	20065.542969	2047.968750	5.625745
566.930603	998.953613	20318.125000	2059.346436	5.488811
567.274292	989.851563	20243.033203	2104.856689	5.791277
567.617981	978.473938	20281.716797	2107.132324	5.846989
567.961609	996.678101	20126.982422	2161.744873	6.090163
568.305237	951.167725	19726.490234	2170.846924	6.496182
568.648682	1021.708862	19574.029297	2095.754639	5.789280
568.992188	955.718750	19182.640625	2154.918213	6.579276
569.335632	969.371887	18859.515625	2111.683350	6.385144
569.679016	1026.259888	18820.832031	2061.621826	5.818414
570.022461	919.310425	18934.609375	2252.765625	7.401793
570.365662	939.790100	18818.556641	2223.183838	7.178313
570.708984	969.371887	18775.322266	2391.572266	7.987220
571.052185	942.065613	19280.488281	2218.632813	6.961161
571.395386	989.851563	19175.814453	2243.663574	6.894394
571.738525	1010.331238	19815.234375	2496.246338	7.901743
572.081604	1001.229126	20229.380859	2519.001465	7.893490
572.424683	978.473938	20372.738281	2525.828125	7.978412
572.767578	1039.912964	20791.433594	2566.787354	7.730414
573.110596	1062.668213	20513.820313	2623.675537	8.025270
573.453552	962.545288	20450.105469	2589.542725	8.348903
573.796387	1033.086426	20202.074219	2657.808350	8.475783
574.139282	948.892151	20154.287109	2710.145264	9.170617
574.481995	962.545288	19899.429688	2732.900391	9.348714
574.824768	1008.055725	19742.417969	2703.318604	9.048950
575.167480	992.127075	19840.265625	2762.482178	9.392732
575.510132	980.749451	19314.621094	2767.033203	9.743080
575.852722	894.279663	19410.193359	2942.248291	11.060586
576.195251	967.096313	19118.925781	2880.809326	10.542810
576.537842	1014.882263	19159.884766	2919.493164	10.496614
576.880188	948.892151	19023.353516	2955.901611	11.104118
577.222717	998.953613	18404.412109	2883.084961	10.824944
577.565063	1021.708862	17997.093750	2969.554688	11.474531
577.907410	1012.606750	17999.369141	2876.258301	10.971200
578.249756	953.443237	17130.121094	2942.248291	12.294273
578.591919	964.820801	16936.701172	2905.840088	12.152728
578.934204	955.718750	16602.199219	2867.156250	12.216406
579.276306	1005.780212	16279.076172	2892.187012	12.351013
579.618469	937.514587	15960.502930	2876.258301	12.905180
579.960571	928.412476	15962.778320	3008.238525	13.833814
580.302551	1014.882263	15250.540039	3083.330566	14.530050
580.644531	994.402588	15227.785156	3197.106689	15.475619
580.986511	1044.463989	15332.458984	3108.361328	14.444976
581.328369	901.106262	15218.683594	3065.126465	15.114430
581.670227	983.024963	15364.316406	3094.708252	14.683545
582.012024	985.300537	15104.907227	3147.045166	15.310233
582.353821	942.065613	14995.681641	3203.933350	16.094561
582.695496	1005.780212	15050.294922	3401.903564	17.060919
583.037231	1026.259888	14809.089844	3272.198975	16.295195
583.378845	957.994263	14868.252930	3338.188965	17.111074
583.720398	901.106262	14608.843750	3308.607178	17.563080
584.062012	948.892151	14415.423828	3524.781738	19.128086
584.403442	946.616638	14595.190430	3472.444824	18.506168
584.744934	1028.535400	14542.853516	3447.414063	17.898636
585.086365	953.443237	14447.281250	3506.577637	18.920742
585.427734	957.994263	14344.882813	3508.853027	19.054905
585.768982	948.892151	14183.321289	3599.874023	20.030951
586.110291	973.922913	14297.097656	3647.659912	20.068317
586.451599	896.555176	14103.677734	3729.578613	21.450724
586.792725	971.647400	14470.037109	3804.670898	20.987862
587.133850	1010.331238	13987.625977	3859.283203	21.953358
587.474915	971.647400	14376.740234	3870.660889	21.626209
587.815979	989.851563	14358.536133	4004.916504	22.553190
588.157043	939.790100	14549.679688	3902.518066	21.768934
588.497925	926.136963	14408.597656	4118.692871	23.679327
588.838867	1028.535400	14549.679688	4182.407227	23.325480
589.179749	1074.045776	14492.791992	4312.111816	24.130913
589.520569	955.718750	14941.069336	4339.417969	24.194597
589.861450	1023.984375	14979.753906	4446.367676	24.523071
590.202087	951.167725	14902.385742	4571.521484	25.950092
590.542847	964.820801	15148.141602	4662.541992	26.070913
590.883484	969.371887	14909.211914	4776.318359	27.309830
591.224121	930.687988	14781.783203	4635.235840	26.745522
591.564636	901.106262	14888.732422	4721.705566	27.314137
591.905151	962.545288	14827.293945	4892.369629	28.343998
592.245667	976.198425	14563.333008	4767.216309	27.901525
592.585999	1001.229126	14495.067383	4746.736328	27.757168
592.926453	987.576050	14278.892578	4919.675781	29.583975
593.266724	971.647400	14520.098633	4826.379395	28.451458
593.607056	1005.780212	14235.658203	4994.768066	30.151358
593.947388	1028.535400	14319.852539	4997.043457	29.857899
594.287476	1049.015137	14483.689453	5199.564941	30.894310
594.627686	989.851563	14633.874023	5165.432129	30.603735
594.967773	948.892151	15000.233398	5352.024902	31.336033
595.307861	1010.331238	15293.775391	5326.994141	30.221443
595.647888	946.616638	15063.947266	5486.280762	32.156673
595.987854	1001.229126	15334.734375	5693.353027	32.735355
596.327820	998.953613	15628.277344	5656.944824	31.840097
596.667725	853.320313	16201.708008	5845.812988	32.527798
597.007568	939.790100	16556.689453	6107.498047	33.090488
597.347351	1008.055725	17216.589844	6448.826172	33.567318
597.687073	1023.984375	17466.898438	6519.367188	33.420979
598.026794	962.545288	17407.734375	6437.448242	33.291821
598.366455	951.167725	16975.384766	6385.111328	33.910820
598.706116	937.514587	16424.708984	6296.366211	34.601822
599.045654	980.749451	15976.431641	6061.987305	33.884670
599.385193	989.851563	15025.263672	5998.272949	35.684177
599.724731	978.473938	14802.262695	5843.537598	35.193417
600.064087	912.483826	14770.405273	5688.802246	34.466339
600.403564	971.647400	14037.687500	5688.802246	36.102406
600.742920	921.585938	13980.799805	5625.087402	36.016727
601.082153	955.718750	13789.656250	5702.455078	36.985813
601.421387	926.136963	13996.728516	5697.904297	36.507664
601.760620	973.922913	13527.970703	5720.659180	37.810406
602.099854	946.616638	13871.575195	5909.527344	38.397884
602.438843	973.922913	13762.349609	5609.158691	36.245552
602.778015	937.514587	13960.320313	5841.261719	37.655075
603.117065	1042.188477	14617.945313	6114.324219	37.361717
603.456055	873.799988	14827.293945	6319.121094	39.024788
603.794983	983.024963	15059.396484	6357.805176	38.182995
604.133850	969.371887	15737.501953	6674.102539	38.628658
604.472778	996.678101	16229.014648	6913.032227	38.840752
604.811584	953.443237	16706.873047	7208.850098	39.708221
605.150330	948.892151	17339.468750	7156.512695	37.873108
605.489075	948.892151	17318.988281	7334.003418	39.004726
605.827698	948.892151	17328.091797	7261.187012	38.538483
606.166382	971.647400	16806.996094	7222.502930	39.474064
606.504883	985.300537	16376.922852	6840.215332	38.039623
606.843445	985.300537	16031.043945	6940.338379	39.579556
607.181946	876.075500	15546.358398	6799.256348	40.375366
607.520386	951.167725	14961.548828	6583.081543	40.198151
607.858826	942.065613	15004.784180	6480.683105	39.385113
608.197083	1012.606750	14456.383789	6503.438477	40.842922
608.535461	971.647400	14429.077148	6403.315430	40.361855
608.873718	989.851563	14265.240234	6357.805176	40.435379
609.211914	935.239075	14479.138672	6596.734863	41.801075
609.550171	1014.882263	14834.120117	6801.531738	41.873867
609.888245	971.647400	15468.990234	6794.705078	40.166378
610.226318	935.239075	15637.378906	7029.083984	41.448692
610.564392	1023.984375	15905.890625	7261.187012	41.911316
610.902344	1019.433350	15432.582031	7295.319824	43.542789
611.240295	955.718750	15268.744141	7409.095703	45.087440
611.578247	1017.157776	14916.039063	7331.728027	45.432220
611.916138	1008.055725	14595.190430	7167.890625	45.335789
612.253845	964.820801	14128.708984	7126.931152	46.810715
612.591675	953.443237	13939.840820	6808.358398	45.084984
612.929382	955.718750	13598.512695	6685.479980	45.320374
613.267090	989.851563	13236.704102	6542.122070	45.336308
613.604736	985.300537	13170.714844	6523.917969	45.452843
613.942261	955.718750	12959.090820	6416.968750	45.497631
614.279785	971.647400	12804.355469	6150.732910	43.769234
614.617310	955.718750	12508.538086	5898.149902	42.781170
614.954712	921.585938	12353.802734	6014.201660	44.546177
615.292175	973.922913	12262.781250	5975.517578	44.305584
615.629517	944.341125	12397.037109	5916.354004	43.413467
615.966797	1014.882263	12265.056641	5934.558105	43.729771
616.304138	1012.606750	12312.842773	5768.445313	42.086185
616.641296	967.096313	12255.955078	5854.915039	43.297726
616.978516	1014.882263	11978.341797	5791.200684	43.565792
617.315552	971.647400	12001.096680	5850.363770	44.233543
617.652771	923.861450	12342.424805	5722.935059	42.028698
617.989685	998.953613	12296.914063	5832.159668	42.779453
618.326721	994.402588	12331.046875	5914.078613	43.396225
618.663696	987.576050	12121.699219	5693.353027	42.264458
619.000549	1033.086426	12169.485352	5857.190430	43.318348
619.337463	1001.229126	12246.852539	5916.354004	43.707005
619.674194	1008.055725	11966.963867	5675.148926	42.587212
620.010986	964.820801	12244.577148	5681.975586	41.819653
620.347778	971.647400	12044.332031	5811.680176	43.711464
620.684387	942.065613	11561.920898	5570.475098	43.582603
621.020996	951.167725	11787.197266	5802.578125	44.771107
621.357605	910.208313	11871.391602	5700.179688	43.699398
621.694214	967.096313	11607.431641	5707.006348	44.546627
622.030579	935.239075	11571.023438	5606.883301	43.923832
622.367065	1014.882263	11691.625977	5379.331055	40.878086
622.703430	969.371887	11611.982422	5711.557129	44.558475
623.039795	944.341125	11659.768555	5625.087402	43.682308
623.376160	896.555176	11596.053711	5727.485840	45.151001
623.712402	935.239075	11530.063477	5513.586914	43.213058
624.048645	1008.055725	11493.655273	5408.913086	41.970490
624.384766	994.402588	11434.492188	5490.831543	43.068871
624.720886	939.790100	11370.777344	5472.627441	43.455498
625.057007	1019.433350	11778.095703	5600.056641	42.576141
625.392944	944.341125	11748.513672	5604.607910	43.133949
625.729004	923.861450	11625.635742	5497.658203	42.738678
626.064941	1023.984375	11935.106445	5747.965332	43.295097
626.400818	935.239075	12192.240234	5775.271973	42.995758
626.736633	932.963501	12531.292969	5907.251953	42.887978
627.072449	932.963501	12590.457031	5850.363770	42.182316
627.408264	1003.504700	12597.283203	5898.149902	42.217861
627.743896	957.994263	12758.844727	5970.966797	42.479755
628.079590	998.953613	12790.702148	5973.242188	42.184486
628.415161	992.127075	12765.671875	6005.099609	42.578278
628.750793	1014.882263	12262.781250	5725.210449	41.877403
629.086365	955.718750	12228.648438	5604.607910	41.239407
629.421753	942.065613	12071.637695	5857.190430	44.162750
629.757263	919.310425	11805.402344	5691.077637	43.833611
630.092651	960.269775	11928.280273	5588.679199	42.199165
630.427917	960.269775	11348.022461	5513.586914	43.833515
630.763184	976.198425	11402.634766	5445.321289	42.863380
631.098511	942.065613	11309.338867	5490.831543	43.876205
631.433716	1019.433350	11099.990234	5477.178711	44.221218
631.768799	992.127075	11061.306641	5354.300293	43.322033
632.103943	985.300537	10747.285156	5333.820801	44.545456
632.438965	1026.259888	10865.612305	5072.135742	41.119331
632.773987	985.300537	10799.622070	5067.584961	41.595177
633.109070	983.024963	10578.896484	5206.391602	44.012333
633.443848	994.402588	10308.109375	5051.656250	43.562180
633.778870	1021.708862	10647.162109	5085.789063	42.222221
634.113708	1005.780212	10603.926758	5197.289551	43.669987
634.448425	926.136963	10788.244141	4965.186523	40.955238
634.783264	994.402588	10917.949219	4940.155762	39.761520
635.117859	1003.504700	10549.314453	4951.533203	41.358761
635.452576	951.167725	10804.172852	5126.748535	42.378757
635.787170	953.443237	10628.958008	4883.267578	40.616177
636.121704	964.820801	10376.375000	4849.134766	41.271755
636.456177	957.994263	10394.579102	4896.920898	41.741020
636.790588	987.576050	10280.802734	4851.410156	41.576885
637.125122	978.473938	10116.965820	4849.134766	42.355576
637.459412	971.647400	10062.352539	4673.919922	40.725910
637.793762	957.994263	9825.699219	4580.623535	40.851936
638.128052	944.341125	9802.943359	4671.644043	42.075520
638.462280	957.994263	9695.994141	4514.633301	40.703125
638.796509	892.004150	9673.239258	4632.960449	42.601707
639.130615	985.300537	9468.442383	4555.592773	42.086910
639.464722	998.953613	9620.902344	4512.357910	40.749535
639.798767	955.718750	9500.299805	4592.000977	42.556587
640.132751	1035.361938	9240.889648	4453.194336	41.652809
640.466736	1033.086426	9331.911133	4434.990234	40.992599
640.800598	957.994263	9229.512695	4391.755371	41.513069
641.134521	980.749451	8958.725586	4384.928711	42.669708
641.468262	989.851563	9045.195313	4394.030762	42.259888
641.802063	978.473938	9195.379883	4309.836426	40.542786
642.135803	917.034912	8910.939453	4177.855957	40.791344
642.469421	942.065613	8888.184570	4252.948242	41.666660
642.803101	971.647400	8976.929688	4155.101074	39.766914
643.136658	971.647400	8669.734375	4091.386475	40.526161
643.470215	969.371887	8742.550781	4243.846191	42.125294
643.803711	969.371887	8712.968750	4171.029785	41.345879
644.137085	939.790100	8847.224609	4191.509277	41.122303
644.470581	964.820801	8726.622070	4252.948242	42.362942
644.803833	985.300537	8772.132813	4189.233887	41.145531
645.137207	1001.229126	8642.427734	4268.876953	42.763550
645.470459	985.300537	8672.009766	4064.080078	40.053288
645.803589	996.678101	8560.508789	3961.681641	39.199760
646.136780	1039.912964	8772.132813	4054.978027	38.993523
646.469849	1012.606750	8519.549805	4127.794922	41.497429
646.802979	998.953613	8656.081055	4134.621094	40.950962
647.135986	946.616638	8826.745117	4064.080078	39.561073
647.468994	969.371887	8799.438477	4111.866211	40.133686
647.801941	989.851563	8628.774414	4227.917480	42.389038
648.134766	939.790100	8703.867188	4200.611328	41.998825
648.467651	1019.433350	8990.583008	4318.938477	41.393089
648.800354	992.127075	8685.663086	4184.682617	41.496597
649.133179	937.514587	8667.458984	4141.447754	41.448334
649.465881	1060.392700	8790.336914	4130.070313	39.711510
649.798462	917.034912	8699.316406	4223.366699	42.485382
650.131104	976.198425	8533.203125	4168.753906	42.246307
650.463623	992.127075	8815.367188	4180.131836	40.750443
650.796143	973.922913	8724.346680	4091.386475	40.223137
651.128662	1008.055725	8681.112305	4225.642090	41.933567
651.461060	989.851563	8763.030273	4093.661865	39.929745
651.793396	907.932800	8986.031250	4143.723145	40.056335
652.125732	951.167725	8865.428711	4134.621094	40.224266
652.458008	976.198425	8790.336914	3986.712402	38.526497
652.790222	1005.780212	8724.346680	4082.284424	39.858490
653.122437	921.585938	8772.132813	4123.243652	40.782608
653.454529	914.759338	8774.408203	4093.661865	40.445858
653.786621	935.239075	8460.386719	4027.671875	41.094646
654.118713	957.994263	8533.203125	4023.120850	40.462601
654.450623	1017.157776	8544.581055	4011.743164	39.782345
654.782654	946.616638	8489.967773	4048.151611	41.116142
655.114502	989.851563	8453.559570	3968.508301	39.908539
655.446350	1026.259888	8235.109375	3900.242676	39.867428
655.778198	973.922913	8526.375977	4068.631104	40.976200
656.109863	1001.229126	8405.773438	3795.568604	37.738167
656.441650	985.300537	8310.202148	3943.477539	40.385212
656.773254	1023.984375	8273.793945	3816.048340	38.512238
657.104919	962.545288	8291.998047	3927.548828	40.453274
657.436462	998.953613	8255.589844	4027.671875	41.737221
657.767944	957.994263	8357.988281	4020.845215	41.389912
658.099548	983.024963	8451.284180	3948.028564	39.701401
658.430908	1058.117188	8535.478516	3975.334961	39.014000
658.762268	919.310425	8840.398438	4107.314941	40.247051
659.093628	1014.882263	9081.603516	4200.611328	39.492241
659.424927	944.341125	9284.125000	4211.988770	39.181442
659.756226	989.851563	9589.044922	4284.805664	38.317013
660.087341	953.443237	9805.218750	4293.907715	37.737789
660.418518	983.024963	9766.535156	4457.745117	39.559586
660.749573	937.514587	9650.483398	4343.969238	39.096371
661.080627	964.820801	9541.258789	4391.755371	39.957554
661.411621	971.647400	9347.839844	4293.907715	39.663132
661.742554	971.647400	9270.471680	4116.416992	37.894157
662.073547	994.402588	9024.715820	3991.263428	37.319351
662.404297	937.514587	8872.255859	4075.457764	39.546886
662.735229	1030.810913	8378.467773	4091.386475	41.653767
663.065979	953.443237	8606.019531	3943.477539	39.072258
663.396667	937.514587	8419.426758	3929.824463	39.993919
663.727417	1028.535400	8153.190918	3816.048340	39.124882
664.057922	998.953613	7993.904785	3850.181152	40.761223
664.388611	939.790100	8037.139648	3695.445801	38.826546
664.719116	992.127075	7868.750977	3740.956299	39.973526
665.049622	978.473938	7720.842285	3590.771729	38.744514
665.380005	953.443237	7732.219727	3679.517090	40.214836
665.710388	994.402588	7682.158203	3558.914551	38.346375
666.040771	946.616638	7764.077148	3597.598389	38.885178
666.371033	1001.229126	7679.882813	3636.282227	39.454857
666.701294	992.127075	7459.157227	3552.087891	39.584801
667.031555	967.096313	7568.382324	3597.598389	39.848324
667.361633	964.820801	7711.740234	3577.118652	38.718380
667.691772	1019.433350	7561.555664	3643.108887	40.104351
668.021790	980.749451	7399.993652	3558.914551	40.163063
668.351807	932.963501	7816.414063	3638.557861	39.305782
668.681763	962.545288	7463.708008	3570.292236	40.112011
669.011719	951.167725	7563.831055	3545.261475	39.229183
669.341614	942.065613	7561.555664	3490.648926	38.501202
669.671387	960.269775	7700.362305	3568.016602	38.690075
670.001221	930.687988	7638.923340	3593.047363	39.687923
670.330933	944.341125	7645.750000	3524.781738	38.505943
670.660583	946.616638	7643.474609	3442.863037	37.274887
670.990173	944.341125	7677.607422	3549.812500	38.695507
671.319763	994.402588	7420.473145	3429.209961	37.889523
671.649292	960.269775	7495.565430	3511.128662	39.032032
671.978821	960.269775	7327.176758	3497.475586	39.849895
672.308289	973.922913	7313.523926	3449.689453	39.052402
672.637695	980.749451	7390.891602	3474.720215	38.906635
672.966980	1026.259888	7281.666504	3376.872803	37.577297
673.296326	1012.606750	7390.891602	3360.944336	36.817699
673.625610	967.096313	7277.115723	3476.995850	39.776413
673.954773	994.402588	7161.063965	3354.117676	38.265686
674.283936	1042.188477	7283.941895	3345.015625	36.893913
674.613037	971.647400	6972.195801	3297.229736	38.756165
674.942078	1014.882263	7085.971680	3351.842041	38.493252
675.271118	926.136963	7136.033203	3363.219727	39.245144
675.600098	1021.708862	7060.940918	3417.832275	39.675964
675.928955	957.994263	7045.012207	3247.168213	37.607475
676.257813	960.269775	7099.625000	3315.433838	38.361748
676.586670	948.892151	7008.604004	3315.433838	39.053699
676.915466	1008.055725	7124.655762	3297.229736	37.425598
677.244141	992.127075	7056.390137	3281.301025	37.748589
677.572876	962.545288	7017.706055	3269.923340	38.105972
677.901489	964.820801	6940.338379	3292.678711	38.956589
678.230042	1028.535400	6935.787598	3260.821289	37.788906
678.558594	1019.433350	7029.083984	3267.647949	37.410072
678.887085	937.514587	7042.736816	3231.239502	37.569885
679.215515	942.065613	6994.951172	3331.362549	39.473682
679.543945	992.127075	7279.391113	3392.801514	38.183132
679.872253	1019.433350	7113.277832	3347.291016	38.200146
680.200562	1008.055725	7343.105469	3454.240479	38.613506
680.528809	962.545288	7418.197754	3363.219727	37.187168
680.856995	930.687988	7618.443848	3467.893799	37.938076
681.185120	939.790100	7864.199707	3536.159424	37.495895
681.513306	957.994263	7850.546875	3715.925537	40.013203
681.841309	1046.739624	7707.188965	3440.587402	35.941235
682.169373	919.310425	7607.065918	3474.720215	38.210274
682.497314	1019.433350	7632.096680	3422.383301	36.338612
682.825134	887.453125	7557.004395	3404.179199	37.734562
683.153076	987.576050	7657.127441	3345.015625	35.346298
683.480896	978.473938	7379.514160	3404.179199	37.895489
683.808655	1008.055725	7454.605957	3454.240479	37.945641
684.136414	1028.535400	7099.625000	3326.811523	37.856071
684.464050	987.576050	7051.838867	3251.719238	37.335835
684.791626	962.545288	6812.909180	3197.106689	38.195259
685.119263	1001.229126	6810.633789	3260.821289	38.895420
685.446838	1085.423462	6724.164063	3283.576416	38.983044
685.774292	944.341125	6646.796387	3201.657715	39.584995
686.101685	935.239075	6769.674316	3149.320801	37.948521
686.429077	942.065613	6585.357422	3069.677490	37.701607
686.756348	907.932800	6553.500000	3037.820313	37.726723
687.083679	921.585938	6553.500000	3167.524902	39.878788
687.410950	989.851563	6546.673340	3033.269287	36.773136
687.738159	953.443237	6478.407715	3124.290039	39.291595
688.065308	964.820801	6696.857910	3199.382324	38.983723
688.392395	980.749451	6692.306641	3117.463379	37.410355
688.719421	978.473938	6592.183594	3172.075928	39.075802
689.046448	1003.504700	6635.418457	2987.758789	35.232327
689.373413	973.922913	6496.611816	3065.126465	37.865677
689.700317	939.790100	6512.540527	3110.636963	38.954678
690.027100	1028.535400	6726.439453	2999.136475	34.584663
690.353943	932.963501	6426.070801	3005.962891	37.738194
690.680725	953.443237	6305.468262	2871.707275	35.841839
691.007446	1012.606750	6284.988281	2949.074951	36.728531
691.334106	1026.259888	6002.823730	2962.728027	38.911751
691.660645	983.024963	6107.498047	2883.084961	37.078156
691.987244	1026.259888	6061.987305	2867.156250	36.556709
692.313721	1008.055725	5964.140137	2910.391113	38.383839
692.640259	996.678101	5895.874512	2801.166016	36.832325
692.966675	1074.045776	5838.986328	2892.187012	38.156643
693.293030	971.647400	5916.354004	2910.391113	39.208466
693.619324	1044.463989	5791.200684	2707.869873	35.043144
693.945618	969.371887	5925.456055	2873.982666	38.429752
694.271851	939.790100	5838.986328	2769.308838	37.343243
694.598083	973.922913	5609.158691	2753.380127	38.389790
694.924194	932.963501	5775.271973	2664.634766	35.761276
695.250244	967.096313	5593.229980	2767.033203	38.908016
695.576294	1003.504700	5732.037109	2776.135498	37.487972
695.902283	964.820801	5584.127930	2648.706299	36.453205
696.228210	928.412476	5625.087402	2794.339600	39.728683
696.554138	996.678101	5768.445313	2776.135498	37.291370
696.879944	939.790100	5852.639648	2789.788574	37.656322
697.205750	969.371887	5877.670410	2837.574463	38.062126
697.531433	951.167725	5952.762207	2807.992676	37.124657
697.857178	921.585938	6021.027832	2853.503174	37.884876
698.182739	987.576050	6155.283691	2996.860840	38.881550
698.508423	944.341125	6628.592285	3117.463379	38.230583
698.833984	971.647400	6787.878418	3090.157227	36.424099
699.159485	971.647400	6833.389160	3128.841064	36.801239
699.484924	973.922913	7113.277832	3206.208740	36.360268
699.810303	921.585938	7393.166992	3299.505127	36.744022
700.135681	939.790100	7190.645508	3335.913574	38.332729
700.460999	889.728638	7129.206543	3319.984863	38.949673
700.786255	973.922913	6958.542480	3201.657715	37.224335
701.111450	866.973450	6787.878418	3085.606201	37.471180
701.436646	969.371887	6494.336426	3015.064941	37.026360
701.761719	1060.392700	6360.080566	3037.820313	37.312153
702.086792	973.922913	6362.355957	2892.187012	35.599667
702.411865	987.576050	5970.966797	2814.819336	36.666668
702.736816	1001.229126	5791.200684	2737.451416	36.247025
703.061646	937.514587	5763.894043	2735.176025	37.246582
703.386536	1010.331238	5656.944824	2584.991699	33.888344
703.711365	1033.086426	5326.994141	2455.286865	33.121357
704.036194	1044.463989	5306.514648	2546.307861	35.237587
704.360901	1019.433350	5342.922852	2498.521729	34.210526
704.685547	1023.984375	5199.564941	2521.277100	35.858311
705.010132	994.402588	5279.208496	2482.593262	34.731812
705.334717	964.820801	5067.584961	2569.062988	39.101498
705.659302	973.922913	5163.156738	2475.766602	35.850082
705.983765	973.922913	4965.186523	2491.695313	38.027367
706.308228	980.749451	5119.921875	2509.899414	36.943375
706.632568	967.096313	5156.330078	2530.379150	37.316677
706.956909	953.443237	5042.554199	2569.062988	39.510296
707.281189	951.167725	5076.687012	2516.726074	37.948151
707.605408	939.790100	5067.584961	2516.726074	38.202869
707.929626	967.096313	4874.165527	2478.042236	38.672104
708.253784	892.004150	5144.952637	2418.878662	35.901554
708.577820	989.851563	5008.421387	2487.144287	37.259342
708.901855	964.820801	4999.319336	2550.858887	39.311901
709.225830	960.269775	5076.687012	2516.726074	37.810947
709.549805	1003.504700	5067.584961	2559.960938	38.297871
709.873718	971.647400	4937.880371	2564.511963	40.160641
710.197510	1005.780212	5188.187500	2669.185791	39.771488
710.521362	962.545288	5069.860352	2512.175049	37.728535
710.845093	1001.229126	5190.462891	2544.032227	36.827808
711.168701	989.851563	5320.167480	2530.379150	35.575409
711.492432	953.443237	5349.749512	2537.205811	36.024849
711.816040	1021.708862	5370.229004	2512.175049	34.275253
712.139587	923.861450	5486.280762	2530.379150	35.211967
712.463074	994.402588	5342.922852	2537.205811	35.478809
712.786499	946.616638	5361.126953	2712.420898	40.000004
713.109924	944.341125	5317.892090	2550.858887	36.732574
713.433350	948.892151	5358.851563	2498.521729	35.139317
713.756592	1055.841675	5122.197266	2443.909424	34.135426
714.079834	955.718750	5169.983398	2475.766602	36.069111
714.403015	1014.882263	5158.605469	2475.766602	35.255356
714.726196	996.678101	5188.187500	2402.949951	33.550488
715.049255	1012.606750	4992.492676	2534.930176	38.250431
715.372375	939.790100	4997.043457	2530.379150	39.203594
715.695435	960.269775	5049.380859	2405.225586	35.336674
716.018311	967.096313	5081.237793	2371.092773	34.126110
716.341248	923.861450	5044.829590	2528.103516	38.928764
716.664063	1026.259888	4994.768066	2462.113525	36.181194
716.987000	939.790100	5051.656250	2437.082764	36.413944
717.309692	989.851563	4906.022949	2464.388916	37.652523
717.632385	951.167725	4919.675781	2384.745850	36.123856
717.955078	948.892151	4667.093262	2296.000488	36.230110
718.277649	1005.780212	4710.328125	2364.266113	36.670761
718.600220	957.994263	4819.553223	2307.378174	34.944019
718.922791	1008.055725	4573.796875	2321.031250	36.821953
719.245300	985.300537	4587.449707	2245.938965	34.996841
719.567688	996.678101	4475.949219	2214.081787	34.990196
719.890015	976.198425	4548.766113	2179.948975	33.694267
720.212341	967.096313	4423.612305	2220.908203	36.273861
720.534607	937.514587	4428.163574	2255.041016	37.744453
720.856873	937.514587	4296.183105	2177.673340	36.924118
721.179016	937.514587	4232.468750	2093.479248	35.082874
721.501160	894.279663	4118.692871	2148.091553	38.884964
721.823242	953.443237	4184.682617	2111.683350	35.845074
722.145264	1064.943726	4068.631104	2164.020264	36.590908
722.467224	1003.504700	4109.590332	2113.958740	35.750916
722.789185	951.167725	4089.110840	2063.897461	35.460480
723.111023	951.167725	4102.764160	2116.234375	36.967506
723.432861	960.269775	4100.488281	2136.714111	37.463772
723.754578	948.892151	4089.110840	2066.172852	35.579712
724.076294	967.096313	3979.885986	2045.693237	35.800606
724.397949	946.616638	3925.273438	2059.346436	37.356762
724.719666	976.198425	3941.202148	2016.111450	35.072910
725.041260	985.300537	4109.590332	2084.376953	35.178440
725.362732	973.922913	3948.028564	2109.407715	38.179035
725.684265	914.759338	3988.988037	2018.386963	35.899334
726.005676	930.687988	4048.151611	2068.448486	36.496353
726.327087	928.412476	3988.988037	2207.255127	41.784382
726.648438	885.177612	4020.845215	2029.764526	36.502178
726.969666	976.198425	4200.611328	1993.356201	31.545519
727.290894	948.892151	4182.407227	2068.448486	34.623508
727.612061	1001.229126	4139.172363	1979.703125	31.182016
727.933228	964.820801	4277.979004	2059.346436	33.035721
728.254395	951.167725	4284.805664	2182.224365	36.928326
728.575378	987.576050	4248.397461	2164.020264	36.078156
728.896301	953.443237	4182.407227	1988.805176	32.064835
729.217285	1058.117188	4293.907715	2129.887451	33.122364
729.538147	1042.188477	4332.591797	2202.704102	35.269707
729.858948	992.127075	4237.019531	2104.856689	34.291725
730.179810	980.749451	4396.306152	2082.101563	32.245171
730.500549	957.994263	4268.876953	2118.509766	35.051544
730.821228	996.678101	4232.468750	2157.193604	35.864975
731.141846	998.953613	4293.907715	2034.315552	31.422651
731.462402	967.096313	4330.315918	2100.305664	33.694180
731.782898	1005.780212	4480.500488	2150.367188	32.940407
732.103455	942.065613	4555.592773	2125.336426	32.745590
732.423889	971.647400	4530.562012	2070.723877	30.882349
732.744263	983.024963	4359.897949	2047.968750	31.536390
733.064636	973.922913	4364.448730	2170.846924	35.302017
733.384888	901.106262	4473.673828	2193.602051	36.178345
733.705200	998.953613	4343.969238	2077.550537	32.244900
734.025330	978.473938	4353.071289	2186.775391	35.805798
734.345520	1033.086426	4439.541016	2241.387939	35.470940
734.665527	969.371887	4341.693848	2161.744873	35.357628
734.985596	932.963501	4218.815430	2118.509766	36.080330
735.305542	998.953613	4200.611328	2072.999512	33.546555
735.625549	994.402588	4000.365479	2070.723877	35.806206
735.945435	1010.331238	4114.141602	2123.060791	35.850433
736.265259	896.555176	4057.253662	1963.774414	33.765297
736.585083	905.657288	4036.773926	2022.937988	35.683140
736.904785	987.576050	3836.528076	2018.386963	36.182106
737.224426	962.545288	3932.099854	1988.805176	34.559387
737.544128	969.371887	3936.650879	2088.927979	37.730061
737.863708	978.473938	3891.140625	1997.907227	34.999996
738.183289	939.790100	3922.997803	1988.805176	35.163998
738.502808	951.167725	3984.437012	1970.601074	33.608402
738.822205	1005.780212	3954.855225	2127.612061	38.040123
739.141541	946.616638	3954.855225	2041.142212	36.384270
739.460938	1049.015137	3970.783691	1995.631714	32.398754
739.780212	994.402588	4123.243652	2123.060791	36.072723
740.099426	932.963501	3934.375488	2002.458252	35.633053
740.418640	987.576050	3979.885986	2107.132324	37.414448
740.737793	935.239075	4070.906738	2052.519775	35.631351
741.056885	957.994263	4050.427002	1984.254150	33.186169
741.375977	983.024963	4054.978027	1970.601074	32.148151
741.694946	953.443237	3888.864990	1988.805176	35.271317
742.013855	926.136963	3872.936523	2013.835938	36.911198
742.332703	976.198425	3877.487549	1906.886475	32.078434
742.651550	969.371887	3893.416016	2004.733887	35.408566
742.970398	878.351013	3672.690674	1970.601074	39.087948
743.289124	939.790100	3638.557861	1922.815063	36.424953
743.607788	971.647400	3800.119629	1902.335449	32.904266
743.926453	978.473938	3770.538086	1861.375977	31.621840
744.245056	994.402588	3704.547852	1868.202637	32.241817
744.563599	955.718750	3661.312988	1995.631714	38.435658
744.882141	944.341125	3718.200928	1868.202637	33.305992
745.200500	942.065613	3574.843262	1950.121338	38.288677
745.518860	983.024963	3659.037354	1936.468262	35.629253
745.837219	939.790100	3583.945313	1945.570313	38.037865
746.155518	951.167725	3542.985840	1950.121338	38.542583
746.473755	946.616638	3486.097900	1852.273926	35.663082
746.791992	998.953613	3681.792725	1895.508789	33.418148
747.110107	955.718750	3461.067139	1879.580200	36.875568
747.428162	985.300537	3618.078125	1836.345337	32.324978
747.746216	983.024963	3465.618164	1856.824951	35.197067
748.064148	1010.331238	3536.159424	1856.824951	33.513512
748.382080	1028.535400	3433.760986	1861.375977	34.626297
748.700073	987.576050	3383.699463	1861.375977	36.467232
749.017822	1014.882263	3531.608398	1809.039063	31.555155
749.335632	985.300537	3461.067139	1886.406738	36.397057
749.653320	1021.708862	3540.710449	1966.049927	37.488705
749.971008	921.585938	3583.945313	1881.855713	36.068375
750.288696	994.402588	3504.302002	1856.824951	34.360832
750.606262	921.585938	3561.189941	1881.855713	36.379311
750.923828	935.239075	3579.394287	1879.580200	35.714283
751.241272	946.616638	3545.261475	1904.610962	36.865150
751.558716	957.994263	3522.506104	1838.620850	34.338959
751.876038	983.024963	3508.853027	1838.620850	33.873875
752.193481	1001.229126	3497.475586	1793.110352	31.722878
752.510681	889.728638	3467.893799	1802.212524	35.392765
752.827942	957.994263	3431.485352	1806.763550	34.314629
753.145081	939.790100	3440.587402	1799.937012	34.394905
753.462219	955.718750	3495.199951	1772.630737	32.168461
753.779297	980.749451	3385.974854	1772.630737	32.923370
754.096375	951.167725	3404.179199	1849.998413	36.641926
754.413330	1012.606750	3431.485352	1870.478149	35.465664
754.730286	989.851563	3360.944336	1811.314575	34.644913
755.047119	1003.504700	3379.148438	1786.283813	32.950188
755.363892	1008.055725	3349.566650	1715.742676	30.223516
755.680725	919.310425	3370.046387	1756.702026	34.168987
755.997498	985.300537	3317.709229	1845.447388	36.878052
756.314148	978.473938	3308.607178	1806.763550	35.546875
756.630737	976.198425	3390.525879	1724.844727	31.008484
756.947327	998.953613	3356.393066	1713.467163	30.308882
757.263855	980.749451	3194.831299	1699.814087	32.476879
757.580261	1010.331238	3322.260254	1786.283813	33.562992
757.896729	996.678101	3324.535889	1756.702026	32.649067
758.213074	971.647400	3502.026611	1784.008301	32.104317
758.529419	1017.157776	3440.587402	1820.416626	33.145538
758.845642	971.647400	3436.036377	1793.110352	33.333332
759.161865	1046.739624	3547.536865	1806.763550	30.391264
759.478149	1010.331238	3445.138428	1765.804199	31.028042
759.794189	957.994263	3542.985840	1843.171875	34.242958
760.110229	987.576050	3529.332764	1843.171875	33.661591
760.426270	960.269775	3504.302002	1836.345337	34.436497
760.742249	978.473938	3413.281250	1834.069824	35.140186
761.058105	992.127075	3556.638916	1770.355225	30.346056
761.374023	971.647400	3568.016602	1838.620850	33.391766
761.689819	976.198425	3524.781738	1879.580200	35.446430
762.005554	1037.637451	3558.914551	1811.314575	30.685923
762.321289	932.963501	3561.189941	1879.580200	36.017319
762.636902	967.096313	3549.812500	1784.008301	31.629953
762.952515	1021.708862	3634.006836	1756.702026	28.135887
763.268127	937.514587	3686.343750	1799.937012	31.374174
763.583618	983.024963	3761.435791	1918.264038	33.660934
763.899048	992.127075	4152.825684	1975.152100	31.101509
764.214478	1019.433350	4612.480469	2132.163086	30.968971
764.529785	919.310425	4778.593750	2302.827148	35.849060
764.845093	964.820801	5006.145996	2366.541748	34.684685
765.160400	978.473938	4874.165527	2296.000488	33.820095
765.475586	964.820801	4874.165527	2198.153076	31.548311
765.790771	980.749451	4612.480469	2113.958740	31.203007
766.105835	973.922913	4434.990234	2043.417725	30.900724
766.420837	951.167725	4116.416992	2077.550537	35.585911
766.735840	935.239075	4082.284424	1988.805176	33.477947
767.050842	969.371887	3822.875000	1918.264038	33.253586
767.365662	1023.984375	3852.456787	1925.090576	31.858406
767.680542	992.127075	3643.108887	1879.580200	33.476395
767.995300	926.136963	3483.822266	1827.243164	35.231316
768.309998	969.371887	3520.230713	1881.855713	35.771629
768.624817	987.576050	3467.893799	1881.855713	36.055042
768.939392	951.167725	3506.577637	1804.488037	33.392696
769.254028	996.678101	3272.198975	1815.865601	35.999996
769.568481	969.371887	3281.301025	1781.732788	35.137794
769.882935	921.585938	3360.944336	1777.181763	35.074627
770.197388	992.127075	3274.474365	1768.079712	33.998013
770.511841	871.524475	3183.453613	1777.181763	39.173229
770.826172	923.861450	3183.453613	1847.722900	40.886200
771.140442	980.749451	3188.004639	1722.569214	33.608246
771.454651	989.851563	3185.729004	1740.773438	34.196896
771.768860	937.514587	3035.544678	1658.854614	34.381779
772.082886	992.127075	3172.075928	1595.140137	27.661800
772.397034	994.402588	3046.922363	1715.742676	35.144123
772.711060	935.239075	2994.585449	1656.579102	35.027618
773.025024	996.678101	3028.718262	1763.528564	37.737957
773.338928	919.310425	3062.851074	1615.619751	32.484077
773.652771	973.922913	3081.055176	1608.793213	30.129589
773.966614	1001.229126	2942.248291	1697.538574	35.873394
774.280457	971.647400	2962.728027	1667.956787	34.971432
774.594116	976.198425	2914.942139	1715.742676	38.145542
774.907776	978.473938	2928.595215	1638.375000	33.838974
775.221375	889.728638	2917.217773	1592.864502	34.680130
775.534912	960.269775	2965.003662	1556.456177	29.738930
775.848450	939.790100	2962.728027	1567.833862	31.046120
776.161926	1023.984375	2889.911377	1601.966675	30.975611
776.475342	939.790100	2871.707275	1563.282837	32.273262
776.788696	998.953613	2896.738037	1658.854614	34.772179
777.101990	937.514587	2860.329590	1617.895264	35.384617
777.415283	989.851563	2798.890625	1606.517700	34.088051
777.728516	926.136963	2812.543701	1681.609863	40.048252
778.041626	951.167725	2883.084961	1583.762451	32.744400
778.354736	910.208313	2794.339600	1515.496826	32.125599
778.667725	914.759338	2807.992676	1563.282837	34.254810
778.980774	971.647400	2773.859863	1558.731689	32.575756
779.293640	994.402588	2767.033203	1670.232300	38.125805
779.606567	967.096313	2803.441650	1574.660400	33.085503
779.919434	935.239075	2771.584229	1561.007324	34.076832
780.232239	914.759338	2714.696289	1595.140137	37.800255
780.544983	923.861450	2835.298828	1570.109375	33.809525
780.857666	953.443237	2817.094727	1574.660400	33.333332
781.170227	932.963501	2653.257324	1547.354126	35.714283
781.482849	901.106262	2771.584229	1604.242188	37.591244
781.795410	964.820801	2807.992676	1517.772339	29.999998
782.107910	957.994263	2676.012451	1579.211426	36.158939
782.420288	914.759338	2628.226563	1533.701050	36.122177
782.732666	1005.780212	2694.216553	1558.731689	32.749325
783.044983	1026.259888	2612.297852	1508.670288	30.416069
783.357300	1017.157776	2605.471436	1449.506714	27.220627
783.669495	1083.147949	2678.288086	1495.017212	25.820255
783.981689	942.065613	2707.869873	1515.496826	32.474224
784.293762	1001.229126	2632.777588	1485.915039	29.707111
784.605835	1046.739624	2569.062988	1497.292725	29.596413
784.917908	1035.361938	2666.910400	1388.067749	21.617857
785.229858	978.473938	2532.654541	1403.996338	27.379211
785.541748	935.239075	2459.837891	1413.098389	31.343281
785.853577	942.065613	2582.716064	1419.924927	29.126213
786.165405	1030.810913	2523.552490	1449.506714	28.048780
786.477173	1021.708862	2537.205811	1467.710938	29.429428
786.788879	989.851563	2521.277100	1545.078613	36.255569
787.100525	971.647400	2530.379150	1495.017212	33.576645
787.412109	928.412476	2478.042236	1554.180664	40.381786
787.723694	898.830688	2450.735840	1456.333252	35.923752
788.035156	948.892151	2478.042236	1472.261963	34.226189
788.346558	951.167725	2612.297852	1558.731689	36.575340
788.658081	960.269775	2807.992676	1510.945801	29.802956
788.969360	944.341125	2685.114502	1490.466064	31.372545
789.280640	1014.882263	2707.869873	1483.639526	27.688169
789.591919	946.616638	2748.829102	1542.803101	33.080811
789.903076	953.443237	2814.819336	1595.140137	34.474327
790.214172	973.922913	2753.380127	1456.333252	27.109970
790.525269	964.820801	2662.359375	1460.884399	29.222523
790.836365	973.922913	2682.839111	1515.496826	31.691074
791.147339	948.892151	2557.685303	1517.772339	35.360680
791.458191	1014.882263	2537.205811	1517.772339	33.034378
791.769104	994.402588	2516.726074	1422.200562	28.101646
792.079895	1026.259888	2455.286865	1419.924927	27.547768
792.390686	1035.361938	2380.194824	1535.976563	37.225044
792.701416	1028.535400	2334.684326	1485.915039	35.017418
793.012085	939.790100	2402.949951	1460.884399	35.614311
793.322693	937.514587	2443.909424	1467.710938	35.196373
793.633240	967.096313	2453.011475	1415.373901	30.168451
793.943787	980.749451	2400.674561	1349.383789	25.961535
794.254272	953.443237	2357.439453	1495.017212	38.573750
794.564636	1012.606750	2375.643799	1365.312500	25.876459
794.875000	939.790100	2357.439453	1435.853638	34.991974
795.185303	1026.259888	2414.327637	1479.088501	32.622948
795.495544	1037.637451	2325.582275	1353.934937	24.558310
795.805786	985.300537	2466.664551	1392.618774	27.496161
796.115906	998.953613	2418.878662	1435.853638	30.769232
796.426025	928.412476	2327.857666	1372.139038	31.707319
796.736023	987.576050	2421.154053	1440.404663	31.587301
797.045959	935.239075	2434.807373	1497.292725	37.481030
797.355896	985.300537	2596.369141	1526.874512	33.615822
797.665833	944.341125	2437.082764	1442.680176	33.384144
797.975708	967.096313	2514.450439	1469.986450	32.500004
798.285461	1003.504700	2491.695313	1431.302612	28.746176
798.595154	921.585938	2503.072998	1442.680176	32.949638
798.904846	955.718750	2487.144287	1376.690063	27.488853
799.214478	1026.259888	2352.888428	1456.333252	32.418522
799.524109	953.443237	2471.215576	1390.343262	28.785610
799.833557	887.453125	2414.327637	1444.955688	36.512665
800.143005	998.953613	2396.123291	1460.884399	33.061897
800.452393	992.127075	2368.817139	1347.108276	25.785122
800.761780	976.198425	2359.715088	1385.792114	29.605261
801.071106	1023.984375	2366.541748	1429.027100	30.169491
801.380371	923.861450	2261.867676	1331.179688	30.442179
801.689575	957.994263	2230.010498	1349.383789	30.769224
801.998718	951.167725	2243.663574	1429.027100	36.971832
802.307800	946.616638	2323.306641	1335.730713	28.264467
802.616882	987.576050	2261.867676	1319.802124	26.071432
802.925903	1021.708862	2250.489990	1378.965576	29.074072
803.234863	932.963501	2141.265137	1322.077637	32.203396
803.543701	1023.984375	2268.694336	1410.822876	31.078606
803.852539	955.718750	2159.469238	1356.210449	33.270325
804.161316	967.096313	2141.265137	1365.312500	33.914730
804.470032	957.994263	2202.704102	1317.526489	28.884823
804.778809	1008.055725	2280.071777	1335.730713	25.760286
805.087341	923.861450	2175.397949	1351.659302	34.181812
805.395935	1012.606750	2195.877686	1378.965576	30.961533
805.704468	964.820801	2173.122314	1312.975464	28.813559
806.012939	964.820801	2293.724854	1363.036987	29.965759
806.321350	962.545288	2261.867676	1390.343262	32.924698
806.629761	964.820801	2273.245361	1338.006226	28.521738
806.938049	889.728638	2341.510986	1369.863525	33.072098
807.246277	1014.882263	2227.734863	1476.812988	38.086308
807.554504	992.127075	2204.979736	1324.353149	27.392122
807.862671	971.647400	2234.561523	1333.455200	28.648647
808.170715	894.279663	2314.204590	1349.383789	32.051281
808.478821	944.341125	2113.958740	1372.139038	36.575874
808.786804	1008.055725	2157.193604	1360.761475	30.693073
809.094727	989.851563	2184.500000	1353.934937	30.476194
809.402649	1003.504700	2259.592041	1333.455200	26.268116
809.710510	1037.637451	2095.754639	1290.220337	23.870975
810.018311	983.024963	2095.754639	1360.761475	33.946835
810.326050	1008.055725	2027.489014	1342.557251	32.812496
810.633667	1012.606750	2143.540527	1342.557251	29.175049
810.941345	1021.708862	2111.683350	1408.547363	35.490601
811.248901	960.269775	2029.764526	1481.364014	48.723404
811.556396	960.269775	2034.315552	1331.179688	34.533901
811.863892	935.239075	2054.795166	1324.353149	34.756104
812.171326	944.341125	2043.417725	1342.557251	36.231880
812.478699	967.096313	2036.591064	1292.495850	30.425539
812.786011	953.443237	2036.591064	1253.812012	27.731096
813.093262	921.585938	2027.489014	1326.628662	36.625519
813.400391	921.585938	2123.060791	1306.148926	32.007576
813.707642	939.790100	2018.386963	1265.189575	30.168776
814.014709	944.341125	2059.346436	1308.424438	32.653053
814.321716	1026.259888	2077.550537	1272.016113	23.376621
814.628723	955.718750	2154.918213	1353.934937	33.206837
814.935669	1037.637451	2011.560425	1278.842651	24.766354
815.242554	1010.331238	1970.601074	1319.802124	32.227493
815.549438	978.473938	2041.142212	1246.985352	25.267662
815.856201	948.892151	1991.080688	1358.485962	39.301319
816.162964	1012.606750	2022.937988	1342.557251	32.657658
816.469604	1001.229126	2084.376953	1333.455200	30.672274
816.776184	878.351013	2020.662476	1237.883301	31.474102
817.082825	964.820801	2127.612061	1297.046875	28.571428
817.389343	955.718750	2041.142212	1294.771362	31.236897
817.695801	866.973450	2059.346436	1317.526489	37.786247
818.002197	1037.637451	2075.274902	1265.189575	21.929829
818.308533	1033.086426	2070.723877	1331.179688	28.728075
818.614868	1023.984375	2166.295898	1319.802124	25.896416
818.921143	935.239075	2116.234375	1294.771362	30.443159
819.227356	960.269775	2061.621826	1344.832764	34.917355
819.533447	919.310425	2054.795166	1299.322388	33.466938
819.839539	948.892151	2152.642578	1342.557251	32.703213
820.145569	917.034912	2164.020264	1349.383789	34.671528
820.451538	969.371887	2318.755615	1413.098389	32.883640
820.757568	1026.259888	2496.246338	1451.782227	28.947365
821.063416	957.994263	2650.981689	1510.945801	32.661289
821.369263	969.371887	2721.522949	1538.252075	32.467529
821.675049	946.616638	2860.329590	1538.252075	30.915581
821.980713	946.616638	3001.411865	1629.272949	33.222595
822.286438	894.279663	3342.739990	1586.037964	28.252787
822.592102	951.167725	4150.549805	1988.805176	32.432434
822.897583	971.647400	6237.202637	2676.012451	32.368191
823.203125	976.198425	8794.887695	3349.566650	30.355064
823.508545	946.616638	10378.650391	3950.304199	31.845596
823.813965	894.279663	10824.652344	3986.712402	31.141153
824.119263	996.678101	9841.627930	3690.894775	30.460508
824.424622	976.198425	8301.099609	3233.515137	30.817024
824.729858	985.300537	6979.022461	2935.421875	32.536068
825.035095	989.851563	6162.110352	2653.257324	32.160141
825.340149	937.514587	5295.136719	2275.520752	30.704960
825.645264	994.402588	4894.645020	2175.397949	30.280050
825.950256	928.412476	4541.939453	2086.652588	32.052898
826.255310	980.749451	4271.152344	2086.652588	33.609959
826.560242	1055.841675	4016.294189	1929.641602	29.515755
826.865112	973.922913	3743.231689	1870.478149	32.374695
827.169922	1026.259888	3681.792725	1804.488037	29.305914
827.474670	960.269775	3734.129639	1802.212524	30.352751
827.779419	983.024963	4289.356934	2009.284912	31.039230
828.084045	987.576050	4744.460938	2186.775391	31.920046
828.388672	969.371887	5288.310547	2268.694336	30.084303
828.693176	955.718750	5019.798828	2339.235352	34.042553
828.997681	971.647400	4548.766113	2104.856689	31.679386
829.302124	1042.188477	4050.427002	2000.182739	31.845688
829.606567	973.922913	3538.434814	1831.794189	33.451637
829.910828	953.443237	3306.331787	1679.334351	30.851061
830.215149	1071.770264	3017.340576	1686.160889	31.578947
830.519348	983.024963	2883.084961	1611.068726	33.053890
830.823547	901.106262	2826.196777	1576.935913	35.106380
831.127686	957.994263	2573.614014	1581.486938	38.591549
831.431763	998.953613	2512.175049	1476.812988	31.578945
831.735779	1033.086426	2261.867676	1394.894287	29.444448
832.039734	1012.606750	2266.418701	1301.597900	23.049002
832.343628	1003.504700	2125.336426	1303.873413	26.774845
832.647461	1012.606750	2157.193604	1397.169800	33.598415
832.951233	1014.882263	2239.112549	1303.873413	23.605947
833.255127	1046.739624	2143.540527	1253.812012	18.879669
833.558777	973.922913	2239.112549	1349.383789	29.676252
833.862366	1019.433350	2437.082764	1403.996338	27.126804
834.165955	957.994263	2637.328613	1526.874512	33.875343
834.469482	998.953613	2946.799316	1624.721802	32.126167
834.773010	980.749451	3397.352539	1793.110352	33.615818
835.076416	948.892151	3606.700439	1838.620850	33.476028
835.379822	957.994263	3549.812500	1774.906250	31.518875
835.683105	939.790100	3297.229736	1733.946899	33.687260
835.986389	1042.188477	2992.309814	1620.170776	29.638273
836.289612	976.198425	2771.584229	1522.323364	30.418251
836.592773	987.576050	2621.399902	1492.741699	30.919224
836.895874	957.994263	2519.001465	1451.782227	31.632650
837.198914	1001.229126	2407.500977	1429.027100	30.420717
837.501892	996.678101	2350.613037	1433.578125	32.268909
837.804871	866.973450	2275.520752	1392.618774	37.318256
838.107666	962.545288	2148.091553	1349.383789	32.629559
838.410583	1042.188477	2018.386963	1303.873413	26.806530
838.713379	969.371887	1929.641602	1317.526489	36.255917
839.016052	969.371887	1920.539551	1306.148926	35.406696
839.318787	983.024963	1852.273926	1281.118164	34.293190
839.621338	998.953613	1784.008301	1231.056763	29.565220
839.923889	1014.882263	1815.865601	1251.536499	29.545464
840.226440	1080.872437	1784.008301	1183.270874	14.563108
840.528931	1005.780212	1947.845825	1226.505737	23.429953
840.831299	976.198425	1988.805176	1265.189575	28.539328
841.133606	942.065613	2134.438477	1283.393677	28.625952
841.435913	942.065613	2084.376953	1281.118164	29.681274
841.738220	1008.055725	1925.090576	1287.944824	30.521097
842.040405	983.024963	1950.121338	1285.669312	31.294125
842.342529	1001.229126	1849.998413	1246.985352	28.954420
842.644592	923.861450	1872.753662	1301.597900	39.808151
842.946594	983.024963	1772.630737	1240.158813	32.564838
843.248596	928.412476	1777.181763	1212.852539	33.512058
843.550598	960.269775	1733.946899	1196.923950	30.588234
843.852478	969.371887	1708.916138	1171.893188	27.384609
844.154236	1044.463989	1702.089600	1194.648438	22.837378
844.455994	978.473938	1649.752563	1137.760376	23.728811
844.757690	967.096313	1624.721802	1128.658325	24.567480
845.059326	1046.739624	1645.201538	1183.270874	22.813690
845.360962	953.443237	1588.313477	1144.586914	30.107519
845.662476	914.759338	1488.190552	1144.586914	40.079361
845.963989	957.994263	1504.119263	1151.413574	35.416676
846.265381	951.167725	1558.731689	1137.760376	30.711607
846.566772	935.239075	1515.496826	1169.617676	40.392155
846.868042	912.483826	1465.435425	1128.658325	39.094650
847.169373	973.922913	1529.150024	1146.862427	31.147528
847.470581	923.861450	1517.772339	1146.862427	37.547886
847.771729	1017.157776	1481.364014	1146.862427	27.941170
848.072815	976.198425	1513.221313	1094.525513	22.033899
848.373901	992.127075	1551.905151	1110.454102	21.138203
848.674866	926.136963	1435.853638	1135.484863	41.071426
848.975891	942.065613	1401.720825	1183.270874	52.475258
849.276794	964.820801	1510.945801	1133.209351	30.833334
849.577637	960.269775	1581.486938	1101.352051	22.710621
849.878357	1003.504700	1451.782227	1126.382813	27.411169
850.179077	955.718750	1463.159912	1058.117188	20.179371
850.479736	987.576050	1417.649414	1060.392700	16.931215
850.780396	992.127075	1415.373901	1153.689087	38.172054
851.080994	1017.157776	1499.568237	1153.689087	28.301897
851.381470	1023.984375	1440.404663	1144.586914	28.961735
851.681946	951.167725	1410.822876	1099.076538	32.178211
851.982361	1019.433350	1403.996338	1099.076538	20.710051
852.282715	955.718750	1454.057739	1119.556274	32.876720
852.583008	962.545288	1351.659302	1074.045776	28.654966
852.883240	983.024963	1403.996338	1151.413574	40.000015
853.183411	930.687988	1454.057739	1133.209351	38.695656
853.483521	1005.780212	1415.373901	1130.933838	30.555555
853.783630	951.167725	1422.200562	1099.076538	31.400955
854.083679	1069.494751	1399.445313	1080.872437	3.448300
854.383667	962.545288	1390.343262	1110.454102	34.574455
854.683533	898.830688	1442.680176	1101.352051	37.238495
854.983337	976.198425	1363.036987	1069.494751	24.117638
855.283203	969.371887	1431.302612	1112.729614	31.034464
855.582886	971.647400	1467.710938	1083.147949	22.477070
855.882629	960.269775	1413.098389	1089.974487	28.643223
856.182312	994.402588	1401.720825	1019.433350	6.145259
856.481873	1014.882263	1426.751587	1137.760376	29.834248
856.781372	1037.637451	1390.343262	1133.209351	27.096775
857.080872	987.576050	1338.006226	1060.392700	20.779219
857.380310	935.239075	1376.690063	1169.617676	53.092781
857.679688	964.820801	1335.730713	1071.770264	28.834351
857.979004	973.922913	1367.588013	1080.872437	27.167643
858.278259	935.239075	1360.761475	1128.658325	45.454540
858.577454	914.759338	1360.761475	1108.178589	43.367336
858.876648	953.443237	1365.312500	1071.770264	28.729269
859.175720	960.269775	1417.649414	1096.801025	29.850750
859.474792	973.922913	1335.730713	1187.821899	59.119507
859.773743	1017.157776	1358.485962	1096.801025	23.333336
860.072693	1014.882263	1415.373901	1130.933838	28.977278
860.371521	1012.606750	1433.578125	1096.801025	20.000000
860.670349	987.576050	1315.250977	1149.138062	49.305576
860.969116	967.096313	1481.364014	1108.178589	27.433626
861.267883	957.994263	1322.077637	1124.107300	45.625000
861.566589	946.616638	1285.669312	1092.250000	42.953018
861.865112	1014.882263	1422.200562	1078.596802	15.642445
862.163635	994.402588	1365.312500	1101.352051	28.834351
862.462158	1010.331238	1369.863525	1174.168701	45.569611
862.760620	964.820801	1394.894287	1158.240112	44.973549
863.059021	967.096313	1408.547363	1030.810913	14.432993
863.357361	1010.331238	1390.343262	1049.015137	10.179651
863.655640	1053.566162	1335.730713	1096.801025	15.322571
863.953857	910.208313	1365.312500	1046.739624	30.000011
864.251953	973.922913	1435.853638	1101.352051	27.586201
864.550110	980.749451	1344.832764	1083.147949	28.125019
864.848206	905.657288	1340.281738	1055.841675	34.554977
865.146179	1012.606750	1347.108276	1023.984375	3.401367
865.444092	980.749451	1287.944824	1135.484863	50.370358
865.741943	985.300537	1422.200562	1064.943726	18.229156
866.039795	976.198425	1349.383789	1049.015137	19.512209
866.337646	989.851563	1351.659302	1146.862427	43.396214
866.635376	996.678101	1435.853638	1062.668213	15.025908
866.933044	969.371887	1435.853638	1085.423462	24.878052
867.230652	994.402588	1426.751587	1062.668213	15.789473
867.528198	937.514587	1333.455200	1037.637451	25.287344
867.825745	962.545288	1406.271851	1087.698975	28.205137
868.123230	983.024963	1333.455200	1094.525513	31.818188
868.420593	985.300537	1338.006226	1112.729614	36.129009
868.717896	926.136963	1449.506714	1085.423462	30.434793
869.015198	953.443237	1365.312500	1071.770264	28.729269
869.312439	896.555176	1312.975464	1137.760376	57.923500
869.609619	889.728638	1374.414551	1033.086426	29.577461
869.906738	942.065613	1369.863525	1087.698975	34.042561
870.203796	946.616638	1415.373901	1128.658325	38.834957
870.500854	964.820801	1376.690063	1078.596802	27.624300
870.797791	892.004150	1324.353149	1158.240112	61.578949
871.094666	973.922913	1394.894287	1121.831787	35.135139
871.391602	1010.331238	1342.557251	1005.780212	-1.369858
871.688293	992.127075	1328.904175	1126.382813	39.864864
871.985107	969.371887	1358.485962	1092.250000	31.578943
872.281738	994.402588	1358.485962	976.198425	-4.999998
872.578369	998.953613	1347.108276	1128.658325	37.254913
872.874939	907.932800	1381.241089	1060.392700	32.211544
873.171509	910.208313	1388.067749	1087.698975	37.142860
873.467957	957.994263	1317.526489	1026.259888	18.987345
873.764343	919.310425	1365.312500	1067.219238	33.163258
874.060669	937.514587	1326.628662	1096.801025	40.935665
874.356995	953.443237	1338.006226	1153.689087	52.071014
874.653198	1005.780212	1378.965576	1060.392700	14.634145
874.949463	907.932800	1338.006226	1080.872437	40.211655
875.245544	1017.157776	1358.485962	1074.045776	16.666658
875.541626	973.922913	1417.649414	1044.463989	15.897423
875.837646	985.300537	1317.526489	1103.627563	35.616432
876.133606	960.269775	1365.312500	1037.637451	19.101114
876.429565	971.647400	1353.934937	1044.463989	19.047598
876.725403	994.402588	1317.526489	1058.117188	19.718319
877.021179	994.402588	1403.996338	1053.566162	14.444452
877.316956	962.545288	1403.996338	1099.076538	30.927834
877.612610	919.310425	1365.312500	1005.780212	19.387754
877.908203	987.576050	1526.874512	1149.138062	29.957811
878.203857	951.167725	1397.169800	1089.974487	31.122448
878.499390	953.443237	1419.924927	1069.494751	24.878042
878.794800	989.851563	1381.241089	1099.076538	27.906975
879.090271	987.576050	1372.139038	1099.076538	28.994078
879.385559	921.585938	1435.853638	1144.586914	43.362820
879.680847	998.953613	1403.996338	1085.423462	21.348328
879.976196	1005.780212	1483.639526	1094.525513	18.571428
880.271301	957.994263	1515.496826	1115.005249	28.163277
880.566467	992.127075	1556.456177	1180.995239	33.467735
880.861572	994.402588	1624.721802	1203.750488	33.212997
881.156555	869.248962	1820.416626	1153.689087	29.904310
881.451477	973.922913	2004.733887	1360.761475	37.527592
881.746460	1019.433350	2703.318604	1524.598877	29.999996
882.041321	921.585938	3431.485352	1729.395752	32.184948
882.336121	905.657288	4384.928711	2059.346436	33.158932
882.630798	932.963501	4644.337891	2191.326416	33.905575
882.925537	914.759338	4803.624512	2018.386963	28.379169
883.220215	1017.157776	4485.051270	2007.009399	28.543310
883.514771	910.208313	4068.631104	1902.335449	31.412106
883.809326	907.932800	3690.894775	1836.345337	33.360592
884.103760	942.065613	3458.791504	1747.599976	32.007236
884.398132	917.034912	3217.586426	1729.395752	35.311569
884.692505	889.728638	3106.085938	1570.109375	30.698151
884.986816	946.616638	2899.013428	1504.119263	28.554781
885.281067	1001.229126	2714.696289	1422.200562	24.568398
885.575256	1012.606750	2514.450439	1465.435425	30.151518
885.869385	1014.882263	2371.092773	1435.853638	31.040270
886.163452	989.851563	2118.509766	1333.455200	30.443552
886.457458	1019.433350	2011.560425	1292.495850	27.522936
886.751465	1046.739624	1861.375977	1153.689087	13.128491
887.045410	962.545288	1665.681274	1208.301514	34.951450
887.339233	962.545288	1647.477051	1178.719727	31.561457
887.632996	971.647400	1613.344238	1158.240112	29.078016
887.926758	960.269775	1520.047852	1167.342163	36.991871
888.220398	1042.188477	1592.864502	1135.484863	16.942156
888.514099	1012.606750	1506.394775	1087.698975	15.207380
888.807678	1010.331238	1501.843750	1094.525513	17.129629
889.101196	932.963501	1510.945801	1130.933838	34.251972
889.394653	962.545288	1508.670288	1174.168701	38.749996
889.688049	978.473938	1538.252075	1094.525513	20.731709
889.981384	1010.331238	1460.884399	1062.668213	11.616159
890.274719	1017.157776	1413.098389	1089.974487	18.390816
890.567932	948.892151	1388.067749	989.851563	9.326431
>>>>>End Processed Spectral Data<<<<<
