Jaz Data File
++++++++++++++++++++++++++++++++++++
Date: Wed Feb 07 06:53:34 2024
User: jaz
Dark Spectrum Present: Yes
Reference Spectrum Present: Yes
Processed Spectrum Present: Yes
Spectrometers: JAZA3692
Integration Time (usec): 49800 (JAZA3692)
Spectra Averaged: 1 (JAZA3692)
Boxcar Smoothing: 0 (JAZA3692)
Correct for Electrical Dark: No (JAZA3692)
Strobe/Lamp Enabled: Yes (JAZA3692)
Correct for Detector Non-linearity: No (JAZA3692)
Correct for Stray Light: No (JAZA3692)
Number of Pixels in Processed Spectrum: 2048
>>>>>Begin Processed Spectral Data<<<<<
W	D	R	S	P
190.244385	0.000000	0.000000	0.000000	0.000000
190.627136	0.000000	0.000000	0.000000	0.000000
191.009842	912.483826	932.963501	853.320313	-288.888916
191.392532	962.545288	928.412476	857.871338	306.666656
191.775177	957.994263	923.861450	955.718750	6.666643
192.157791	955.718750	953.443237	917.034912	1700.005371
192.540390	928.412476	907.932800	894.279663	166.666763
192.922943	869.248962	1008.055725	869.248962	0.000000
193.305481	880.626526	978.473938	957.994263	79.069786
193.687958	944.341125	946.616638	946.616638	100.000000
194.070419	944.341125	971.647400	951.167725	25.000113
194.452866	955.718750	967.096313	948.892151	-60.000538
194.835251	969.371887	951.167725	989.851563	-112.499962
195.217621	978.473938	953.443237	944.341125	136.363785
195.599960	948.892151	1017.157776	923.861450	-36.666626
195.982254	955.718750	914.759338	992.127075	-88.888786
196.364517	905.657288	971.647400	951.167725	68.965538
196.746750	1008.055725	944.341125	987.576050	32.142830
197.128952	976.198425	948.892151	937.514587	141.666473
197.511139	953.443237	935.239075	905.657288	262.500122
197.893280	932.963501	1033.086426	955.718750	22.727312
198.275391	939.790100	901.106262	905.657288	88.235329
198.657471	930.687988	980.749451	923.861450	-13.636313
199.039520	964.820801	955.718750	894.279663	775.002686
199.421539	960.269775	946.616638	973.922913	-100.000000
199.803513	914.759338	960.269775	951.167725	80.000084
200.185471	948.892151	1053.566162	926.136963	-21.739100
200.567383	962.545288	1030.810913	846.493713	-170.000015
200.949265	1005.780212	935.239075	955.718750	70.967758
201.331131	964.820801	928.412476	967.096313	-6.249979
201.712967	1080.872437	944.341125	962.545288	86.666679
202.094742	873.799988	1030.810913	887.453125	8.695661
202.476517	885.177612	1001.229126	971.647400	74.509834
202.858231	928.412476	951.167725	946.616638	79.999840
203.239944	942.065613	985.300537	887.453125	-126.315681
203.621582	946.616638	957.994263	937.514587	-79.999573
204.003235	907.932800	923.861450	887.453125	-128.571320
204.384827	903.381775	985.300537	896.555176	-8.333377
204.766388	928.412476	935.239075	898.830688	-433.331238
205.147934	1003.504700	955.718750	898.830688	219.047668
205.529449	980.749451	957.994263	844.218201	600.000549
205.910904	896.555176	964.820801	985.300537	130.000076
206.292343	962.545288	985.300537	1012.606750	219.999619
206.673767	964.820801	1012.606750	921.585938	-90.476097
207.055115	892.004150	1001.229126	878.351013	-12.500014
207.436462	937.514587	1001.229126	894.279663	-67.857239
207.817780	942.065613	944.341125	851.044800	-4000.013428
208.199051	930.687988	1042.188477	914.759338	-14.285722
208.580307	887.453125	973.922913	932.963501	52.631535
208.961517	901.106262	1005.780212	887.453125	-13.043491
209.342712	948.892151	944.341125	901.106262	1050.002686
209.723846	944.341125	932.963501	921.585938	199.999466
210.104965	914.759338	930.687988	914.759338	0.000000
210.486069	917.034912	1021.708862	967.096313	47.826035
210.867111	871.524475	942.065613	939.790100	96.774208
211.248123	973.922913	1069.494751	978.473938	4.761889
211.629120	937.514587	976.198425	880.626526	-147.058990
212.010071	946.616638	967.096313	942.065613	-22.222157
212.390991	994.402588	930.687988	1001.229126	-10.714245
212.771881	907.932800	980.749451	921.585938	18.750021
213.152756	989.851563	953.443237	898.830688	250.000168
213.533569	992.127075	983.024963	914.759338	849.997681
213.914368	1008.055725	992.127075	928.412476	500.000000
214.295135	962.545288	1017.157776	910.208313	-95.833344
214.675858	994.402588	1026.259888	903.381775	-285.714142
215.056549	928.412476	1033.086426	921.585938	-6.521716
215.437225	926.136963	1026.259888	846.493713	-79.545471
215.817841	951.167725	976.198425	905.657288	-181.818466
216.198441	873.799988	1055.841675	926.136963	28.749994
216.579025	983.024963	960.269775	980.749451	9.999973
216.959549	932.963501	973.922913	921.585938	-27.777653
217.340057	967.096313	1008.055725	866.973450	-244.444092
217.720535	953.443237	917.034912	892.004150	168.750107
218.100967	926.136963	1010.331238	960.269775	40.540539
218.481369	951.167725	910.208313	944.341125	16.666740
218.861740	996.678101	910.208313	967.096313	34.210548
219.242065	994.402588	996.678101	889.728638	-4600.016113
219.622391	926.136963	992.127075	912.483826	-20.689671
220.002670	946.616638	951.167725	905.657288	-899.990601
220.382919	951.167725	992.127075	917.034912	-83.333382
220.763123	983.024963	953.443237	937.514587	153.846252
221.143295	978.473938	962.545288	1005.780212	-171.428680
221.523453	948.892151	957.994263	898.830688	-549.998352
221.903549	955.718750	1003.504700	869.248962	-180.952332
222.283630	910.208313	1055.841675	957.994263	32.812504
222.663696	919.310425	1042.188477	860.146851	-48.148205
223.043701	948.892151	1030.810913	923.861450	-30.555515
223.423676	964.820801	1058.117188	910.208313	-58.536552
223.803635	1033.086426	1042.188477	896.555176	-1500.005371
224.183548	1008.055725	998.953613	857.871338	1649.994995
224.563431	951.167725	987.576050	848.769287	-281.250061
224.943283	960.269775	1026.259888	983.024963	34.482723
225.323105	873.799988	1069.494751	937.514587	32.558151
225.702881	885.177612	978.473938	926.136963	43.902428
226.082642	910.208313	1042.188477	953.443237	32.758652
226.462357	903.381775	1028.535400	923.861450	16.363628
226.842041	955.718750	1037.637451	887.453125	-83.333382
227.221695	892.004150	1019.433350	1005.780212	89.285706
227.601318	987.576050	1058.117188	907.932800	-112.903267
227.980911	930.687988	1044.463989	896.555176	-30.000011
228.360474	917.034912	1012.606750	903.381775	-14.285732
228.739990	962.545288	1133.209351	882.902100	-46.666641
229.119476	905.657288	1149.138062	935.239075	12.149537
229.498932	821.463013	1149.138062	919.310425	29.861111
229.878372	885.177612	1210.577026	860.146851	-7.692319
230.257736	901.106262	1240.158813	866.973450	-10.067116
230.637115	944.341125	1233.332275	892.004150	-18.110235
231.016449	935.239075	1142.311401	894.279663	-19.780245
231.395737	871.524475	1133.209351	892.004150	7.826083
231.774994	898.830688	1183.270874	964.820801	23.199997
232.154221	926.136963	1153.689087	946.616638	8.999993
232.533417	939.790100	1117.280762	996.678101	32.051266
232.912582	921.585938	1133.209351	910.208313	-5.376354
233.291702	935.239075	1121.831787	923.861450	-6.097572
233.670792	944.341125	1185.546387	969.371887	10.377370
234.049866	942.065613	1126.382813	939.790100	-1.234563
234.428894	955.718750	1149.138062	1010.331238	28.235281
234.807892	951.167725	1121.831787	912.483826	-22.666693
235.186874	944.341125	1128.658325	957.994263	7.407413
235.565781	882.902100	1151.413574	957.994263	27.966091
235.944687	1019.433350	1149.138062	969.371887	-38.596489
236.323547	967.096313	1199.199463	905.657288	-26.470570
236.702377	955.718750	1199.199463	1019.433350	26.168232
237.081177	985.300537	1169.617676	937.514587	-25.925940
237.459946	932.963501	1274.291626	896.555176	-10.666664
237.838669	953.443237	1210.577026	989.851563	14.159292
238.217361	894.279663	1151.413574	930.687988	14.159286
238.596039	948.892151	1083.147949	939.790100	-6.779633
238.974670	914.759338	1174.168701	880.626526	-13.157895
239.353271	905.657288	1169.617676	835.116150	-26.724138
239.731842	957.994263	1140.035889	921.585938	-20.000000
240.110367	914.759338	1240.158813	914.759338	0.000000
240.488876	896.555176	1192.372925	939.790100	14.615393
240.867340	971.647400	1244.709839	998.953613	9.999989
241.245789	901.106262	1303.873413	907.932800	1.694909
241.624176	935.239075	1376.690063	967.096313	7.216484
242.002548	932.963501	1281.118164	923.861450	-2.614370
242.380890	887.453125	1401.720825	948.892151	11.946896
242.759186	957.994263	1529.150024	912.483826	-7.968131
243.137451	944.341125	1622.446289	992.127075	7.046982
243.515686	939.790100	1670.232300	978.473938	5.295948
243.893890	928.412476	1683.885376	942.065613	1.807231
244.272049	869.248962	1665.681274	960.269775	11.428569
244.650192	1026.259888	1590.588989	894.279663	-23.387102
245.028290	932.963501	1590.588989	876.075500	-8.650517
245.406357	928.412476	1510.945801	969.371887	7.031256
245.784393	912.483826	1497.292725	953.443237	7.003897
246.162384	973.922913	1433.578125	910.208313	-13.861389
246.540359	889.728638	1549.629639	910.208313	3.103447
246.918289	955.718750	1620.170776	942.065613	-2.054796
247.296204	964.820801	1795.385864	1008.055725	5.205483
247.674057	1005.780212	1995.631714	969.371887	-3.678160
248.051895	996.678101	2339.235352	998.953613	0.169491
248.429703	919.310425	2359.715088	969.371887	3.475514
248.807465	907.932800	2325.582275	1017.157776	7.704654
249.185196	1001.229126	2093.479248	967.096313	-3.125000
249.562897	946.616638	1959.223389	973.922913	2.696632
249.940567	889.728638	1884.131226	912.483826	2.288327
250.318192	976.198425	1642.926025	980.749451	0.682591
250.695801	960.269775	1667.956787	1003.504700	6.109328
251.073349	1019.433350	1661.130127	980.749451	-6.028377
251.450882	992.127075	1567.833862	907.932800	-14.624506
251.828400	985.300537	1563.282837	917.034912	-11.811024
252.205872	914.759338	1613.344238	989.851563	10.749191
252.583313	905.657288	1633.823975	1023.984375	16.250000
252.960693	978.473938	1733.946899	994.402588	2.108434
253.338074	983.024963	1768.079712	1010.331238	3.478264
253.715408	951.167725	1722.569214	921.585938	-3.834811
254.092682	928.412476	1720.293701	987.576050	7.471269
254.469955	894.279663	1570.109375	1001.229126	15.824913
254.847198	930.687988	1658.854614	978.473938	6.562502
255.224365	866.973450	1565.558350	932.963501	9.446246
255.601563	919.310425	1535.976563	882.902100	-5.904058
255.978683	1005.780212	1576.935913	998.953613	-1.195226
256.355743	896.555176	1576.935913	1058.117188	23.745825
256.732819	937.514587	1526.874512	989.851563	8.880308
257.109894	894.279663	1586.037964	907.932800	1.973686
257.486877	932.963501	1558.731689	942.065613	1.454550
257.863831	887.453125	1688.436401	917.034912	3.693184
258.240753	1008.055725	1818.141113	932.963501	-9.269668
258.617645	914.759338	1788.559326	987.576050	8.333339
258.994507	967.096313	1797.661377	983.024963	1.917809
259.371307	964.820801	1984.254150	951.167725	-1.339281
259.748108	971.647400	2209.530762	983.024963	0.919114
260.124878	951.167725	2364.266113	935.239075	-1.127215
260.501617	919.310425	2555.409912	1005.780212	5.285118
260.878296	946.616638	2846.676514	1014.882263	3.592814
261.254944	960.269775	2983.207764	1055.841675	4.724411
261.631561	851.044800	2924.044189	1074.045776	10.757406
262.008179	962.545288	2555.409912	1060.392700	6.142858
262.384735	928.412476	2252.765625	1017.157776	6.701030
262.761261	905.657288	2025.213501	992.127075	7.723577
263.137695	873.799988	1952.396851	980.749451	9.915610
263.514191	937.514587	1986.529663	1078.596802	13.449016
263.890594	976.198425	1934.192627	1021.708862	4.750597
264.267029	957.994263	1925.090576	1001.229126	4.470585
264.643341	898.830688	1868.202637	992.127075	9.624415
265.019653	953.443237	1790.834839	1044.463989	10.869556
265.395935	926.136963	1865.927002	1074.045776	15.738496
265.772217	953.443237	1815.865601	942.065613	-1.319264
266.148407	989.851563	1897.784302	1049.015137	6.516295
266.524597	976.198425	1884.131226	1003.504700	3.007522
266.900726	939.790100	2088.927979	960.269775	1.782177
267.276855	937.514587	2136.714111	973.922913	3.036052
267.652924	992.127075	2198.153076	944.341125	-3.962265
268.028992	1005.780212	2191.326416	1001.229126	-0.383881
268.404999	996.678101	2204.979736	944.341125	-4.331450
268.781006	935.239075	2198.153076	998.953613	5.045042
269.156921	946.616638	2195.877686	953.443237	0.546451
269.532837	967.096313	2245.938965	962.545288	-0.355871
269.908661	901.106262	2209.530762	1012.606750	8.521736
270.284546	901.106262	2093.479248	1014.882263	9.541981
270.660339	976.198425	2141.265137	996.678101	1.757811
271.036133	976.198425	2195.877686	989.851563	1.119404
271.411835	885.177612	2195.877686	1001.229126	8.854162
271.787537	967.096313	2407.500977	917.034912	-3.475510
272.163239	978.473938	2748.829102	1080.872437	5.784065
272.538849	939.790100	2796.614990	978.473938	2.083333
272.914459	946.616638	2848.952148	987.576050	2.153112
273.290070	864.697876	2673.737061	978.473938	6.289309
273.665588	960.269775	2607.746826	1096.801025	8.287293
274.041046	960.269775	2562.236328	1010.331238	3.125000
274.416565	942.065613	2466.664551	1001.229126	3.880595
274.791962	953.443237	2523.552490	994.402588	2.608694
275.167389	905.657288	2421.154053	1026.259888	7.957958
275.542755	930.687988	2255.041016	1019.433350	6.701035
275.918060	930.687988	2302.827148	1028.535400	7.131012
276.293365	948.892151	2402.949951	989.851563	2.816904
276.668640	976.198425	2437.082764	1035.361938	4.049842
277.043854	955.718750	2400.674561	1060.392700	7.244093
277.419037	919.310425	2523.552490	1085.423462	10.354611
277.794189	928.412476	2544.032227	994.402588	4.084507
278.169312	983.024963	2466.664551	1003.504700	1.380371
278.544373	987.576050	2532.654541	967.096313	-1.325482
278.919464	1028.535400	2437.082764	1010.331238	-1.292407
279.294464	976.198425	2437.082764	969.371887	-0.467288
279.669464	928.412476	2450.735840	987.576050	3.886400
280.044403	969.371887	2311.929199	1067.219238	7.288132
280.419312	985.300537	2439.358398	951.167725	-2.347418
280.794189	998.953613	2521.277100	1003.504700	0.298957
281.169037	1030.810913	2603.195801	973.922913	-3.617944
281.543854	935.239075	2644.155273	967.096313	1.864178
281.918671	960.269775	2701.043213	1051.290649	5.228761
282.293365	955.718750	2853.503174	1037.637451	4.316544
282.668091	980.749451	3012.789551	1092.250000	5.487123
283.042786	957.994263	2980.932129	1001.229126	2.137231
283.417419	973.922913	3112.912354	1078.596802	4.893614
283.792053	923.861450	3008.238525	1030.810913	5.131004
284.166595	989.851563	2974.105713	1067.219238	3.899081
284.541138	921.585938	2782.961914	1051.290649	6.968217
284.915619	937.514587	2835.298828	967.096313	1.558751
285.290100	898.830688	2935.421875	1049.015137	7.374305
285.664520	983.024963	3015.064941	1080.872437	4.815234
286.038940	935.239075	3035.544678	1030.810913	4.550377
286.413300	932.963501	3231.239502	1037.637451	4.554455
286.787628	944.341125	3231.239502	1039.912964	4.179103
287.161896	964.820801	3345.015625	987.576050	0.956025
287.536194	930.687988	3317.709229	1044.463989	4.766443
287.910400	937.514587	3231.239502	1058.117188	5.257936
288.284607	939.790100	3060.575439	1064.943726	5.901287
288.658752	878.351013	2978.656738	962.545288	4.008667
289.032867	926.136963	2869.431641	1033.086426	5.503512
289.406921	960.269775	3005.962891	976.198425	0.778643
289.781006	960.269775	3010.513916	1014.882263	2.663707
290.154999	964.820801	2921.768799	1039.912964	3.837208
290.529022	953.443237	3110.636963	1035.361938	3.797466
290.902954	928.412476	3438.312012	1005.780212	3.082504
291.276825	971.647400	3392.801514	989.851563	0.751880
291.650757	930.687988	3370.046387	996.678101	2.705224
292.024597	948.892151	3253.994629	1010.331238	2.665352
292.398407	971.647400	3217.586426	1071.770264	4.457951
292.772156	914.759338	3267.647949	1064.943726	6.382979
293.145905	946.616638	3056.024414	983.024963	1.725998
293.519592	962.545288	2983.207764	1089.974487	6.306308
293.893280	942.065613	2971.830078	1049.015137	5.269061
294.266907	976.198425	3108.361328	1064.943726	4.162220
294.640533	937.514587	3372.321777	1105.903076	6.915886
295.014069	912.483826	3445.138428	1071.770264	6.289308
295.387604	910.208313	3495.199951	1078.596802	6.514082
295.761078	898.830688	3586.220703	1094.525513	7.281966
296.134552	917.034912	3620.353516	1080.872437	6.060607
296.507996	882.902100	3704.547852	1140.035889	9.112901
296.881378	921.585938	3743.231689	1121.831787	7.096775
297.254730	921.585938	3736.405273	1115.005249	6.871465
297.628021	964.820801	3982.161377	1187.821899	7.390651
298.001282	953.443237	4161.927734	1149.138062	6.099292
298.374573	910.208313	4032.222900	1151.413574	7.725949
298.747803	953.443237	4171.029785	1151.413574	6.152759
299.121002	885.177612	3811.497314	1121.831787	8.087092
299.494141	1014.882263	3652.210938	1058.117188	1.639345
299.867188	944.341125	3463.342773	1101.352051	6.233061
300.240265	935.239075	3483.822266	1069.494751	5.267855
300.613312	914.759338	3351.842041	1092.250000	7.282915
300.986328	919.310425	3288.127441	1080.872437	6.820367
301.359314	976.198425	3340.464600	1080.872437	4.427336
301.732239	898.830688	3326.811523	1110.454102	8.716024
302.105103	1053.566162	3499.750977	1112.729614	2.418601
302.477997	976.198425	3440.587402	1044.463989	2.770081
302.850830	944.341125	3381.423828	998.953613	2.240896
303.223602	946.616638	3228.964111	1049.015137	4.486543
303.596375	923.861450	3144.769775	1064.943726	6.352458
303.969116	894.279663	3160.698486	1085.423462	8.433737
304.341766	957.994263	3112.912354	1042.188477	3.907073
304.714478	923.861450	3108.361328	1058.117188	6.145833
305.087067	910.208313	3119.739014	1028.535400	5.355304
305.459656	898.830688	3208.484375	1017.157776	5.123153
305.832214	841.942688	3074.228516	1037.637451	8.766563
306.204681	964.820801	3017.340576	1012.606750	2.328160
306.577148	935.239075	3056.024414	1049.015137	5.364808
306.949646	930.687988	3242.617188	1044.463989	4.921258
307.322021	912.483826	3110.636963	1042.188477	5.900620
307.694397	994.402588	3128.841064	1030.810913	1.705757
308.066742	923.861450	3158.422852	1112.729614	8.452135
308.439026	928.412476	3288.127441	1046.739624	5.014468
308.811279	926.136963	3315.433838	1060.392700	5.619048
309.183502	964.820801	3397.352539	1058.117188	3.835361
309.555695	917.034912	3634.006836	1087.698975	6.281407
309.927887	980.749451	3606.700439	1060.392700	3.032930
310.299988	983.024963	3513.404053	1155.964600	6.834535
310.672058	892.004150	3670.415039	969.371887	2.784604
311.044128	894.279663	3677.241699	1089.974487	7.031890
311.416168	969.371887	3611.251465	1076.321289	4.048232
311.788147	917.034912	3586.220703	1076.321289	5.967602
312.160065	1014.882263	3775.089111	1067.219238	1.896125
312.531982	983.024963	3531.608398	1094.525513	4.375001
312.903870	926.136963	3542.985840	1133.209351	7.913043
313.275696	907.932800	3429.209961	1058.117188	5.956679
313.647491	992.127075	3381.423828	1060.392700	2.857143
314.019318	964.820801	3360.944336	1030.810913	2.754036
314.391022	1012.606750	3340.464600	1071.770264	2.541543
314.762726	939.790100	3451.965088	1092.250000	6.068841
315.134369	946.616638	3533.883789	1155.964600	8.091471
315.505981	926.136963	3738.680664	1044.463989	4.207118
315.877594	948.892151	3779.640137	1110.454102	5.707394
316.249146	992.127075	3611.251465	1092.250000	3.822763
316.620636	978.473938	3426.934326	1051.290649	2.973979
316.992157	1008.055725	3381.423828	1046.739624	1.629916
317.363586	983.024963	3370.046387	1046.739624	2.669212
317.735016	937.514587	3306.331787	1049.015137	4.707014
318.106354	992.127075	3363.219727	1078.596802	3.646830
318.477722	912.483826	3356.393066	1049.015137	5.586595
318.849060	912.483826	3347.291016	1030.810913	4.859814
319.220306	969.371887	3374.597412	1067.219238	4.068115
319.591522	921.585938	3456.516113	1096.801025	6.912028
319.962738	942.065613	3495.199951	1101.352051	6.238859
320.333923	932.963501	3529.332764	1042.188477	4.206835
320.705017	948.892151	3556.638916	1051.290649	3.926704
321.076111	903.381775	3476.995850	1058.117188	6.012378
321.447144	942.065613	3340.464600	1092.250000	6.261860
321.818176	892.004150	3203.933350	1005.780212	4.921261
322.189178	969.371887	3272.198975	1087.698975	5.138340
322.560120	919.310425	3385.974854	1049.015137	5.258304
322.931030	873.799988	3279.025391	1058.117188	7.663199
323.301910	894.279663	3454.240479	1074.045776	7.022221
323.672729	932.963501	3679.517090	1101.352051	6.130903
324.043549	926.136963	3706.823486	1042.188477	4.173484
324.414337	919.310425	3902.518066	1169.617676	8.390541
324.785095	939.790100	4211.988770	1124.107300	5.632824
325.155792	955.718750	4180.131836	1128.658325	5.363443
325.526428	983.024963	4034.498291	1083.147949	3.281136
325.897034	932.963501	4045.875977	1067.219238	4.312866
326.267670	937.514587	3979.885986	1160.515625	7.329843
326.638184	928.412476	3952.579590	1121.831787	6.395788
327.008728	951.167725	4068.631104	1201.474976	8.029196
327.379211	935.239075	4148.274414	1051.290649	3.611898
327.749634	907.932800	4041.324951	1101.352051	6.172839
328.120026	910.208313	3731.854004	1130.933838	7.822581
328.490417	907.932800	3811.497314	1089.974487	6.269593
328.860748	962.545288	3768.262451	1099.076538	4.866180
329.231079	971.647400	3743.231689	1165.066650	6.978653
329.601318	912.483826	3663.588379	1094.525513	6.617040
329.971558	951.167725	3684.068115	1142.311401	6.994169
330.341736	903.381775	3772.813477	1008.055725	3.647898
330.711914	901.106262	3693.170166	1074.045776	6.193967
331.082062	944.341125	3818.323975	1060.392700	4.038005
331.452148	939.790100	3715.925537	1119.556274	6.475410
331.822174	969.371887	3772.813477	1112.729614	5.113633
332.192200	973.922913	3895.691650	1046.739624	2.492213
332.562134	903.381775	3745.507324	1124.107300	7.766213
332.932129	994.402588	3934.375488	1121.831787	4.334366
333.302063	978.473938	4084.559814	1178.719727	6.446885
333.671906	1021.708862	4209.713379	1155.964600	4.211278
334.041718	928.412476	4207.437988	1140.035889	6.453851
334.411499	937.514587	4257.499512	1137.760376	6.031527
334.781281	939.790100	4196.060547	1153.689087	6.568833
335.151001	953.443237	4305.285156	1146.862427	5.770535
335.520721	1014.882263	4198.335938	1133.209351	3.716941
335.890350	921.585938	4086.835449	1203.750488	8.914449
336.259979	880.626526	4168.753906	1215.128052	10.173010
336.629547	955.718750	4152.825684	1110.454102	4.839855
336.999084	967.096313	4223.366699	1215.128052	7.617050
337.368622	953.443237	4027.671875	1228.781250	8.956328
337.738098	851.044800	4105.039551	1187.821899	10.349651
338.107513	885.177612	4198.335938	1128.658325	7.348901
338.476898	894.279663	4177.855957	1178.719727	8.662508
338.846252	951.167725	4148.274414	1171.893188	6.903913
339.215576	973.922913	4414.510254	1169.617676	5.687830
339.584869	896.555176	4293.907715	1174.168701	8.171467
339.954132	1044.463989	4205.162598	1199.199463	4.895610
340.323334	928.412476	4134.621094	1105.903076	5.535841
340.692505	894.279663	3948.028564	1176.444214	9.239939
341.061646	953.443237	3857.007813	1142.311401	6.504700
341.430786	894.279663	4073.182129	1165.066650	8.518254
341.799896	983.024963	4275.703613	1194.648438	6.427092
342.168915	923.861450	4218.815430	1176.444214	7.665744
342.537903	937.514587	4225.642090	1171.893188	7.128026
342.906830	948.892151	4273.428223	1135.484863	5.612594
343.275757	992.127075	4421.336914	1183.270874	5.573989
343.644684	969.371887	4537.388672	1187.821899	6.122449
344.013550	944.341125	4541.939453	1192.372925	6.894372
344.382355	960.269775	4628.409180	1226.505737	7.258066
344.751129	985.300537	4894.645020	1249.260864	6.752036
345.119873	887.453125	4990.217285	1208.301514	7.820298
345.488586	1012.606750	5217.769043	1194.648438	4.329005
345.857269	992.127075	5415.739746	1253.812012	5.915638
346.225891	926.136963	5443.045898	1367.588013	9.773299
346.594482	955.718750	5484.005371	1242.434326	6.331657
346.963043	907.932800	5374.780273	1201.474976	6.571573
347.331543	885.177612	5208.666992	1192.372925	7.105264
347.700043	942.065613	5058.482910	1212.852539	6.578218
348.068512	992.127075	5024.350098	1231.056763	5.925508
348.436951	878.351013	4887.818848	1208.301514	8.229284
348.805328	1005.780212	4628.409180	1201.474976	5.402009
349.173645	957.994263	4612.480469	1208.301514	6.849314
349.541931	946.616638	4592.000977	1167.342163	6.054932
349.910217	912.483826	4783.144531	1253.812012	8.818344
350.278473	939.790100	4940.155762	1169.617676	5.745164
350.646667	901.106262	4935.604492	1217.403687	7.839820
351.014801	932.963501	5019.798828	1206.026001	6.681514
351.382935	1012.606750	4880.992188	1219.679199	5.352942
351.751007	964.820801	4965.186523	1260.638550	7.394768
352.119049	914.759338	4962.910645	1312.975464	9.836987
352.487091	957.994263	4987.941406	1328.904175	9.203840
352.855072	948.892151	5063.033691	1233.332275	6.913717
353.222992	957.994263	5154.054688	1228.781250	6.453362
353.590881	953.443237	5160.881348	1203.750488	5.949161
353.958740	912.483826	5449.872559	1212.852539	6.619859
354.326599	887.453125	5481.729492	1276.567139	8.469539
354.694397	882.902100	5809.404785	1262.914063	7.713625
355.062134	912.483826	5784.374023	1262.914063	7.192901
355.429840	878.351013	5707.006348	1319.802124	9.142320
355.797516	946.616638	5970.966797	1303.873413	7.110507
356.165192	896.555176	6157.559082	1328.904175	8.217995
356.532776	892.004150	6303.192383	1344.832764	8.368377
356.900360	967.096313	6435.172852	1326.628662	6.575115
357.267883	976.198425	6426.070801	1392.618774	7.640919
357.635376	978.473938	6906.205566	1476.812988	8.406910
358.002808	960.269775	7277.115723	1351.659302	6.195965
358.370270	964.820801	7568.382324	1406.271851	6.685045
358.737640	937.514587	7561.555664	1349.383789	6.217793
359.105011	905.657288	7302.146484	1347.108276	6.901457
359.472321	926.136963	6967.644531	1356.210449	7.118645
359.839569	978.473938	6837.939941	1308.424438	5.631068
360.206787	921.585938	6915.307617	1324.353149	6.719819
360.574005	907.932800	7170.166016	1287.944824	6.068315
360.941193	873.799988	7390.891602	1267.465088	6.040503
361.308319	887.453125	8055.343750	1319.802124	6.031746
361.675415	944.341125	8335.232422	1451.782227	6.865764
362.042450	932.963501	8831.295898	1481.364014	6.943244
362.409424	971.647400	9766.535156	1504.119263	6.054334
362.776428	898.830688	9736.953125	1495.017212	6.745625
363.143402	901.106262	9163.522461	1383.516602	5.838611
363.510284	978.473938	8594.641602	1442.680176	6.095011
363.877136	971.647400	7727.668457	1356.210449	5.692153
364.243988	937.514587	7384.064941	1283.393677	5.365336
364.610779	894.279663	6935.787598	1231.056763	5.574388
364.977539	905.657288	6712.786133	1265.189575	6.191223
365.344269	983.024963	6717.337402	1287.944824	5.317461
365.710938	926.136963	6544.397949	1281.118164	6.318347
366.077576	937.514587	6505.713867	1217.403687	5.026564
366.444183	866.973450	6355.529785	1260.638550	7.172471
366.810760	1001.229126	6332.774414	1240.158813	4.481434
367.177277	998.953613	6530.744629	1246.985352	4.483751
367.543823	894.279663	6564.877441	1319.802124	7.504014
367.910248	930.687988	6469.305664	1199.199463	4.847987
368.276642	928.412476	6328.223145	1237.883301	5.731142
368.643036	939.790100	6305.468262	1199.199463	4.834605
369.009399	885.177612	6214.447266	1256.087524	6.959864
369.375671	892.004150	6000.548340	1210.577026	6.236080
369.741974	951.167725	6168.937012	1244.709839	5.625816
370.108215	923.861450	6089.293457	1253.812012	6.387666
370.474396	910.208313	6066.538574	1165.066650	4.942630
370.840546	932.963501	5993.721680	1244.709839	6.160072
371.206665	994.402588	6200.793945	1233.332275	4.589161
371.572784	955.718750	6289.539551	1192.372925	4.436860
371.938843	935.239075	6485.234375	1258.363037	5.822059
372.304840	905.657288	6705.959961	1149.138062	4.197725
372.670807	957.994263	6305.468262	1256.087524	5.574469
373.036713	1017.157776	6530.744629	1185.546387	3.054066
373.402649	930.687988	6441.999512	1185.546387	4.624279
373.768524	942.065613	6360.080566	1212.852539	4.997899
374.134308	987.576050	6430.621582	1174.168701	3.428093
374.500122	944.341125	6487.509766	1217.403687	4.926110
374.865875	962.545288	6521.642578	1142.311401	3.233729
375.231567	962.545288	6482.958984	1137.760376	3.173949
375.597260	905.657288	6721.888672	1224.230225	5.477308
375.962891	946.616638	6874.348145	1221.954712	4.644915
376.328461	932.963501	6919.858887	1194.648438	4.370962
376.694031	960.269775	7229.329590	1246.985352	4.573502
377.059540	887.453125	7563.831055	1192.372925	4.567144
377.425049	964.820801	7793.658691	1153.689087	2.765746
377.790497	978.473938	8005.282227	1183.270874	2.914509
378.155945	960.269775	8260.140625	1199.199463	3.273067
378.521301	873.799988	8112.231445	1265.189575	5.407105
378.886597	901.106262	7937.016602	1124.107300	3.169470
379.251892	957.994263	7613.892578	1212.852539	3.829059
379.617157	976.198425	7299.870605	1124.107300	2.338971
379.982422	978.473938	7047.288086	1235.607788	4.236970
380.347595	973.922913	7104.175781	1165.066650	3.118040
380.712738	903.381775	7076.869629	1133.209351	3.722816
381.077820	985.300537	7258.911133	1217.403687	3.699674
381.442902	898.830688	7022.257324	1178.719727	4.570791
381.807953	989.851563	7124.655762	1140.035889	2.448071
382.172974	928.412476	6958.542480	1212.852539	4.716981
382.537933	939.790100	6953.991699	1089.974487	2.497163
382.902832	898.830688	6899.378906	1137.760376	3.981797
383.267700	914.759338	7256.635742	1115.005249	3.157518
383.632538	944.341125	7308.972656	1226.505737	4.433322
383.997345	948.892151	7479.636719	1142.311401	2.961672
384.362152	953.443237	7893.781738	1112.729614	2.295081
384.726898	930.687988	7588.861816	1224.230225	4.408750
385.091553	953.443237	7745.873047	1176.444214	3.283081
385.456238	973.922913	7638.923340	1231.056763	3.857972
385.820862	987.576050	7750.423828	1130.933838	2.119784
386.185425	889.728638	7579.759766	1137.760376	3.707483
386.549988	1005.780212	7736.770508	1160.515625	2.298851
386.914490	1005.780212	7921.087891	1135.484863	1.875617
387.278961	1010.331238	8046.241699	1237.883301	3.234152
387.643372	857.871338	7987.078125	1192.372925	4.691988
388.007782	912.483826	8053.068359	1210.577026	4.174633
388.372101	930.687988	8196.425781	1196.923950	3.664266
388.736450	983.024963	8089.476563	1260.638550	3.906501
389.100739	971.647400	8175.946289	1149.138062	2.463677
389.464966	892.004150	7996.180176	1144.586914	3.555413
389.829163	841.942688	7802.760742	1085.423462	3.497876
390.193329	912.483826	7714.015625	1162.791138	3.680161
390.557495	969.371887	7896.057129	1178.719727	3.022338
390.921570	1010.331238	8134.986816	1117.280762	1.501118
391.285614	937.514587	8200.976563	1178.719727	3.320801
391.649597	873.799988	8842.673828	1155.964600	3.540834
392.013550	944.341125	9313.707031	1217.403687	3.262643
392.377502	978.473938	9325.083984	1060.392700	0.981461
392.741455	964.820801	9393.349609	1176.444214	2.510799
393.105316	898.830688	9432.034180	1226.505737	3.840001
393.469086	983.024963	9020.164063	1162.791138	2.236694
393.832886	942.065613	8824.469727	1210.577026	3.406466
394.196655	973.922913	9006.511719	1251.536499	3.456091
394.560333	853.320313	9195.379883	1171.893188	3.818876
394.924042	878.351013	9391.074219	1212.852539	3.929430
395.287659	948.892151	9290.951172	1256.087524	3.682489
395.651245	1001.229126	9409.278320	1167.342163	1.975643
396.014771	898.830688	8956.450195	1160.515625	3.247670
396.378296	928.412476	8460.386719	1153.689087	2.990937
396.741791	921.585938	8303.375000	1074.045776	2.065351
397.105255	930.687988	8353.436523	1117.280762	2.513796
397.468628	983.024963	8155.466797	1146.862427	2.284263
397.832001	955.718750	8128.160156	1146.862427	2.664974
398.195313	951.167725	8132.711426	1153.689087	2.820025
398.558624	937.514587	8353.436523	1162.791138	3.037742
398.921844	917.034912	8266.966797	1089.974487	2.352941
399.285095	903.381775	8419.426758	1128.658325	2.997275
399.648254	887.453125	8458.110352	1108.178589	2.915539
400.011383	912.483826	8346.610352	1215.128052	4.071012
400.374451	912.483826	8119.058105	1224.230225	4.325861
400.737549	939.790100	8567.335938	1180.995239	3.162290
401.100586	882.902100	8018.935547	1124.107300	3.380102
401.463562	921.585938	8246.487305	1130.933838	2.858030
401.826508	928.412476	8451.284180	1094.525513	2.208107
402.189392	983.024963	8137.262207	1085.423462	1.431299
402.552246	971.647400	8330.681641	1105.903076	1.824365
402.915070	855.595825	8367.089844	1149.138062	3.907907
403.277893	948.892151	8756.204102	1128.658325	2.302536
403.640656	985.300537	8758.479492	1167.342163	2.341920
404.003326	907.932800	9031.541992	1144.586914	2.913165
404.366028	946.616638	9131.665039	1151.413574	2.502086
404.728699	955.718750	9582.217773	1153.689087	2.294909
405.091248	1003.504700	9750.606445	1174.168701	1.951092
405.453857	942.065613	9789.290039	1210.577026	3.034979
405.816345	983.024963	9832.525391	1210.577026	2.571355
406.178833	882.902100	9834.800781	1128.658325	2.745297
406.541260	1008.055725	9841.627930	1171.893188	1.854714
406.903687	992.127075	9680.065430	1180.995239	2.173912
407.266052	967.096313	9213.583984	1119.556274	1.848787
407.628387	1028.535400	9163.522461	1165.066650	1.678322
407.990662	955.718750	9170.348633	1153.689087	2.409973
408.352905	896.555176	9163.522461	1126.382813	2.780072
408.715118	914.759338	9256.818359	1080.872437	1.991272
409.077332	937.514587	8901.836914	1201.474976	3.314286
409.439484	914.759338	9197.655273	1130.933838	2.609890
409.801575	898.830688	9347.839844	1158.240112	3.070294
410.163605	980.749451	9466.166992	1153.689087	2.038080
410.525635	989.851563	9618.625977	1112.729614	1.424050
410.887604	912.483826	9702.820313	1142.311401	2.614548
411.249573	892.004150	9655.035156	1146.862427	2.908335
411.611481	948.892151	9689.167969	1140.035889	2.186930
411.973328	921.585938	9347.839844	1174.168701	2.997569
412.335144	976.198425	9457.064453	1135.484863	1.878186
412.696930	973.922913	9411.553711	1142.311401	1.995685
413.058685	939.790100	9611.799805	1149.138062	2.414065
413.420410	919.310425	9470.717773	1133.209351	2.501330
413.782104	889.728638	9591.320313	1099.076538	2.405858
414.143707	912.483826	9645.932617	1146.862427	2.683689
414.505310	882.902100	9709.647461	1162.791138	3.170920
414.866852	930.687988	9862.107422	1130.933838	2.242038
415.228394	921.585938	9748.331055	1201.474976	3.170920
415.589874	948.892151	10046.424805	1155.964600	2.276139
415.951324	951.167725	10230.741211	1092.250000	1.520353
416.312683	935.239075	10326.313477	1178.719727	2.592682
416.674072	1046.739624	10745.008789	1124.107300	0.797747
417.035370	923.861450	10838.305664	1158.240112	2.364012
417.396667	942.065613	11159.154297	1260.638550	3.118040
417.757935	951.167725	11131.847656	1146.862427	1.922216
418.119141	880.626526	11607.431641	1117.280762	2.206195
418.480286	896.555176	11741.687500	1196.923950	2.769618
418.841400	882.902100	12503.986328	1155.964600	2.349716
419.202484	946.616638	12779.325195	1221.954712	2.326923
419.563568	957.994263	13320.898438	1180.995239	1.803791
419.924591	973.922913	14374.464844	1221.954712	1.850909
420.285553	957.994263	14201.525391	1265.189575	2.319588
420.646484	996.678101	15457.613281	1272.016113	1.904012
421.007355	960.269775	15459.888672	1326.628662	2.526679
421.368225	946.616638	16247.218750	1310.699951	2.379536
421.729065	912.483826	16852.507813	1301.597900	2.441113
422.089874	942.065613	17362.224609	1367.588013	2.591464
422.450592	930.687988	17107.365234	1367.588013	2.700802
422.811279	937.514587	17086.884766	1342.557251	2.508102
423.171936	960.269775	16920.773438	1297.046875	2.110066
423.532593	1017.157776	16888.916016	1363.036987	2.179212
423.893127	953.443237	17055.029297	1301.597900	2.162238
424.253723	930.687988	17330.367188	1169.617676	1.456917
424.614197	996.678101	16875.261719	1310.699951	1.977644
424.974670	948.892151	17899.246094	1226.505737	1.637804
425.335052	919.310425	18165.482422	1326.628662	2.361789
425.695496	923.861450	16827.476563	1342.557251	2.632708
426.055817	928.412476	17532.888672	1322.077637	2.370837
426.416168	944.341125	17125.570313	1203.750488	1.603150
426.776398	889.728638	16201.708008	1292.495850	2.630406
427.136627	989.851563	15475.817383	1242.434326	1.743638
427.496826	998.953613	15198.203125	1260.638550	1.842949
427.856995	962.545288	14620.220703	1283.393677	2.349217
428.217102	873.799988	13951.217773	1201.474976	2.505655
428.577179	932.963501	13871.575195	1194.648438	2.022512
428.937195	905.657288	13673.604492	1169.617676	2.067368
429.297180	944.341125	13259.459961	1221.954712	2.254250
429.657135	937.514587	13168.438477	1151.413574	1.748838
430.017059	905.657288	13539.348633	1174.168701	2.125360
430.376984	869.248962	13245.806641	1174.168701	2.463688
430.736786	1003.504700	13063.764648	1190.097412	1.547170
431.096588	885.177612	12936.335938	1237.883301	2.926737
431.456360	967.096313	12949.989258	1208.301514	2.012913
431.816071	907.932800	12788.426758	1187.821899	2.355871
432.175781	955.718750	12906.753906	1146.862427	1.599390
432.535400	860.146851	12949.989258	1119.556274	2.145681
432.895020	930.687988	12893.100586	1249.260864	2.663116
433.254578	996.678101	12865.794922	1224.230225	1.917178
433.614105	907.932800	13391.439453	1226.505737	2.551951
433.973602	960.269775	13612.165039	1103.627563	1.133093
434.333038	951.167725	13621.267578	1210.577026	2.047413
434.692444	1026.259888	13430.124023	1206.026001	1.449275
435.051819	998.953613	13714.563477	1210.577026	1.664281
435.411133	917.034912	13723.666016	1267.465088	2.736318
435.770416	923.861450	13132.030273	1226.505737	2.479031
436.129669	962.545288	13684.982422	1183.270874	1.734932
436.488861	989.851563	13427.848633	1258.363037	2.158800
436.848083	989.851563	13662.226563	1190.097412	1.580176
437.207184	996.678101	13605.338867	1244.709839	1.967154
437.566254	978.473938	13837.442383	1267.465088	2.247390
437.925293	939.790100	13546.175781	1149.138062	1.660650
438.284363	955.718750	13644.022461	1249.260864	2.313486
438.643311	953.443237	14151.463867	1246.985352	2.224138
439.002258	866.973450	14372.189453	1165.066650	2.207245
439.361145	914.759338	14747.650391	1246.985352	2.401711
439.719971	948.892151	15084.427734	1185.546387	1.674180
440.078827	892.004150	15307.428711	1221.954712	2.288872
440.437592	985.300537	15739.777344	1171.893188	1.264651
440.796295	942.065613	16017.390625	1324.353149	2.535849
441.155029	998.953613	17264.376953	1331.179688	2.042530
441.513672	928.412476	17243.896484	1276.567139	2.133891
441.872253	878.351013	17064.130859	1290.220337	2.544637
442.230865	903.381775	16638.607422	1269.740601	2.328272
442.589386	944.341125	16777.414063	1219.679199	1.739006
442.947876	928.412476	16597.648438	1256.087524	2.091200
443.306335	894.279663	15971.880859	1267.465088	2.475098
443.664764	962.545288	15471.265625	1281.118164	2.195734
444.023102	921.585938	15612.348633	1276.567139	2.416357
444.381500	921.585938	15607.796875	1231.056763	2.107220
444.739777	955.718750	15573.664063	1274.291626	2.179327
445.098022	951.167725	16090.208008	1203.750488	1.668420
445.456238	930.687988	15876.308594	1158.240112	1.522534
445.814423	921.585938	16679.568359	1199.199463	1.761733
446.172577	937.514587	17330.367188	1265.189575	1.998889
446.530701	930.687988	17437.316406	1267.465088	2.040254
446.888733	962.545288	17799.123047	1349.383789	2.297608
447.246765	967.096313	18898.201172	1358.485962	2.182741
447.604736	957.994263	18215.544922	1292.495850	1.938291
447.962677	894.279663	18741.189453	1324.353149	2.409792
448.320587	935.239075	18732.087891	1333.455200	2.237565
448.678436	989.851563	18361.177734	1299.322388	1.781504
449.036255	996.678101	17869.664063	1356.210449	2.130816
449.394043	926.136963	16852.507813	1249.260864	2.028861
449.751770	939.790100	17264.376953	1262.914063	1.979370
450.109467	1008.055725	16652.261719	1262.914063	1.629091
450.467163	951.167725	16424.708984	1196.923950	1.588235
450.824768	948.892151	16411.056641	1215.128052	1.721854
451.182343	923.861450	16126.616211	1224.230225	1.975752
451.539886	937.514587	15573.664063	1217.403687	1.912314
451.897369	1017.157776	15889.961914	1235.607788	1.468788
452.254822	898.830688	15393.898438	1256.087524	2.464679
452.612274	942.065613	16176.677734	1231.056763	1.896938
452.969635	919.310425	15978.707031	1176.444214	1.707464
453.326965	921.585938	15942.298828	1180.995239	1.727011
453.684326	914.759338	15562.287109	1187.821899	1.864223
454.041534	942.065613	15245.989258	1228.781250	2.004454
454.398773	967.096313	14900.110352	1162.791138	1.404541
454.755951	976.198425	14602.016602	1240.158813	1.937208
455.113098	980.749451	14247.036133	1176.444214	1.475128
455.470215	1001.229126	14390.393555	1299.322388	2.226377
455.827240	930.687988	14363.086914	1201.474976	2.015924
456.184265	996.678101	13764.625000	1167.342163	1.336660
456.541260	935.239075	14162.841797	1240.158813	2.305178
456.898193	926.136963	14181.045898	1176.444214	1.888412
457.255096	910.208313	14274.341797	1281.118164	2.775413
457.611969	880.626526	14208.351563	1260.638550	2.851290
457.968781	953.443237	14347.158203	1208.301514	1.902820
458.325531	976.198425	14460.934570	1151.413574	1.299359
458.682312	989.851563	15207.305664	1092.250000	0.720230
459.039001	953.443237	15837.625000	1212.852539	1.742852
459.395630	951.167725	16599.923828	1258.363037	1.963065
459.752289	996.678101	18215.544922	1228.781250	1.347958
460.108856	955.718750	19514.867188	1237.883301	1.520353
460.465363	932.963501	19967.695313	1226.505737	1.542140
460.821899	948.892151	20136.083984	1283.393677	1.743358
461.178345	951.167725	19271.384766	1269.740601	1.738914
461.534760	964.820801	19114.375000	1244.709839	1.542126
461.891144	905.657288	18195.064453	1262.914063	2.066333
462.247467	960.269775	17105.089844	1210.577026	1.550387
462.603760	951.167725	16891.191406	1201.474976	1.570307
462.960052	894.279663	16115.238281	1228.781250	2.197638
463.316254	914.759338	15644.205078	1208.301514	1.992894
463.672424	967.096313	15300.601563	1183.270874	1.508177
464.028564	914.759338	14902.385742	1180.995239	1.903367
464.384644	942.065613	15022.988281	1183.270874	1.712993
464.740723	873.799988	15170.897461	1194.648438	2.244151
465.096741	896.555176	14872.803711	1192.372925	2.116575
465.452698	951.167725	14683.935547	1258.363037	2.236951
465.808655	1053.566162	14777.232422	1171.893188	0.862212
466.164520	928.412476	14647.527344	1301.597900	2.720186
466.520355	921.585938	15398.449219	1217.403687	2.043383
466.876190	937.514587	16094.758789	1219.679199	1.861583
467.231964	926.136963	15555.459961	1219.679199	2.006533
467.587677	960.269775	16208.535156	1258.363037	1.954932
467.943390	1003.504700	16279.076172	1180.995239	1.161924
468.299011	898.830688	15819.420898	1180.995239	1.891109
468.654633	939.790100	15619.174805	1169.617676	1.565649
469.010223	896.555176	15587.317383	1167.342163	1.843247
469.365723	969.371887	15123.111328	1253.812012	2.009646
469.721191	964.820801	15491.746094	1244.709839	1.926691
470.076660	964.820801	14708.966797	1151.413574	1.357616
470.432068	946.616638	15002.508789	1192.372925	1.748422
470.787445	905.657288	14918.314453	1171.893188	1.899967
471.142792	862.422363	14668.006836	1240.158813	2.736114
471.498016	955.718750	15191.376953	1258.363037	2.125959
471.853271	939.790100	15054.845703	1228.781250	2.047396
472.208496	957.994263	15111.733398	1171.893188	1.511254
472.563660	951.167725	15412.102539	1221.954712	1.872541
472.918762	969.371887	15521.327148	1208.301514	1.641907
473.273865	907.932800	15751.155273	1183.270874	1.854975
473.628876	907.932800	16433.810547	1158.240112	1.612194
473.983917	912.483826	16206.258789	1169.617676	1.681297
474.338837	942.065613	16169.850586	1196.923950	1.673640
474.693787	971.647400	16137.993164	1190.097412	1.440360
475.048645	1028.535400	15742.052734	1224.230225	1.330034
475.403503	880.626526	16213.085938	1226.505737	2.255863
475.758270	923.861450	16454.291016	1231.056763	1.978022
476.113037	971.647400	16313.208984	1269.740601	1.943043
476.467773	987.576050	16820.650391	1256.087524	1.695890
476.822418	996.678101	17623.908203	1310.699951	1.888600
477.177063	955.718750	17312.162109	1317.526489	2.212020
477.531647	923.861450	17673.970703	1262.914063	2.024181
477.886200	992.127075	18115.421875	1262.914063	1.581395
478.240723	971.647400	18568.250000	1256.087524	1.616449
478.595184	923.861450	18800.353516	1256.087524	1.858452
478.949585	923.861450	19319.171875	1251.536499	1.781297
479.303986	960.269775	19457.978516	1328.904175	1.992865
479.658325	1026.259888	19442.048828	1258.363037	1.260349
480.012634	930.687988	19603.611328	1287.944824	1.913235
480.366913	951.167725	20386.390625	1338.006226	1.990399
480.721130	989.851563	20914.312500	1235.607788	1.233440
481.075317	912.483826	21253.365234	1274.291626	1.778722
481.429474	919.310425	22197.705078	1272.016113	1.657577
481.783569	889.728638	23358.220703	1292.495850	1.792587
482.137604	969.371887	24639.339844	1347.108276	1.595847
482.491669	955.718750	26657.726563	1438.129150	1.876937
482.845612	921.585938	29668.240234	1449.506714	1.836460
483.199554	967.096313	33365.960938	1394.894287	1.320410
483.553436	926.136963	38749.843750	1565.558350	1.690531
483.907318	994.402588	46288.644531	1770.355225	1.713138
484.261139	973.922913	52205.000000	1852.273926	1.714489
484.614899	944.341125	54667.113281	1813.590088	1.618027
484.968628	912.483826	54116.437500	1870.478149	1.800607
485.322357	969.371887	51265.207031	1849.998413	1.750893
485.675964	885.177612	47594.792969	1724.844727	1.797632
486.029572	928.412476	43378.253906	1617.895264	1.624229
486.383148	948.892151	40620.320313	1599.691162	1.640473
486.736694	903.381775	38790.804688	1522.323364	1.633633
487.090149	946.616638	39154.886719	1617.895264	1.756894
487.443604	919.310425	40167.492188	1515.496826	1.519017
487.796997	873.799988	42199.535156	1606.517700	1.773030
488.150360	973.922913	43610.355469	1576.935913	1.414314
488.503693	939.790100	43660.417969	1631.548462	1.619261
488.856964	989.851563	42836.679688	1640.650513	1.555193
489.210175	996.678101	40602.117188	1579.211426	1.470842
489.563416	946.616638	38014.851563	1499.568237	1.491713
489.916565	967.096313	35768.910156	1490.466064	1.503858
490.269653	1053.566162	33482.011719	1483.639526	1.326223
490.622772	951.167725	32835.765625	1531.425537	1.819869
490.975769	882.902100	32824.386719	1417.649414	1.674147
491.328735	976.198425	34474.140625	1431.302612	1.358603
491.681732	892.004150	36585.824219	1535.976563	1.804157
492.034607	989.851563	38167.308594	1636.099487	1.738279
492.387482	967.096313	39232.253906	1533.701050	1.480733
492.740326	901.106262	38372.105469	1601.966675	1.870408
493.093079	957.994263	36462.945313	1620.170776	1.865026
493.445862	930.687988	32983.675781	1510.945801	1.810308
493.798523	921.585938	30585.275391	1451.782227	1.787358
494.151215	846.493713	28170.947266	1501.843750	2.398401
494.503815	917.034912	26241.306641	1276.567139	1.419714
494.856384	898.830688	24477.777344	1283.393677	1.630959
495.208923	955.718750	23940.753906	1369.863525	1.801802
495.561432	919.310425	23201.210938	1315.250977	1.776960
495.913879	973.922913	22336.511719	1228.781250	1.193012
496.266296	1003.504700	23110.189453	1392.618774	1.760165
496.618683	946.616638	23171.628906	1399.445313	2.037473
496.970978	946.616638	23879.314453	1242.434326	1.289938
497.323273	894.279663	23672.242188	1360.761475	2.047952
497.675507	964.820801	24120.519531	1312.975464	1.503538
498.027710	948.892151	24172.857422	1424.476074	2.047815
498.379852	921.585938	23870.212891	1299.322388	1.646009
498.731995	921.585938	23221.689453	1394.894287	2.122449
499.084076	928.412476	22894.015625	1290.220337	1.647156
499.436096	957.994263	22841.677734	1356.210449	1.819695
499.788086	921.585938	22238.664063	1249.260864	1.537148
500.140106	1035.361938	21908.714844	1297.046875	1.253679
500.491943	912.483826	21476.365234	1299.322388	1.881155
500.843842	923.861450	21305.701172	1347.108276	2.076588
501.195679	980.749451	20584.361328	1328.904175	1.775972
501.547455	873.799988	20231.656250	1256.087524	1.974844
501.899231	1001.229126	19924.460938	1246.985352	1.298701
502.250885	864.697876	19995.001953	1276.567139	2.152968
502.602600	1014.882263	19715.111328	1312.975464	1.594062
502.954193	892.004150	19863.021484	1301.597900	2.159050
503.305786	942.065613	19844.816406	1285.669312	1.817744
503.657379	948.892151	20204.349609	1287.944824	1.760813
504.008820	1035.361938	19876.673828	1201.474976	0.881643
504.360291	957.994263	20349.982422	1221.954712	1.361183
504.711700	907.932800	20288.542969	1258.363037	1.808149
505.063080	942.065613	20538.851563	1246.985352	1.555968
505.414368	973.922913	20459.207031	1258.363037	1.459769
505.765656	994.402588	20136.083984	1272.016113	1.450309
506.116943	926.136963	20179.318359	1401.720825	2.470157
506.468109	1003.504700	20111.052734	1317.526489	1.643444
506.819305	1001.229126	19776.550781	1390.343262	2.072476
507.170410	923.861450	19837.990234	1356.210449	2.285852
507.521484	976.198425	19913.082031	1344.832764	1.946647
507.872559	964.820801	20115.603516	1360.761475	2.067491
508.223480	912.483826	20415.972656	1292.495850	1.948431
508.574493	985.300537	20450.105469	1310.699951	1.671732
508.925385	901.106262	20764.126953	1283.393677	1.924619
509.276245	983.024963	21073.597656	1299.322388	1.574358
509.627045	985.300537	21235.160156	1285.669312	1.483313
509.977814	948.892151	21576.488281	1378.965576	2.084942
510.328613	953.443237	21649.304688	1290.220337	1.627268
510.679260	1026.259888	21840.449219	1390.343262	1.749207
511.029999	962.545288	22029.316406	1333.455200	1.760640
511.380585	985.300537	22309.205078	1376.690063	1.835450
511.731140	983.024963	22473.042969	1369.863525	1.800085
512.081726	969.371887	22609.574219	1378.965576	1.892744
512.432129	889.728638	22730.177734	1356.210449	2.135862
512.782654	992.127075	23114.740234	1308.424438	1.429747
513.133057	935.239075	22909.943359	1365.312500	1.957129
513.483398	892.004150	22725.626953	1388.067749	2.272017
513.833801	937.514587	22859.882813	1328.904175	1.785344
514.183960	898.830688	22532.207031	1365.312500	2.156306
514.534302	994.402588	22338.787109	1349.383789	1.663113
514.884460	932.963501	22400.226563	1290.220337	1.664194
515.234619	871.524475	22211.359375	1274.291626	1.887396
515.584717	928.412476	22099.857422	1294.771362	1.730439
515.934753	921.585938	22395.675781	1340.281738	1.949772
516.284851	953.443237	22493.523438	1347.108276	1.827593
516.634766	903.381775	22816.646484	1308.424438	1.848390
516.984741	885.177612	22711.972656	1351.659302	2.137197
517.334595	896.555176	23606.251953	1356.210449	2.024048
517.684448	1005.780212	24593.828125	1338.006226	1.408451
518.034363	1012.606750	25588.230469	1449.506714	1.777778
518.384094	901.106262	26298.193359	1399.445313	1.962190
518.733826	946.616638	27722.669922	1435.853638	1.827144
519.083496	901.106262	28175.498047	1513.221313	2.244285
519.433167	932.963501	28450.835938	1483.639526	2.001158
519.782776	980.749451	27954.773438	1499.568237	1.923402
520.132324	892.004150	27854.650391	1488.190552	2.211157
520.481873	919.310425	27131.035156	1467.710938	2.092196
520.831299	903.381775	26502.990234	1360.761475	1.786667
521.180786	905.657288	25560.925781	1419.924927	2.085833
521.530151	998.953613	25533.619141	1383.516602	1.567427
521.879517	957.994263	25080.791016	1372.139038	1.716819
522.228882	928.412476	24575.625000	1383.516602	1.924557
522.578064	955.718750	24891.921875	1394.894287	1.834775
522.927307	894.279663	24814.554688	1451.782227	2.330669
523.276489	969.371887	24725.808594	1392.618774	1.781609
523.625610	980.749451	25042.105469	1413.098389	1.796860
523.974792	930.687988	25433.496094	1433.578125	2.052377
524.323792	905.657288	25990.998047	1440.404663	2.131713
524.672852	896.555176	26853.421875	1451.782227	2.139037
525.021790	964.820801	27781.833984	1435.853638	1.756470
525.370728	907.932800	28746.654297	1472.261963	2.027138
525.719604	939.790100	30480.601563	1531.425537	2.002773
526.068420	957.994263	32041.609375	1601.966675	2.071742
526.417297	980.749451	33274.941406	1567.833862	1.817926
526.765991	905.657288	34094.128906	1604.242188	2.104902
527.114746	951.167725	35347.941406	1645.201538	2.017730
527.463379	973.922913	36383.300781	1654.303589	1.921470
527.812012	951.167725	38768.046875	1670.232300	1.901438
528.160706	998.953613	42026.593750	1795.385864	1.941209
528.509155	948.892151	46812.015625	1859.100464	1.984619
528.857727	946.616638	51590.609375	2002.458252	2.084831
529.206177	955.718750	54471.417969	2079.825928	2.100518
529.554565	955.718750	54412.253906	1929.641602	1.821897
529.902893	971.647400	53010.531250	2066.172852	2.103284
530.251221	910.208313	49868.039063	1950.121338	2.124099
530.599548	901.106262	45956.417969	1875.029175	2.161616
530.947876	930.687988	42479.421875	1818.141113	2.135933
531.296021	955.718750	39432.500000	1779.457275	2.140872
531.644165	942.065613	36918.050781	1722.569214	2.169513
531.992249	946.616638	35259.195313	1538.252075	1.724252
532.340454	948.892151	34246.589844	1629.272949	2.043327
532.688354	955.718750	34417.253906	1576.935913	1.856511
533.036438	953.443237	35850.832031	1642.926025	1.975743
533.384338	948.892151	37823.707031	1683.885376	1.993212
533.732239	882.902100	39896.707031	1715.742676	2.134733
534.080139	987.576050	40165.218750	1763.528564	1.980600
534.427917	976.198425	39487.113281	1745.324463	1.997164
534.775757	907.932800	37568.847656	1722.569214	2.222084
535.123474	901.106262	35800.769531	1724.844727	2.360305
535.471191	896.555176	34123.710938	1631.548462	2.212026
535.818848	901.106262	32644.621094	1638.375000	2.322581
536.166382	957.994263	32000.648438	1606.517700	2.089137
536.513977	962.545288	31848.189453	1679.334351	2.320784
536.861511	1008.055725	32558.152344	1658.854614	2.062748
537.208984	971.647400	32373.833984	1681.609863	2.260870
537.556396	885.177612	32442.099609	1642.926025	2.401212
537.903809	939.790100	31304.339844	1583.762451	2.120803
538.251160	944.341125	30808.275391	1704.365112	2.544956
538.598389	953.443237	29247.269531	1615.619751	2.340357
538.945740	905.657288	28630.603516	1520.047852	2.216021
539.292969	905.657288	28175.498047	1583.762451	2.486649
539.640137	910.208313	28091.304688	1595.140137	2.519883
539.987244	955.718750	28177.773438	1490.466064	1.964390
540.334351	939.790100	28826.296875	1608.793213	2.399021
540.681458	964.820801	30853.787109	1613.344238	2.169775
541.028442	951.167725	33766.453125	1683.885376	2.232855
541.375366	905.657288	37179.734375	1745.324463	2.314786
541.722290	951.167725	39869.398438	1745.324463	2.040578
542.069153	948.892151	41678.437500	1793.110352	2.072742
542.416016	917.034912	41632.929688	1868.202637	2.336109
542.762756	932.963501	40044.613281	1813.590088	2.251571
543.109558	887.453125	38617.863281	1788.559326	2.388276
543.456299	937.514587	37439.144531	1863.651489	2.537248
543.802917	921.585938	35916.820313	1731.671387	2.314845
544.149536	903.381775	34207.902344	1688.436401	2.357202
544.496094	953.443237	31763.994141	1652.028076	2.267356
544.842651	928.412476	30214.365234	1654.303589	2.478632
545.189148	992.127075	28510.000000	1642.926025	2.365005
545.535583	935.239075	27916.089844	1601.966675	2.471114
545.882019	926.136963	27299.423828	1642.926025	2.717860
546.228333	1010.331238	26939.890625	1492.741699	1.860465
546.574707	978.473938	27046.839844	1595.140137	2.365573
546.920898	910.208313	27144.687500	1652.028076	2.827652
547.267212	903.381775	27272.117188	1565.558350	2.511219
547.613342	910.208313	27005.880859	1599.691162	2.642135
547.959473	976.198425	26309.572266	1492.741699	2.038983
548.305664	994.402588	25727.039063	1533.701050	2.180513
548.651611	962.545288	24448.195313	1556.456177	2.528825
548.997742	935.239075	23883.867188	1556.456177	2.706990
549.343689	973.922913	22737.003906	1474.537476	2.300293
549.689575	894.279663	21719.845703	1467.710938	2.753497
550.035522	930.687988	21178.271484	1451.782227	2.573612
550.381287	917.034912	20429.625000	1460.884399	2.787172
550.727173	976.198425	19888.052734	1435.853638	2.430514
551.072876	898.830688	19462.529297	1444.955688	2.941897
551.418640	887.453125	19505.763672	1524.598877	3.422146
551.764282	885.177612	19291.865234	1485.915039	3.263691
552.109863	960.269775	19510.314453	1410.822876	2.428852
552.455505	898.830688	19694.632813	1417.649414	2.760290
552.801025	964.820801	19910.806641	1451.782227	2.570262
553.146545	930.687988	20411.421875	1515.496826	3.001986
553.491943	973.922913	20447.830078	1483.639526	2.617434
553.837341	926.136963	20445.554688	1551.905151	3.205875
554.182800	901.106262	19794.755859	1542.803101	3.396362
554.528015	978.473938	19428.396484	1479.088501	2.713370
554.873352	998.953613	19050.660156	1481.364014	2.672381
555.218628	1014.882263	19157.609375	1476.812988	2.546093
555.563721	887.453125	18595.556641	1442.680176	3.135441
555.908875	903.381775	18445.371094	1465.435425	3.204047
556.254028	935.239075	18147.279297	1479.088501	3.159703
556.599121	914.759338	18131.349609	1483.639526	3.304256
556.944031	951.167725	17751.337891	1524.598877	3.413246
557.289063	914.759338	17762.714844	1540.527588	3.714209
557.633972	978.473938	17557.917969	1592.864502	3.705737
557.978882	935.239075	17387.253906	1488.190552	3.360995
558.323792	964.820801	17503.306641	1467.710938	3.040726
558.668518	996.678101	17362.224609	1499.568237	3.072859
559.013306	978.473938	17232.519531	1533.701050	3.415932
559.358032	960.269775	17346.294922	1642.926025	4.166088
559.702637	901.106262	17141.498047	1524.598877	3.839148
560.047363	953.443237	17055.029297	1565.558350	3.801583
560.391846	930.687988	17284.855469	1576.935913	3.951579
560.736450	960.269775	16902.568359	1633.823975	4.224950
561.080933	892.004150	17373.601563	1699.814087	4.901284
561.425354	987.576050	17450.968750	1708.916138	4.381479
561.769775	944.341125	17655.765625	1626.997314	4.084967
562.114136	923.861450	17519.234375	1665.681274	4.470040
562.458496	921.585938	17596.601563	1586.037964	3.984716
562.802673	894.279663	17548.816406	1704.365112	4.864053
563.146912	953.443237	17400.908203	1722.569214	4.676259
563.491150	942.065613	17430.490234	1640.650513	4.236820
563.835266	960.269775	17255.273438	1736.222412	4.761905
564.179443	1012.606750	17389.529297	1740.773438	4.446297
564.523438	964.820801	16954.906250	1758.977539	4.966557
564.867493	905.657288	17353.121094	1704.365112	4.856116
565.211426	901.106262	17519.234375	1795.385864	5.381350
565.555359	901.106262	17412.285156	1829.518677	5.622932
565.899231	937.514587	17899.246094	1884.131226	5.580896
566.243042	948.892151	18572.800781	1849.998413	5.112977
566.586914	983.024963	18734.363281	1995.631714	5.704397
566.930603	962.545288	19460.253906	2011.560425	5.671054
567.274292	937.514587	19391.988281	2068.448486	6.128236
567.617981	946.616638	19494.386719	2000.182739	5.680285
567.961609	971.647400	18788.974609	2022.937988	5.900383
568.305237	898.830688	18518.187500	2027.489014	6.405786
568.648682	919.310425	18563.699219	2018.386963	6.229043
568.992188	860.146851	18031.226563	1934.192627	6.254969
569.335632	926.136963	18172.308594	1995.631714	6.201346
569.679016	942.065613	17947.033203	2009.284912	6.275927
570.022461	960.269775	17956.134766	2020.662476	6.239121
570.365662	942.065613	18076.736328	2113.958740	6.839309
570.708984	887.453125	17917.451172	2077.550537	6.988242
571.052185	935.239075	18033.501953	2136.714111	7.026884
571.395386	951.167725	18245.125000	2239.112549	7.447369
571.738525	951.167725	18748.015625	2170.846924	6.853344
572.081604	880.626526	19159.884766	2296.000488	7.743061
572.424683	923.861450	19605.886719	2298.276123	7.356883
572.767578	946.616638	19428.396484	2416.603027	7.953706
573.110596	985.300537	19640.019531	2391.572266	7.538424
573.453552	964.820801	19580.857422	2391.572266	7.664099
573.796387	896.555176	19237.251953	2377.919189	8.076923
574.139282	939.790100	19041.558594	2478.042236	8.497801
574.481995	928.412476	19112.099609	2389.296875	8.034039
574.824768	866.973450	18445.371094	2557.685303	9.618123
575.167480	946.616638	18668.373047	2493.970703	8.731380
575.510132	946.616638	18543.218750	2575.889648	9.259021
575.852722	921.585938	18854.964844	2589.542725	9.300851
576.195251	937.514587	18206.441406	2616.848877	9.724601
576.537842	923.861450	18019.849609	2573.614014	9.649940
576.880188	946.616638	17881.042969	2689.665527	10.292932
577.222717	978.473938	17498.755859	2710.145264	10.482094
577.565063	930.687988	17478.275391	2801.166016	11.303630
577.907410	978.473938	16711.423828	2669.185791	10.746312
578.249756	978.473938	16597.648438	2773.859863	11.494756
578.591919	1017.157776	16360.994141	2767.033203	11.404420
578.934204	973.922913	15908.166016	2680.563477	11.427701
579.276306	955.718750	15471.265625	2671.461426	11.820035
579.618469	955.718750	15232.335938	2703.318604	12.240994
579.960571	996.678101	14959.273438	2780.686523	12.777054
580.302551	967.096313	14765.854492	2787.512939	13.192613
580.644531	1023.984375	14865.977539	2817.094727	12.954134
580.986511	935.239075	14490.516602	2885.360352	14.386436
581.328369	917.034912	14590.639648	2819.370361	13.912465
581.670227	901.106262	14265.240234	2839.849854	14.507066
582.012024	928.412476	14358.536133	2823.921387	14.113860
582.353821	907.932800	14253.862305	2892.187012	14.867860
582.695496	907.932800	14313.025391	2944.523926	15.192667
583.037231	962.545288	14112.780273	3040.095703	15.798579
583.378845	942.065613	14090.024414	3147.045166	16.770508
583.720398	944.341125	14260.688477	3117.463379	16.319206
584.062012	864.697876	13769.176758	3147.045166	17.686474
584.403442	923.861450	14051.340820	3210.759766	17.420696
584.744934	969.371887	13823.789063	3194.831299	17.312799
585.086365	1003.504700	13721.390625	3185.729004	17.158705
585.427734	942.065613	13632.645508	3228.964111	18.020441
585.768982	1033.086426	13928.462891	3374.597412	18.157755
586.110291	1005.780212	13796.482422	3388.250488	18.626579
586.451599	951.167725	13443.777344	3374.597412	19.398907
586.792725	955.718750	13578.032227	3588.496338	20.858122
587.133850	937.514587	13646.297852	3581.669678	20.805729
587.474915	951.167725	13823.789063	3661.312988	21.053562
587.815979	976.198425	13521.144531	3709.098877	21.784872
588.157043	1012.606750	13737.319336	3672.690674	20.904865
588.497925	987.576050	13732.767578	3831.977051	22.317444
588.838867	989.851563	14071.820313	3811.497314	21.568968
589.179749	923.861450	14117.331055	3909.344727	22.628492
589.520569	869.248962	14037.687500	3970.783691	23.552790
589.861450	951.167725	14003.554688	3966.232666	23.099722
590.202087	942.065613	14429.077148	4016.294189	22.793993
590.542847	892.004150	14212.903320	4148.274414	24.444822
590.883484	960.269775	14376.740234	4216.540039	24.270691
591.224121	912.483826	14053.616211	4305.285156	25.818180
591.564636	987.576050	14365.363281	4425.888184	25.701651
591.905151	921.585938	14060.443359	4280.254395	25.562866
592.245667	903.381775	13871.575195	4373.550781	26.759077
592.585999	928.412476	13805.584961	4339.417969	26.488775
592.926453	1008.055725	13518.869141	4514.633301	28.028374
593.266724	946.616638	13805.584961	4560.143555	28.101217
593.607056	1026.259888	13655.400391	4528.286621	27.729733
593.947388	967.096313	13958.044922	4544.214844	27.535469
594.287476	889.728638	13771.452148	4744.460938	29.924042
594.627686	967.096313	14210.626953	4899.196289	29.690725
594.967773	969.371887	14353.985352	4862.788086	29.088747
595.307861	948.892151	14383.567383	4903.747559	29.437672
595.647888	976.198425	14394.944336	5003.870117	30.015261
595.987854	892.004150	14724.895508	5151.779297	30.794540
596.327820	953.443237	14788.609375	5311.065430	31.496710
596.667725	885.177612	14986.580078	5456.698730	32.418911
597.007568	946.616638	15919.543945	5595.505859	31.048632
597.347351	912.483826	16158.473633	5838.986328	32.313431
597.687073	969.371887	16611.302734	5986.895020	32.077389
598.026794	1010.331238	16474.771484	6002.823730	32.283695
598.366455	942.065613	16087.931641	5868.568359	32.527046
598.706116	937.514587	15332.458984	5738.863281	33.354408
599.045654	985.300537	15057.121094	5779.822754	34.071800
599.385193	944.341125	14408.597656	5493.107422	33.784012
599.724731	878.351013	14058.167969	5468.076660	34.823895
600.064087	957.994263	13955.769531	5336.096191	33.683472
600.403564	957.994263	13575.756836	5297.412598	34.391346
600.742920	930.687988	13248.082031	5290.585938	35.396267
601.082153	953.443237	13111.550781	5345.198242	36.122028
601.421387	992.127075	13307.246094	5329.269531	35.218033
601.760620	964.820801	13179.816406	5299.687988	35.488075
602.099854	962.545288	13136.582031	5338.371582	35.943920
602.438843	871.524475	13095.622070	5411.188477	37.137009
602.778015	894.279663	13694.083984	5499.933594	35.982220
603.117065	960.269775	13830.615234	5722.935059	37.004951
603.456055	937.514587	13923.912109	6046.058594	39.337654
603.794983	967.096313	14342.607422	5982.344238	37.495750
604.133850	914.759338	14943.344727	6109.773438	37.031635
604.472778	983.024963	15682.889648	6446.550293	37.167183
604.811584	917.034912	16056.075195	6724.164063	38.358635
605.150330	880.626526	16454.291016	7035.910156	39.523670
605.489075	930.687988	16552.138672	6922.134277	38.353966
605.827698	907.932800	16367.821289	6828.837891	38.298500
606.166382	935.239075	16219.912109	6897.103516	39.005508
606.504883	989.851563	15744.328125	6742.368164	38.988281
606.843445	957.994263	15161.794922	6564.877441	39.474529
607.181946	964.820801	14624.772461	6476.132324	40.346497
607.520386	921.585938	14292.545898	6307.743652	40.282505
607.858826	944.341125	13898.880859	6089.293457	39.715435
608.197083	873.799988	13757.798828	6091.569336	40.498058
608.535461	923.861450	13434.674805	6048.334473	40.960350
608.873718	992.127075	13675.879883	6011.925781	39.576607
609.211914	937.514587	14017.208008	6307.743652	41.057758
609.550171	910.208313	14442.730469	6414.693359	40.675972
609.888245	889.728638	14863.702148	6626.316406	41.051945
610.226318	960.269775	14854.599609	6890.276855	42.679329
610.564392	951.167725	15280.122070	6799.256348	40.813091
610.902344	926.136963	14586.087891	7101.900391	45.210732
611.240295	957.994263	14840.946289	6858.419922	42.501232
611.578247	998.953613	14435.904297	6924.409668	44.098217
611.916138	855.595825	14237.933594	6851.593262	44.805305
612.253845	937.514587	13930.738281	6699.133301	44.343258
612.591675	917.034912	13318.623047	6587.632813	45.724770
612.929382	960.269775	12990.948242	6507.989258	46.113106
613.267090	948.892151	12554.047852	6225.824707	45.470589
613.604736	898.830688	12645.069336	6239.478027	45.466873
613.942261	939.790100	12324.220703	6002.823730	44.473316
614.279785	942.065613	12269.608398	5848.088379	43.310566
614.617310	894.279663	11962.413086	5955.038086	45.723682
614.954712	976.198425	11809.953125	5711.557129	43.709305
615.292175	905.657288	11894.147461	5932.282715	45.744461
615.629517	935.239075	11805.402344	5688.802246	43.730373
615.966797	880.626526	11714.380859	5713.832520	44.612476
616.304138	907.932800	11611.982422	5645.566895	44.260204
616.641296	921.585938	11773.544922	5522.688965	42.398823
616.978516	962.545288	11759.891602	5620.536621	43.140148
617.315552	932.963501	11577.849609	5668.322266	44.484825
617.652771	1033.086426	11671.146484	5506.760254	42.053471
617.989685	944.341125	11916.902344	5602.332031	42.451260
618.326721	901.106262	11530.063477	5606.883301	44.273174
618.663696	912.483826	11491.379883	5631.914063	44.611744
619.000549	957.994263	11566.472656	5584.127930	43.607891
619.337463	930.687988	11746.238281	5559.097168	42.794022
619.674194	932.963501	11382.155273	5650.118164	45.143730
620.010986	985.300537	11377.604492	5693.353027	45.303265
620.347778	992.127075	11461.797852	5615.985352	44.164314
620.684387	976.198425	11475.451172	5468.076660	42.782837
621.020996	1053.566162	11338.919922	5456.698730	42.809738
621.357605	992.127075	11425.389648	5531.791016	43.511452
621.694214	976.198425	11470.900391	5424.841797	42.389423
622.030579	951.167725	11250.174805	5395.259766	43.150684
622.367065	923.861450	11077.235352	5352.024902	43.612728
622.703430	942.065613	11068.132813	5499.933594	45.011238
623.039795	926.136963	11218.317383	5306.514648	42.560249
623.376160	1008.055725	11040.827148	5390.708984	43.683376
623.712402	907.932800	10797.346680	5377.055664	45.190979
624.048645	946.616638	10906.571289	5436.219238	45.076534
624.384766	942.065613	10963.458984	5324.718750	43.732971
624.720886	1012.606750	10824.652344	5324.718750	43.947121
625.057007	953.443237	11284.307617	5395.259766	42.995594
625.392944	953.443237	11159.154297	5433.943848	43.901894
625.729004	948.892151	11288.858398	5408.913086	43.133808
626.064941	978.473938	11466.349609	5563.648438	43.718807
626.400818	994.402588	11737.136719	5447.596680	41.453079
626.736633	935.239075	11730.309570	5720.659180	44.329678
627.072449	953.443237	11746.238281	5716.108398	44.128189
627.408264	969.371887	11900.973633	5725.210449	43.505413
627.743896	971.647400	12085.291016	5645.566895	42.055691
628.079590	937.514587	12119.423828	5820.782227	43.671143
628.415161	946.616638	11976.066406	5757.067871	43.614605
628.750793	912.483826	11885.044922	5647.842773	43.156368
629.086365	957.994263	11755.340820	5572.750488	42.739727
629.421753	955.718750	11514.135742	5474.902832	42.801720
629.757263	973.922913	11313.889648	5490.831543	43.683975
630.092651	962.545288	11022.623047	5390.708984	44.017189
630.427917	976.198425	10958.908203	5386.157715	44.175976
630.763184	969.371887	10979.387695	5333.820801	43.600819
631.098511	841.942688	10779.141602	5295.136719	44.813370
631.433716	896.555176	10526.559570	5133.574707	43.998108
631.768799	901.106262	10456.018555	5106.268555	44.010475
632.103943	923.861450	10499.252930	5099.441895	43.607414
632.438965	969.371887	10371.824219	5167.707520	44.651497
632.773987	967.096313	10066.904297	5074.411621	45.136288
633.109070	939.790100	10192.057617	4924.227051	43.064438
633.443848	935.239075	10096.485352	4910.573730	43.392948
633.778870	926.136963	10137.445313	4853.686035	42.638340
634.113708	1035.361938	10522.007813	4937.880371	41.136971
634.448425	930.687988	10358.170898	4894.645020	42.046825
634.783264	960.269775	10296.731445	4783.144531	40.945648
635.117859	942.065613	10201.160156	4726.256836	40.869991
635.452576	973.922913	10303.558594	4803.624512	41.048779
635.787170	976.198425	9925.821289	4803.624512	42.766338
636.121704	953.443237	10178.404297	4780.869141	41.489887
636.456177	907.932800	9652.758789	4764.940430	44.106167
636.790588	892.004150	9896.240234	4644.337891	41.672981
637.125122	962.545288	9630.003906	4562.419434	41.533211
637.459412	901.106262	9545.809570	4546.490723	42.168995
637.793762	973.922913	9472.993164	4648.889160	43.239628
638.128052	887.453125	9356.941406	4437.265625	41.912952
638.462280	928.412476	9341.012695	4448.643066	41.844734
638.796509	978.473938	9031.541992	4321.213867	41.508900
639.130615	960.269775	9129.389648	4412.234863	42.256264
639.464722	919.310425	8735.724609	4382.652832	44.308582
639.798767	937.514587	9074.777344	4348.520020	41.918339
640.132751	892.004150	8883.632813	4262.050293	42.169704
640.466736	866.973450	8769.857422	4200.611328	42.182549
640.800598	980.749451	8644.703125	4325.765137	43.646084
641.134521	967.096313	8619.672852	4100.488281	40.945583
641.468262	898.830688	8601.468750	4248.397461	43.485970
641.802063	948.892151	8644.703125	4157.376465	41.691311
642.135803	939.790100	8678.835938	4107.314941	40.929138
642.469421	951.167725	8512.723633	4073.182129	41.287991
642.803101	964.820801	8282.895508	4043.600586	42.070900
643.136658	937.514587	8346.610352	3963.957275	40.847664
643.470215	998.953613	8519.549805	4050.427002	40.574886
643.803711	912.483826	8419.426758	4086.835449	42.285542
644.137085	994.402588	8467.212891	4180.131836	42.630939
644.470581	914.759338	8510.448242	4086.835449	41.761532
644.803833	973.922913	8298.824219	3979.885986	41.037594
645.137207	919.310425	8303.375000	4048.151611	42.372887
645.470459	953.443237	8385.293945	3982.161377	40.753220
645.803589	1003.504700	8196.425781	4007.192139	41.758938
646.136780	971.647400	8464.937500	3882.038574	38.839962
646.469849	964.820801	8130.436035	4000.365479	42.362652
646.802979	917.034912	8449.008789	3907.069336	39.697887
647.135986	939.790100	8282.895508	3988.988037	41.524639
647.468994	939.790100	8307.926758	4086.835449	42.711552
647.801941	944.341125	8239.661133	3961.681641	41.359951
648.134766	976.198425	8571.886719	3929.824463	38.885559
648.467651	885.177612	8474.039063	3904.793701	39.790108
648.800354	926.136963	8282.895508	4018.569824	42.035263
649.133179	914.759338	8198.701172	3982.161377	42.111843
649.465881	932.963501	8203.252930	3934.375488	41.283253
649.798462	957.994263	8237.385742	3950.304199	41.106594
650.131104	912.483826	8414.875977	3895.691650	39.763420
650.463623	937.514587	8412.600586	3913.895752	39.817348
650.796143	973.922913	8373.916992	3993.539063	40.805656
651.128662	962.545288	8471.763672	3961.681641	39.939392
651.461060	953.443237	8376.192383	3986.712402	40.864498
651.793396	914.759338	8360.263672	3977.610352	41.136917
652.125732	921.585938	8344.334961	4045.875977	42.090740
652.458008	967.096313	8137.262207	3950.304199	41.605843
652.790222	957.994263	8517.274414	3877.487549	38.621311
653.122437	885.177612	8271.518555	3857.007813	40.234131
653.454529	971.647400	8289.722656	3986.712402	41.200245
653.786621	896.555176	8276.069336	3986.712402	41.874805
654.118713	937.514587	8173.670898	3843.354736	40.157234
654.450623	917.034912	8091.751953	3768.262451	39.739933
654.782654	926.136963	8214.629883	3795.568604	39.369339
655.114502	903.381775	7993.904785	3891.140625	42.137356
655.446350	973.922913	7930.189941	3859.283203	41.478573
655.778198	953.443237	8100.854004	3838.803711	40.369308
656.109863	962.545288	7939.291992	3702.272461	39.269409
656.441650	978.473938	7859.648926	3681.792725	39.285717
656.773254	901.106262	7741.321777	3688.619141	40.751831
657.104919	921.585938	8000.730957	3804.670898	40.726456
657.436462	939.790100	7798.209961	3697.721191	40.212341
657.767944	923.861450	7998.455566	3745.507324	39.884209
658.099548	917.034912	7996.180176	3850.181152	41.433620
658.430908	955.718750	8228.283203	3868.385254	40.050060
658.762268	914.759338	8378.467773	3945.753174	40.609756
659.093628	928.412476	8692.489258	4068.631104	40.445488
659.424927	862.422363	8733.449219	4105.039551	41.196877
659.756226	942.065613	9247.716797	4314.387207	40.602734
660.087341	992.127075	9161.247070	4280.254395	40.250694
660.418518	923.861450	9270.471680	4293.907715	40.376228
660.749573	912.483826	9193.104492	4207.437988	39.791145
661.080627	957.994263	9172.624023	4255.224121	40.138508
661.411621	912.483826	9040.644531	4073.182129	38.885777
661.742554	907.932800	8690.213867	4111.866211	41.169590
662.073547	923.861450	8542.304688	3936.650879	39.545998
662.404297	994.402588	8398.947266	3957.130615	40.012291
662.735229	926.136963	8312.477539	3934.375488	40.727047
663.065979	957.994263	8073.547852	3747.782715	39.206909
663.396667	932.963501	8014.384277	3763.711426	39.974293
663.727417	976.198425	7641.198730	3531.608398	38.340733
664.057922	935.239075	7668.504883	3738.680664	41.635693
664.388611	869.248962	7579.759766	3552.087891	39.979652
664.719116	928.412476	7575.208984	3533.883789	39.198902
665.049622	969.371887	7388.616211	3456.516113	38.745129
665.380005	996.678101	7306.697266	3376.872803	37.720882
665.710388	885.177612	7379.514160	3492.924316	40.154167
666.040771	971.647400	7245.258301	3431.485352	39.209286
666.371033	930.687988	7320.350586	3399.628174	38.639603
666.701294	930.687988	7117.829102	3445.138428	40.639938
667.031555	939.790100	7145.135254	3451.965088	40.484051
667.361633	919.310425	7402.269043	3395.077148	38.188839
667.691772	889.728638	7445.503906	3458.791504	39.187782
668.021790	857.871338	7249.809082	3392.801514	39.658245
668.351807	926.136963	7249.809082	3424.658691	39.510616
668.681763	969.371887	7233.880859	3381.423828	38.503448
669.011719	901.106262	7318.074707	3413.281250	39.148941
669.341614	942.065613	7268.013672	3508.853027	40.575535
669.671387	932.963501	7258.911133	3454.240479	39.856113
670.001221	967.096313	7293.043945	3502.026611	40.071941
670.330933	928.412476	7295.319824	3492.924316	40.278767
670.660583	896.555176	7172.441406	3411.005615	40.065266
670.990173	905.657288	7131.482422	3415.556641	40.314323
671.319763	889.728638	7026.808105	3283.576416	39.006298
671.649292	937.514587	7060.940918	3436.036377	40.802673
671.978821	1001.229126	7115.553711	3345.015625	38.332714
672.308289	964.820801	6933.511719	3294.954102	39.039268
672.637695	989.851563	6938.062988	3238.066162	37.796482
672.966980	946.616638	7017.706055	3269.923340	38.268364
673.296326	914.759338	6926.685547	3231.239502	38.531414
673.625610	926.136963	6915.307617	3208.484375	38.107903
673.954773	914.759338	6856.144043	3153.871826	37.686710
674.283936	960.269775	6737.816895	3071.953125	36.549828
674.613037	921.585938	6744.643555	3231.239502	39.663933
674.942078	919.310425	6694.582031	3201.657715	39.519306
675.271118	932.963501	6765.123535	3124.290039	37.573158
675.600098	869.248962	6690.031250	3183.453613	39.757622
675.928955	912.483826	6594.459473	3051.473389	37.645172
676.257813	919.310425	6605.836914	3147.045166	39.175671
676.586670	978.473938	6649.071777	3112.912354	37.640450
676.915466	921.585938	6530.744629	3215.310791	40.892494
677.244141	955.718750	6498.887207	3058.300049	37.931038
677.572876	953.443237	6569.428711	3074.228516	37.763367
677.901489	957.994263	6592.183594	3208.484375	39.943459
678.230042	932.963501	6562.602051	3101.534912	38.520611
678.558594	951.167725	6585.357422	3192.555664	39.781906
678.887085	942.065613	6796.980469	3122.014648	37.232803
679.215515	917.034912	6703.684082	3199.382324	39.441605
679.543945	969.371887	6862.970703	3283.576416	39.266411
679.872253	912.483826	6915.307617	3274.474365	39.347988
680.200562	907.932800	7001.777344	3222.137451	37.976101
680.528809	917.034912	7277.115723	3313.158203	37.674416
680.856995	960.269775	7347.656738	3390.525879	38.047737
681.185120	951.167725	7404.544922	3263.096924	35.825108
681.513306	866.973450	7327.176758	3315.433838	37.900673
681.841309	914.759338	7356.758789	3213.035400	35.676441
682.169373	996.678101	7204.298828	3272.198975	36.656895
682.497314	928.412476	7381.789551	3365.495361	37.764462
682.825134	957.994263	7170.166016	3235.790527	36.666668
683.153076	946.616638	7022.257324	3272.198975	38.277153
683.480896	928.412476	7090.522949	3235.790527	37.444607
683.808655	969.371887	6928.960938	3112.912354	35.967926
684.136414	873.799988	6767.398926	3156.147461	38.725868
684.464050	960.269775	6571.704102	3174.351563	39.456608
684.791626	930.687988	6507.989258	3056.024414	38.106895
685.119263	1001.229126	6546.673340	3140.218750	38.572018
685.446838	912.483826	6558.050781	2978.656738	36.598148
685.774292	980.749451	6362.355957	2955.901611	36.701904
686.101685	960.269775	6287.264160	2899.013428	36.394703
686.429077	957.994263	6241.753418	2933.146240	37.381565
686.756348	937.514587	6407.866699	2962.728027	37.021629
687.083679	962.545288	6223.549316	2871.707275	36.288929
687.410950	896.555176	6275.886230	2969.554688	38.536381
687.738159	1001.229126	6259.957520	2926.319824	36.607533
688.065308	992.127075	6207.620605	2908.115479	36.736473
688.392395	921.585938	6366.907227	2958.177002	37.400753
688.719421	926.136963	6544.397949	3026.442627	37.383556
689.046448	1014.882263	6296.366211	3005.962891	37.699265
689.373413	919.310425	6262.233398	2996.860840	38.884151
689.700317	962.545288	6184.865723	3005.962891	39.128540
690.027100	978.473938	6100.671387	2935.421875	38.205246
690.353943	882.902100	6036.956543	2810.268311	37.395145
690.680725	935.239075	5986.895020	2828.472412	37.477482
691.007446	930.687988	5980.068848	2782.961914	36.683189
691.334106	964.820801	5970.966797	2780.686523	36.272728
691.660645	960.269775	5875.394531	2712.420898	35.648151
691.987244	983.024963	5752.516602	2664.634766	35.257633
692.313721	955.718750	5775.271973	2794.339600	38.149197
692.640259	973.922913	5597.781250	2732.900391	38.041336
692.966675	907.932800	5647.842773	2716.971924	38.166103
693.293030	832.840637	5606.883301	2666.910400	38.417542
693.619324	857.871338	5590.954590	2605.471436	36.923080
693.945618	996.678101	5470.352051	2676.012451	37.538151
694.271851	944.341125	5361.126953	2637.328613	38.330761
694.598083	901.106262	5593.229980	2594.093750	36.081478
694.924194	871.524475	5454.423340	2573.614014	37.140022
695.250244	894.279663	5538.617676	2625.950928	37.285645
695.576294	960.269775	5440.770020	2596.369141	36.515999
695.902283	855.595825	5443.045898	2541.756836	36.755951
696.228210	962.545288	5356.576172	2582.716064	36.872086
696.554138	923.861450	5402.086426	2580.440674	36.991871
696.879944	894.279663	5584.127930	2653.257324	37.506069
697.205750	903.381775	5593.229980	2757.931152	39.543911
697.531433	962.545288	5750.241211	2694.216553	36.169201
697.857178	971.647400	5798.026855	2735.176025	36.539368
698.182739	962.545288	5889.047852	2830.747803	37.921478
698.508423	971.647400	6232.651367	2762.482178	34.039791
698.833984	985.300537	6385.111328	2901.289063	35.482513
699.159485	978.473938	6710.510742	2937.697266	34.180233
699.484924	960.269775	6769.674316	3122.014648	37.211128
699.810303	960.269775	6935.787598	3103.810303	35.872047
700.135681	953.443237	6851.593262	3005.962891	34.799377
700.460999	987.576050	6774.225586	3051.473389	35.666538
700.786255	1001.229126	6505.713867	3033.269287	36.916080
701.111450	998.953613	6485.234375	2887.635986	34.425552
701.436646	889.728638	6271.335449	2896.738037	37.293869
701.761719	889.728638	6011.925781	2676.012451	34.873390
702.086792	1044.463989	5916.354004	2655.532715	33.068657
702.411865	919.310425	5700.179688	2655.532715	36.316040
702.736816	978.473938	5456.698730	2669.185791	37.754066
703.061646	1001.229126	5413.463867	2555.409912	35.224342
703.386536	948.892151	5210.942871	2555.409912	37.693539
703.711365	976.198425	5081.237793	2405.225586	34.811531
704.036194	885.177612	5019.798828	2480.317627	38.580078
704.360901	948.892151	4969.737305	2457.562500	37.521225
704.685547	994.402588	5115.370605	2455.286865	35.450027
705.010132	989.851563	4885.542969	2375.643799	35.572433
705.334717	1023.984375	4739.909668	2443.909424	38.211884
705.659302	903.381775	4810.451172	2346.062012	36.924866
705.983765	889.728638	4892.369629	2230.010498	33.484936
706.308228	892.004150	4883.267578	2332.408936	36.088943
706.632568	926.136963	4685.297363	2373.368164	38.498787
706.956909	935.239075	4796.797852	2396.123291	37.831467
707.281189	989.851563	4708.052734	2341.510986	36.352509
707.605408	980.749451	4667.093262	2377.919189	37.901230
707.929626	905.657288	4830.930664	2341.510986	36.579712
708.253784	1010.331238	4862.788086	2427.980713	36.798580
708.577820	951.167725	4783.144531	2389.296875	37.529694
708.901855	973.922913	4844.583984	2432.531738	37.683716
709.225830	921.585938	4855.961426	2255.041016	33.892422
709.549805	919.310425	4867.338867	2505.348389	40.172913
709.873718	837.391663	4849.134766	2507.624023	41.633583
710.197510	1028.535400	4824.104004	2393.847900	35.971226
710.521362	935.239075	4906.022949	2423.429688	37.478512
710.845093	964.820801	5088.064453	2355.164063	33.719650
711.168701	987.576050	5053.931641	2364.266113	33.855625
711.492432	948.892151	4985.666016	2380.194824	35.456600
711.816040	921.585938	4997.043457	2412.052002	36.571747
712.139587	942.065613	5138.125977	2480.317627	36.659431
712.463074	898.830688	5201.840332	2373.368164	34.267582
712.786499	937.514587	5065.309082	2480.317627	37.375965
713.109924	1001.229126	5065.309082	2550.858887	38.129902
713.433350	971.647400	5119.921875	2389.296875	34.174438
713.756592	921.585938	4960.635254	2414.327637	36.957748
714.079834	907.932800	4983.390625	2405.225586	36.739254
714.403015	973.922913	4744.460938	2346.062012	36.391071
714.726196	1001.229126	4953.808594	2389.296875	35.118023
715.049255	869.248962	4833.206055	2400.674561	38.633759
715.372375	905.657288	4735.358887	2302.827148	36.482475
715.695435	998.953613	4710.328125	2318.755615	35.561005
716.018311	967.096313	4774.042480	2220.908203	32.934845
716.341248	983.024963	4880.992188	2255.041016	32.632805
716.664063	946.616638	4769.491699	2318.755615	35.892853
716.987000	953.443237	4680.746094	2332.408936	36.996342
717.309692	864.697876	4744.460938	2227.734863	35.131962
717.632385	978.473938	4767.216309	2223.183838	32.852852
717.955078	937.514587	4571.521484	2157.193604	33.562923
718.277649	932.963501	4594.276367	2173.122314	33.871971
718.600220	983.024963	4505.531250	2164.020264	33.527134
718.922791	901.106262	4425.888184	2182.224365	36.346027
719.245300	971.647400	4441.816406	2125.336426	33.245903
719.567688	919.310425	4341.693848	2141.265137	35.704788
719.890015	912.483826	4177.855957	2107.132324	36.585369
720.212341	967.096313	4127.794922	1997.907227	32.613388
720.534607	928.412476	4080.008789	1988.805176	33.646210
720.856873	994.402588	4175.580566	2009.284912	31.902721
721.179016	937.514587	4114.141602	1954.672363	32.020058
721.501160	980.749451	4202.886719	2016.111450	32.132774
721.823242	905.657288	4027.671875	1954.672363	33.600582
722.145264	983.024963	3927.548828	2011.560425	34.930447
722.467224	971.647400	3932.099854	2007.009399	34.973103
722.789185	973.922913	3957.130615	1959.223389	33.028221
723.111023	921.585938	3838.803711	1950.121338	35.257408
723.432861	919.310425	3909.344727	1984.254150	35.616440
723.754578	973.922913	3932.099854	2036.591064	35.923077
724.076294	937.514587	3843.354736	1927.366089	34.064213
724.397949	960.269775	3779.640137	1959.223389	35.431797
724.719666	946.616638	3982.161377	1911.437500	31.784111
725.041260	892.004150	3731.854004	1963.774414	37.740383
725.362732	971.647400	3893.416016	1909.161987	32.087231
725.684265	912.483826	3920.722412	1995.631714	36.006054
726.005676	912.483826	3841.079102	1984.254150	36.596737
726.327087	912.483826	3829.701416	1968.325439	36.193447
726.648438	994.402588	3938.926514	2020.662476	34.853168
726.969666	969.371887	3943.477539	1936.468262	32.517216
727.290894	976.198425	3904.793701	1947.845825	33.177933
727.612061	978.473938	3936.650879	1961.498901	33.230770
727.933228	971.647400	4009.467773	1938.743774	31.835207
728.254395	903.381775	4070.906738	1947.845825	32.974140
728.575378	987.576050	4130.070313	2061.621826	34.178131
728.896301	957.994263	4034.498291	2059.346436	35.798824
729.217285	935.239075	4084.559814	2057.070801	35.621387
729.538147	912.483826	4093.661865	2038.866699	35.407726
729.858948	1033.086426	4084.559814	2036.591064	32.885906
730.179810	953.443237	4107.314941	2077.550537	35.642139
730.500549	980.749451	4159.651855	1915.988525	29.420189
730.821228	962.545288	4086.835449	2041.142212	34.522945
731.141846	942.065613	4098.212891	2013.835938	33.958183
731.462402	892.004150	4016.294189	2052.519775	37.144939
731.782898	921.585938	4193.784668	1986.529663	32.545204
732.103455	973.922913	4280.254395	2107.132324	34.273922
732.423889	955.718750	4166.478516	1966.049927	31.467043
732.744263	971.647400	4141.447754	1961.498901	31.227568
733.064636	921.585938	4186.958496	2111.683350	36.445992
733.384888	962.545288	4271.152344	2032.040039	32.324623
733.705200	942.065613	4248.397461	2013.835938	32.415691
734.025330	953.443237	4145.999023	2034.315552	33.856022
734.345520	923.861450	4280.254395	2070.723877	34.169491
734.665527	976.198425	4234.744141	2027.489014	32.262569
734.985596	923.861450	4082.284424	1995.631714	33.933716
735.305542	967.096313	3918.446777	2004.733887	35.158058
735.625549	953.443237	3882.038574	1954.672363	34.188034
735.945435	907.932800	3932.099854	1947.845825	34.386761
736.265259	964.820801	3861.558838	2007.009399	35.978008
736.585083	930.687988	3861.558838	1884.131226	32.531055
736.904785	937.514587	3759.160400	1925.090576	35.000000
737.224426	930.687988	3852.456787	1738.497925	27.647976
737.544128	944.341125	3752.333740	1818.141113	31.118315
737.863708	978.473938	3720.476563	1911.437500	34.024895
738.183289	905.657288	3695.445801	1843.171875	33.605221
738.502808	1003.504700	3777.364502	1925.090576	33.223953
738.822205	823.738525	3763.711426	1986.529663	39.551083
739.141541	971.647400	3841.079102	1793.110352	28.628073
739.460938	1010.331238	3918.446777	1961.498901	32.707355
739.780212	973.922913	3995.814453	1863.651489	29.442770
740.099426	960.269775	3913.895752	1950.121338	33.513100
740.418640	937.514587	3954.855225	1943.294800	33.333336
740.737793	921.585938	3845.630127	1868.202637	32.373543
741.056885	928.412476	3920.722412	1909.161987	32.775665
741.375977	946.616638	3845.630127	1893.233276	32.653061
741.694946	951.167725	3754.609375	1904.610962	34.009739
742.013855	928.412476	3718.200928	1888.682251	34.420879
742.332703	907.932800	3688.619141	1902.335449	35.761051
742.651550	905.657288	3606.700439	1863.651489	35.467564
742.970398	919.310425	3558.914551	1772.630737	32.327587
743.289124	892.004150	3606.700439	1797.661377	33.361271
743.607788	957.994263	3563.465576	1729.395752	29.606985
743.926453	935.239075	3470.169189	1856.824951	36.355473
744.245056	967.096313	3492.924316	1727.120239	30.090088
744.563599	985.300537	3417.832275	1809.039063	33.863422
744.882141	971.647400	3454.240479	1720.293701	30.155821
745.200500	907.932800	3438.312012	1745.324463	33.093525
745.518860	896.555176	3451.965088	1756.702026	33.659840
745.837219	919.310425	3517.955078	1749.875488	31.961473
746.155518	901.106262	3440.587402	1779.457275	34.587814
746.473755	919.310425	3411.005615	1815.865601	35.981735
746.791992	923.861450	3365.495361	1774.906250	34.855545
747.110107	964.820801	3370.046387	1706.640625	30.842007
747.428162	964.820801	3281.301025	1788.559326	35.559921
747.746216	919.310425	3445.138428	1756.702026	33.153152
748.064148	887.453125	3392.801514	1763.528564	34.968208
748.382080	930.687988	3322.260254	1840.896362	38.058994
748.700073	1008.055725	3417.832275	1697.538574	28.611898
749.017822	951.167725	3404.179199	1720.293701	31.354357
749.335632	1001.229126	3331.362549	1729.395752	31.249998
749.653320	939.790100	3438.312012	1788.559326	33.970852
749.971008	930.687988	3399.628174	1647.477051	29.032257
750.288696	948.892151	3385.974854	1749.875488	32.866482
750.606262	983.024963	3458.791504	1763.528564	31.525734
750.923828	921.585938	3349.566650	1815.865601	36.832241
751.241272	876.075500	3304.056152	1681.609863	33.177132
751.558716	946.616638	3358.668701	1747.599976	33.207550
751.876038	946.616638	3420.107666	1774.906250	33.486664
752.193481	951.167725	3354.117676	1724.844727	32.196968
752.510681	987.576050	3322.260254	1695.262939	30.311892
752.827942	992.127075	3326.811523	1745.324463	32.261204
753.145081	903.381775	3272.198975	1638.375000	31.027859
753.462219	937.514587	3263.096924	1733.946899	34.246578
753.779297	1001.229126	3226.688477	1640.650513	28.732107
754.096375	976.198425	3224.413086	1722.569214	33.198380
754.413330	973.922913	3210.759766	1665.681274	30.925739
754.730286	983.024963	3190.280273	1749.875488	34.742264
755.047119	953.443237	3137.943115	1604.242188	29.791666
755.363892	935.239075	3142.494141	1633.823975	31.649487
755.680725	983.024963	3162.973877	1670.232300	31.524010
755.997498	957.994263	3331.362549	1706.640625	31.543625
756.314148	962.545288	3267.647949	1699.814087	31.984209
756.630737	935.239075	3213.035400	1713.467163	34.165833
756.947327	946.616638	3192.555664	1754.426514	35.967579
757.263855	914.759338	3194.831299	1758.977539	37.025944
757.580261	910.208313	3096.983887	1708.916138	36.524452
757.896729	887.453125	3128.841064	1645.201538	33.807106
758.213074	989.851563	3228.964111	1704.365112	31.910568
758.529419	930.687988	3249.443604	1752.151001	35.426891
758.845642	910.208313	3199.382324	1743.048950	36.381710
759.161865	946.616638	3381.423828	1731.671387	32.242996
759.478149	967.096313	3367.770752	1822.692139	35.639812
759.794189	894.279663	3365.495361	1745.324463	34.438305
760.110229	957.994263	3322.260254	1672.507813	30.221367
760.426270	985.300537	3324.535889	1686.160889	29.961088
760.742249	917.034912	3329.086914	1777.181763	35.660378
761.058105	989.851563	3276.750000	1720.293701	31.940296
761.374023	955.718750	3354.117676	1697.538574	30.929792
761.689819	942.065613	3299.505127	1672.507813	30.984558
762.005554	930.687988	3351.842041	1752.151001	33.928574
762.321289	955.718750	3242.617188	1738.497925	34.228855
762.636902	948.892151	3290.403076	1752.151001	34.305149
762.952515	983.024963	3449.689453	1804.488037	33.302586
763.268127	946.616638	3463.342773	1740.773438	31.555155
763.583618	917.034912	3618.078125	1795.385864	32.518951
763.899048	962.545288	4036.773926	1852.273926	28.941526
764.214478	976.198425	4378.102051	2032.040039	31.036787
764.529785	973.922913	4696.674805	2143.540527	31.418093
764.845093	1033.086426	4796.797852	2198.153076	30.955259
765.160400	910.208313	4769.491699	2079.825928	30.306602
765.475586	971.647400	4541.939453	2179.948975	33.843212
765.790771	976.198425	4423.612305	2059.346436	31.419146
766.105835	960.269775	4262.050293	1961.498901	30.323915
766.420837	889.728638	3847.905762	2022.937988	38.307690
766.735840	932.963501	3845.630127	1863.651489	31.953125
767.050842	912.483826	3761.435791	1868.202637	33.546329
767.365662	939.790100	3583.945313	1838.620850	33.993114
767.680542	912.483826	3529.332764	1745.324463	31.826088
767.995300	894.279663	3470.169189	1743.048950	32.950531
768.309998	896.555176	3533.883789	1713.467163	30.974979
768.624817	853.320313	3461.067139	1774.906250	35.340313
768.939392	910.208313	3308.607178	1620.170776	29.601517
769.254028	937.514587	3310.882813	1686.160889	31.543623
769.568481	948.892151	3101.534912	1633.823975	31.818182
769.882935	914.759338	3108.361328	1667.956787	34.336102
770.197388	935.239075	3233.515137	1665.681274	31.782177
770.511841	932.963501	3256.270264	1620.170776	29.578846
770.826172	944.341125	3099.259277	1667.956787	33.579727
771.140442	892.004150	3112.912354	1535.976563	28.995905
771.454651	951.167725	2976.381104	1604.242188	32.247192
771.768860	946.616638	3083.330566	1535.976563	27.582539
772.082886	896.555176	2965.003662	1531.425537	30.693071
772.397034	973.922913	3005.962891	1513.221313	26.539753
772.711060	957.994263	2951.350586	1561.007324	30.251143
773.025024	887.453125	2994.585449	1561.007324	31.965445
773.338928	946.616638	2919.493164	1576.935913	31.949251
773.652771	923.861450	2805.717041	1556.456177	33.615479
773.966614	971.647400	2839.849854	1551.905151	31.059683
774.280457	955.718750	2848.952148	1535.976563	30.649038
774.594116	910.208313	2892.187012	1469.986450	28.243397
774.907776	887.453125	2805.717041	1551.905151	34.638195
775.221375	848.769287	2780.686523	1467.710938	32.037689
775.534912	953.443237	2746.553711	1515.496826	31.345173
775.848450	894.279663	2730.625000	1481.364014	31.970259
776.161926	967.096313	2748.829102	1545.078613	32.439339
776.475342	917.034912	2614.573486	1522.323364	35.656830
776.788696	946.616638	2771.584229	1551.905151	33.167084
777.101990	944.341125	2737.451416	1488.190552	30.329947
777.415283	971.647400	2737.451416	1533.701050	31.829901
777.728516	921.585938	2851.227539	1483.639526	29.127356
778.041626	967.096313	2616.848877	1506.394775	32.689659
778.354736	962.545288	2705.594238	1488.190552	30.156654
778.667725	951.167725	2723.798340	1483.639526	30.038509
778.980774	932.963501	2707.869873	1570.109375	35.897434
779.293640	921.585938	2694.216553	1506.394775	32.991016
779.606567	987.576050	2653.257324	1456.333252	28.142071
779.919434	967.096313	2721.522949	1447.231201	27.367054
780.232239	946.616638	2698.767578	1444.955688	28.441561
780.544983	907.932800	2744.278076	1431.302612	28.500622
780.857666	860.146851	2619.124512	1474.537476	34.928848
781.170227	953.443237	2707.869873	1474.537476	29.701683
781.482849	978.473938	2607.746826	1449.506714	28.910612
781.795410	976.198425	2519.001465	1476.812988	32.448380
782.107910	985.300537	2578.165039	1426.751587	27.714287
782.420288	944.341125	2498.521729	1422.200562	30.746712
782.732666	1008.055725	2591.818115	1485.915039	30.172411
783.044983	912.483826	2471.215576	1449.506714	34.452557
783.357300	948.892151	2550.858887	1440.404663	30.681816
783.669495	969.371887	2514.450439	1426.751587	29.602358
783.981689	914.759338	2623.675537	1408.547363	28.894806
784.293762	983.024963	2425.705078	1499.568237	35.804420
784.605835	923.861450	2539.481201	1429.027100	31.267609
784.917908	882.902100	2521.277100	1426.751587	33.194447
785.229858	905.657288	2464.388916	1383.516602	30.656933
785.541748	876.075500	2489.419678	1388.067749	31.734842
785.853577	967.096313	2434.807373	1426.751587	31.317831
786.165405	844.218201	2443.909424	1397.169800	34.566147
786.477173	953.443237	2503.072998	1356.210449	25.991190
786.788879	935.239075	2371.092773	1347.108276	28.684620
787.100525	967.096313	2396.123291	1335.730713	25.796183
787.412109	967.096313	2427.980713	1319.802124	24.143307
787.723694	1035.361938	2382.470215	1315.250977	20.777025
788.035156	921.585938	2450.735840	1365.312500	29.017859
788.346558	919.310425	2432.531738	1385.792114	30.827063
788.658081	985.300537	2459.837891	1451.782227	31.635799
788.969360	962.545288	2539.481201	1410.822876	28.427128
789.280640	971.647400	2580.440674	1399.445313	26.591230
789.591919	996.678101	2687.390137	1501.843750	29.878870
789.903076	937.514587	2712.420898	1469.986450	30.000000
790.214172	955.718750	2628.226563	1440.404663	28.979589
790.525269	967.096313	2528.103516	1417.649414	28.862974
790.836365	953.443237	2534.930176	1360.761475	25.755398
791.147339	983.024963	2473.491211	1401.720825	28.091602
791.458191	957.994263	2437.082764	1399.445313	29.846155
791.769104	957.994263	2402.949951	1338.006226	26.299212
792.079895	960.269775	2430.256104	1283.393677	21.981422
792.390686	892.004150	2412.052002	1367.588013	31.287428
792.701416	882.902100	2509.899414	1303.873413	25.874125
793.012085	944.341125	2289.173828	1331.179688	28.764809
793.322693	928.412476	2341.510986	1349.383789	29.790655
793.633240	973.922913	2327.857666	1319.802124	25.546223
793.943787	948.892151	2282.347412	1265.189575	23.720137
794.254272	944.341125	2266.418701	1381.241089	33.046467
794.564636	912.483826	2243.663574	1367.588013	34.188034
794.875000	967.096313	2371.092773	1365.312500	28.363049
795.185303	903.381775	2334.684326	1347.108276	31.001589
795.495544	937.514587	2175.397949	1378.965576	35.661762
795.805786	937.514587	2339.235352	1326.628662	27.759745
796.115906	994.402588	2368.817139	1408.547363	30.132450
796.426025	980.749451	2355.164063	1351.659302	26.986752
796.736023	971.647400	2352.888428	1326.628662	25.700169
797.045959	901.106262	2346.062012	1433.578125	36.850391
797.355896	921.585938	2264.143311	1385.792114	34.576263
797.665833	953.443237	2359.715088	1378.965576	30.258896
797.975708	955.718750	2364.266113	1308.424438	25.040386
798.285461	885.177612	2446.184814	1342.557251	29.300289
798.595154	903.381775	2323.306641	1367.588013	32.692310
798.904846	919.310425	2311.929199	1376.690063	32.843132
799.214478	930.687988	2298.276123	1415.373901	35.440926
799.524109	957.994263	2327.857666	1401.720825	32.392029
799.833557	1012.606750	2218.632813	1394.894287	31.698114
800.143005	942.065613	2220.908203	1308.424438	28.647688
800.452393	951.167725	2166.295898	1285.669312	27.528091
800.761780	869.248962	2189.051025	1301.597900	32.758621
801.071106	1003.504700	2277.796387	1237.883301	18.392853
801.380371	896.555176	2107.132324	1335.730713	36.278194
801.689575	917.034912	2152.642578	1340.281738	34.254143
801.998718	873.799988	2164.020264	1278.842651	31.393297
802.307800	919.310425	2104.856689	1267.465088	29.366602
802.616882	996.678101	2138.989502	1340.281738	30.079681
802.925903	946.616638	2216.357178	1374.414551	33.691761
803.234863	942.065613	2107.132324	1349.383789	34.960934
803.543701	892.004150	2204.979736	1403.996338	38.994801
803.852539	992.127075	2104.856689	1267.465088	24.744377
804.161316	944.341125	2050.244141	1258.363037	28.395067
804.470032	928.412476	2123.060791	1287.944824	30.095245
804.778809	944.341125	2143.540527	1256.087524	25.996208
805.087341	903.381775	2118.509766	1319.802124	34.269672
805.395935	926.136963	2170.846924	1290.220337	29.250460
805.704468	985.300537	2066.172852	1285.669312	27.789478
806.012939	969.371887	2086.652588	1260.638550	26.069244
806.321350	951.167725	2138.989502	1228.781250	23.371649
806.629761	937.514587	2161.744873	1212.852539	22.490700
806.938049	928.412476	2191.326416	1315.250977	30.630630
807.246277	896.555176	2195.877686	1376.690063	36.952709
807.554504	969.371887	2223.183838	1290.220337	25.589836
807.862671	1010.331238	2111.683350	1297.046875	26.033060
808.170715	948.892151	2209.530762	1326.628662	29.963900
808.478821	953.443237	2154.918213	1378.965576	35.416664
808.786804	1008.055725	2104.856689	1342.557251	30.497923
809.094727	953.443237	2068.448486	1242.434326	25.918362
809.402649	1019.433350	2134.438477	1265.189575	22.040815
809.710510	996.678101	2123.060791	1235.607788	21.212124
810.018311	996.678101	2134.438477	1285.669312	25.400007
810.326050	960.269775	2032.040039	1301.597900	31.847136
810.633667	930.687988	2107.132324	1183.270874	21.470024
810.941345	898.830688	2041.142212	1262.914063	31.872511
811.248901	914.759338	2054.795166	1242.434326	28.742516
811.556396	944.341125	1927.366089	1274.291626	33.564816
811.863892	955.718750	1993.356201	1347.108276	37.719296
812.171326	885.177612	1991.080688	1267.465088	34.567902
812.478699	969.371887	2025.213501	1244.709839	26.077583
812.786011	944.341125	1906.886475	1228.781250	29.550829
813.093262	939.790100	2000.182739	1153.689087	20.171679
813.400391	932.963501	1959.223389	1258.363037	31.707323
813.707642	987.576050	1929.641602	1258.363037	28.743965
814.014709	921.585938	1920.539551	1303.873413	38.268791
814.321716	978.473938	1959.223389	1276.567139	30.394430
814.628723	985.300537	1847.722900	1258.363037	31.662270
814.935669	989.851563	1972.876587	1196.923950	21.064814
815.242554	928.412476	1877.304688	1262.914063	35.251801
815.549438	944.341125	2047.968750	1267.465088	29.278349
815.856201	992.127075	1945.570313	1260.638550	28.162292
816.162964	957.994263	1988.805176	1249.260864	28.256065
816.469604	996.678101	1977.427612	1235.607788	24.361948
816.776184	871.524475	1979.703125	1167.342163	26.694042
817.082825	889.728638	2050.244141	1192.372925	26.078436
817.389343	957.994263	2011.560425	1206.026001	23.542112
817.695801	957.994263	2018.386963	1228.781250	25.536482
818.002197	946.616638	2009.284912	1160.515625	20.128483
818.308533	939.790100	2022.937988	1233.332275	27.100838
818.614868	953.443237	1943.294800	1233.332275	28.275860
818.921143	978.473938	2009.284912	1212.852539	22.737301
819.227356	901.106262	2013.835938	1308.424438	36.605312
819.533447	823.738525	2000.182739	1267.465088	37.717602
819.839539	919.310425	2068.448486	1258.363037	29.504950
820.145569	919.310425	2134.438477	1328.904175	33.707867
820.451538	889.728638	2204.979736	1312.975464	32.179924
820.757568	903.381775	2309.653564	1347.108276	31.553396
821.063416	994.402588	2496.246338	1413.098389	27.878786
821.369263	932.963501	2721.522949	1501.843750	31.806616
821.675049	946.616638	2660.083740	1456.333252	29.747675
821.980713	878.351013	2767.033203	1479.088501	31.807232
822.286438	964.820801	3213.035400	1599.691162	28.238869
822.592102	932.963501	4059.529053	1854.549438	29.475985
822.897583	937.514587	5884.496582	2391.572266	29.392822
823.203125	935.239075	8271.518555	3151.596191	30.210917
823.508545	932.963501	9903.066406	3431.485352	27.853884
823.813965	957.994263	10421.885742	3615.802490	28.083670
824.119263	978.473938	9375.145508	3392.801514	28.753387
824.424622	962.545288	7884.679688	2899.013428	27.975016
824.729858	887.453125	6753.745605	2676.012451	30.488750
825.035095	987.576050	5838.986328	2236.836914	25.750469
825.340149	887.453125	5072.135742	2195.877686	31.266996
825.645264	892.004150	4689.848145	2011.560425	29.478733
825.950256	942.065613	4200.611328	1993.356201	32.262569
826.255310	967.096313	4082.284424	1943.294800	31.336744
826.560242	987.576050	3797.844238	1797.661377	28.825909
826.865112	971.647400	3597.598389	1706.640625	27.989603
827.169922	892.004150	3338.188965	1692.987427	32.744186
827.474670	935.239075	3618.078125	1768.079712	31.043257
827.779419	948.892151	4177.855957	1900.059814	29.457365
828.084045	996.678101	4651.164551	1997.907227	27.397261
828.388672	921.585938	5012.972168	2082.101563	28.364851
828.693176	855.595825	4974.288574	2004.733887	27.900553
828.997681	903.381775	4305.285156	1881.855713	28.762545
829.302124	896.555176	3811.497314	1824.967651	31.850117
829.606567	946.616638	3467.893799	1697.538574	29.783396
829.910828	919.310425	3128.841064	1499.568237	26.261585
830.215149	960.269775	2839.849854	1513.221313	29.418886
830.519348	910.208313	2682.839111	1451.782227	30.551985
830.823547	937.514587	2682.839111	1328.904175	22.425034
831.127686	928.412476	2473.491211	1297.046875	23.858616
831.431763	896.555176	2391.572266	1249.260864	23.592085
831.735779	917.034912	2220.908203	1303.873413	29.668411
832.039734	967.096313	2161.744873	1253.812012	24.000004
832.343628	971.647400	2214.081787	1297.046875	26.190477
832.647461	973.922913	2161.744873	1319.802124	29.118774
832.951233	957.994263	2057.070801	1265.189575	27.950312
833.255127	946.616638	2098.030273	1262.914063	27.470358
833.558777	969.371887	2132.163086	1294.771362	27.984341
833.862366	967.096313	2257.316650	1356.210449	30.158735
834.165955	946.616638	2587.267090	1394.894287	27.323168
834.469482	1010.331238	3008.238525	1533.701050	26.195902
834.773010	948.892151	3347.291016	1556.456177	25.332067
835.076416	1012.606750	3479.271240	1645.201538	25.645756
835.379822	946.616638	3415.556641	1640.650513	28.110601
835.683105	998.953613	3115.187988	1570.109375	26.989248
835.986389	946.616638	2899.013428	1444.955688	25.524477
836.289612	910.208313	2803.441650	1465.435425	29.326923
836.592773	928.412476	2582.716064	1401.720825	28.610731
836.895874	939.790100	2393.847900	1294.771362	24.413145
837.198914	1008.055725	2284.622803	1356.210449	27.272732
837.501892	910.208313	2232.285889	1226.505737	23.924271
837.804871	939.790100	2070.723877	1272.016113	29.376255
838.107666	955.718750	2032.040039	1249.260864	27.272722
838.410583	992.127075	1984.254150	1237.883301	24.770639
838.713379	914.759338	1856.824951	1262.914063	36.956528
839.016052	953.443237	1811.314575	1201.474976	28.912464
839.318787	973.922913	1822.692139	1180.995239	24.396776
839.621338	919.310425	1886.406738	1137.760376	22.588232
839.923889	923.861450	1770.355225	1130.933838	24.462364
840.226440	996.678101	1699.814087	1169.617676	24.595467
840.528931	907.932800	1859.100464	1162.791138	26.794260
840.831299	910.208313	1952.396851	1240.158813	31.659389
841.133606	903.381775	2075.274902	1165.066650	22.330099
841.435913	973.922913	2075.274902	1251.536499	25.206615
841.738220	942.065613	1972.876587	1278.842651	32.671074
842.040405	901.106262	1877.304688	1224.230225	33.100235
842.342529	876.075500	1740.773438	1206.026001	38.157890
842.644592	930.687988	1831.794189	1242.434326	34.595959
842.946594	980.749451	1722.569214	1180.995239	26.993860
843.248596	960.269775	1681.609863	1110.454102	20.820183
843.550598	953.443237	1677.058838	1124.107300	23.584906
843.852478	946.616638	1622.446289	1105.903076	23.569021
844.154236	951.167725	1535.976563	1215.128052	45.136173
844.455994	969.371887	1556.456177	1096.801025	21.705425
844.757690	919.310425	1547.354126	1126.382813	32.971016
845.059326	967.096313	1526.874512	1069.494751	18.292681
845.360962	1001.229126	1533.701050	1087.698975	16.239325
845.662476	953.443237	1515.496826	1028.535400	13.360321
845.963989	905.657288	1474.537476	1060.392700	27.200001
846.265381	910.208313	1463.159912	1064.943726	27.983536
846.566772	921.585938	1488.190552	1014.882263	16.465860
846.868042	985.300537	1415.373901	1078.596802	21.693104
847.169373	987.576050	1479.088501	1062.668213	15.277774
847.470581	946.616638	1465.435425	1055.841675	21.052637
847.771729	846.493713	1490.466064	1094.525513	38.515907
848.072815	967.096313	1417.649414	1055.841675	19.696981
848.373901	942.065613	1435.853638	1053.566162	22.580650
848.674866	964.820801	1474.537476	1003.504700	7.589294
848.975891	926.136963	1454.057739	1030.810913	19.827587
849.276794	939.790100	1469.986450	1069.494751	24.463512
849.577637	923.861450	1451.782227	1046.739624	23.275873
849.878357	971.647400	1363.036987	1074.045776	26.162775
850.179077	983.024963	1397.169800	1035.361938	12.637361
850.479736	946.616638	1374.414551	1030.810913	19.680853
850.780396	953.443237	1401.720825	1039.912964	19.289326
851.080994	994.402588	1429.027100	1165.066650	39.267014
851.381470	973.922913	1403.996338	1039.912964	15.343904
851.681946	948.892151	1369.863525	1012.606750	15.135139
851.982361	955.718750	1394.894287	1037.637451	18.652838
852.282715	985.300537	1390.343262	987.576050	0.561796
852.583008	903.381775	1322.077637	1062.668213	38.043472
852.883240	930.687988	1433.578125	1023.984375	18.552042
853.183411	939.790100	1322.077637	1078.596802	36.309502
853.483521	901.106262	1333.455200	1046.739624	33.684219
853.783630	917.034912	1399.445313	1055.841675	28.773584
854.083679	964.820801	1381.241089	1008.055725	10.382521
854.383667	896.555176	1401.720825	1037.637451	27.927923
854.683533	955.718750	1333.455200	1094.525513	36.746986
854.983337	998.953613	1381.241089	1087.698975	23.214300
855.283203	935.239075	1392.618774	1014.882263	17.412926
855.582886	962.545288	1324.353149	1080.872437	32.704414
855.882629	964.820801	1388.067749	1049.015137	19.892485
856.182312	996.678101	1413.098389	1074.045776	18.579227
856.481873	932.963501	1403.996338	1021.708862	18.840590
856.781372	923.861450	1351.659302	1053.566162	30.319159
857.080872	1030.810913	1331.179688	1010.331238	-6.818177
857.380310	960.269775	1356.210449	1044.463989	21.264351
857.679688	926.136963	1403.996338	1026.259888	20.952383
857.979004	876.075500	1342.557251	1021.708862	31.219521
858.278259	992.127075	1331.179688	1060.392700	20.134228
858.577454	994.402588	1417.649414	1033.086426	9.139782
858.876648	1021.708862	1317.526489	1076.321289	18.461519
859.175720	1019.433350	1408.547363	1030.810913	2.923966
859.474792	912.483826	1372.139038	1064.943726	33.168316
859.773743	980.749451	1278.842651	1119.556274	46.564907
860.072693	960.269775	1326.628662	1060.392700	27.329193
860.371521	989.851563	1365.312500	1105.903076	30.909079
860.670349	1005.780212	1253.812012	1074.045776	27.522907
860.969116	951.167725	1294.771362	1010.331238	17.218534
861.267883	976.198425	1328.904175	1051.290649	21.290331
861.566589	946.616638	1265.189575	1039.912964	29.285704
861.865112	987.576050	1308.424438	1060.392700	22.695034
862.163635	937.514587	1406.271851	1030.810913	19.902908
862.462158	967.096313	1394.894287	1039.912964	17.021271
862.760620	944.341125	1353.934937	1078.596802	32.777760
863.059021	914.759338	1294.771362	1023.984375	28.742521
863.357361	935.239075	1349.383789	1005.780212	17.032969
863.655640	919.310425	1356.210449	1053.566162	30.729166
863.953857	898.830688	1358.485962	926.136963	5.940598
864.251953	937.514587	1285.669312	962.545288	7.189534
864.550110	962.545288	1388.067749	1014.882263	12.299462
864.848206	980.749451	1440.404663	1023.984375	9.405947
865.146179	969.371887	1303.873413	989.851563	6.122446
865.444092	878.351013	1340.281738	1042.188477	35.467972
865.741943	942.065613	1344.832764	1033.086426	22.598867
866.039795	896.555176	1363.036987	1017.157776	25.853655
866.337646	876.075500	1342.557251	1071.770264	41.951214
866.635376	914.759338	1351.659302	1012.606750	22.395840
866.933044	953.443237	1297.046875	1012.606750	17.218534
867.230652	992.127075	1324.353149	1064.943726	21.917801
867.528198	976.198425	1317.526489	1069.494751	27.333330
867.825745	996.678101	1292.495850	1062.668213	22.307692
868.123230	873.799988	1322.077637	1042.188477	37.563435
868.420593	914.759338	1331.179688	1017.157776	24.590162
868.717896	951.167725	1367.588013	946.616638	-1.092907
869.015198	928.412476	1299.322388	1003.504700	20.245407
869.312439	980.749451	1351.659302	1014.882263	9.202456
869.609619	992.127075	1342.557251	955.718750	-10.389609
869.906738	873.799988	1331.179688	1010.331238	29.850746
870.203796	994.402588	1312.975464	1039.912964	14.285704
870.500854	942.065613	1310.699951	1008.055725	17.901239
870.797791	926.136963	1349.383789	1017.157776	21.505375
871.094666	905.657288	1272.016113	1083.147949	48.447220
871.391602	953.443237	1308.424438	1021.708862	19.230772
871.688293	967.096313	1331.179688	1044.463989	21.249989
871.985107	946.616638	1360.761475	1021.708862	18.131874
872.281738	955.718750	1326.628662	1033.086426	20.858887
872.578369	926.136963	1292.495850	973.922913	13.043481
872.874939	928.412476	1331.179688	1051.290649	30.508486
873.171509	862.422363	1358.485962	1019.433350	31.651382
873.467957	994.402588	1397.169800	1042.188477	11.864394
873.764343	914.759338	1331.179688	1083.147949	40.437172
874.060669	907.932800	1331.179688	1055.841675	34.946239
874.356995	967.096313	1306.148926	1062.668213	28.187925
874.653198	971.647400	1328.904175	1046.739624	21.019117
874.949463	973.922913	1363.036987	1062.668213	22.807014
875.245544	937.514587	1294.771362	1026.259888	24.840761
875.541626	901.106262	1358.485962	957.994263	12.437806
875.837646	928.412476	1344.832764	1037.637451	26.229504
876.133606	907.932800	1347.108276	1044.463989	31.088072
876.429565	885.177612	1349.383789	989.851563	22.549021
876.725403	992.127075	1310.699951	1028.535400	11.428571
877.021179	946.616638	1249.260864	1033.086426	28.571432
877.316956	964.820801	1285.669312	1023.984375	18.439722
877.612610	919.310425	1360.761475	1108.178589	42.783489
877.908203	885.177612	1310.699951	1053.566162	39.572201
878.203857	928.412476	1312.975464	978.473938	13.017754
878.499390	905.657288	1283.393677	1021.708862	30.722900
878.794800	992.127075	1365.312500	1042.188477	13.414618
879.090271	889.728638	1326.628662	1119.556274	52.604172
879.385559	980.749451	1319.802124	1021.708862	12.080545
879.680847	948.892151	1429.027100	1035.361938	18.009476
879.976196	932.963501	1442.680176	1042.188477	21.428566
880.271301	951.167725	1567.833862	1060.392700	17.712173
880.566467	917.034912	1485.915039	1133.209351	38.000000
880.861572	978.473938	1697.538574	1153.689087	24.367092
881.156555	957.994263	1797.661377	1069.494751	13.279130
881.451477	887.453125	1993.356201	1183.270874	26.748976
881.746460	932.963501	2537.205811	1322.077637	24.255322
882.041321	1003.504700	3372.321777	1526.874512	22.094141
882.336121	926.136963	4132.345703	1806.763550	27.466290
882.630798	907.932800	4478.225098	1856.824951	26.577436
882.925537	998.953613	4528.286621	1827.243164	23.468727
883.220215	937.514587	4159.651855	1915.988525	30.367233
883.514771	1010.331238	3813.772949	1745.324463	26.217533
883.809326	1001.229126	3622.629150	1690.711914	26.302084
884.103760	914.759338	3306.331787	1620.170776	29.495716
884.398132	1037.637451	3135.667725	1526.874512	23.318874
884.692505	1035.361938	2924.044189	1611.068726	30.481930
884.986816	962.545288	2848.952148	1413.098389	23.884195
885.281067	907.932800	2664.634766	1447.231201	30.699482
885.575256	964.820801	2473.491211	1349.383789	25.490192
885.869385	971.647400	2257.316650	1267.465088	23.008850
886.163452	1008.055725	2020.662476	1233.332275	22.247190
886.457458	948.892151	1975.152100	1215.128052	25.942345
886.751465	964.820801	1849.998413	1219.679199	28.791780
887.045410	926.136963	1747.599976	1146.862427	26.869799
887.339233	866.973450	1681.609863	1078.596802	25.977644
887.632996	939.790100	1613.344238	1058.117188	17.567570
887.926758	935.239075	1561.007324	1140.035889	32.727261
888.220398	960.269775	1488.190552	1119.556274	30.172424
888.514099	937.514587	1438.129150	1071.770264	26.818172
888.807678	983.024963	1385.792114	1069.494751	21.468927
889.101196	928.412476	1474.537476	1103.627563	32.083332
889.394653	862.422363	1422.200562	1089.974487	40.650410
889.688049	951.167725	1385.792114	1012.606750	14.136120
889.981384	987.576050	1369.863525	1017.157776	7.738084
890.274719	889.728638	1365.312500	1014.882263	26.315784
890.567932	932.963501	1372.139038	1087.698975	35.233173
>>>>>End Processed Spectral Data<<<<<
