Jaz Data File
++++++++++++++++++++++++++++++++++++
Date: Wed Feb 07 06:53:40 2024
User: jaz
Dark Spectrum Present: Yes
Reference Spectrum Present: Yes
Processed Spectrum Present: Yes
Spectrometers: JAZA3692
Integration Time (usec): 49800 (JAZA3692)
Spectra Averaged: 1 (JAZA3692)
Boxcar Smoothing: 0 (JAZA3692)
Correct for Electrical Dark: No (JAZA3692)
Strobe/Lamp Enabled: Yes (JAZA3692)
Correct for Detector Non-linearity: No (JAZA3692)
Correct for Stray Light: No (JAZA3692)
Number of Pixels in Processed Spectrum: 2048
>>>>>Begin Processed Spectral Data<<<<<
W	D	R	S	P
190.244385	0.000000	0.000000	0.000000	0.000000
190.627136	0.000000	0.000000	0.000000	0.000000
191.009842	912.483826	932.963501	894.279663	-88.888924
191.392532	962.545288	928.412476	871.524475	266.666595
191.775177	957.994263	923.861450	853.320313	306.666656
192.157791	955.718750	953.443237	910.208313	2000.008057
192.540390	928.412476	907.932800	926.136963	11.111078
192.922943	869.248962	1008.055725	898.830688	21.311445
193.305481	880.626526	978.473938	921.585938	41.860497
193.687958	944.341125	946.616638	969.371887	1100.005371
194.070419	944.341125	971.647400	919.310425	-91.666481
194.452866	955.718750	967.096313	967.096313	100.000000
194.835251	969.371887	951.167725	923.861450	250.000168
195.217621	978.473938	953.443237	978.473938	-0.000000
195.599960	948.892151	1017.157776	932.963501	-23.333340
195.982254	955.718750	914.759338	971.647400	-38.888863
196.364517	905.657288	971.647400	985.300537	120.689674
196.746750	1008.055725	944.341125	969.371887	60.714245
197.128952	976.198425	948.892151	955.718750	74.999886
197.511139	953.443237	935.239075	942.065613	62.500126
197.893280	932.963501	1033.086426	955.718750	22.727312
198.275391	939.790100	901.106262	914.759338	64.705994
198.657471	930.687988	980.749451	932.963501	4.545438
199.039520	964.820801	955.718750	932.963501	350.001343
199.421539	960.269775	946.616638	955.718750	33.333183
199.803513	914.759338	960.269775	951.167725	80.000084
200.185471	948.892151	1053.566162	905.657288	-41.304295
200.567383	962.545288	1030.810913	942.065613	-29.999983
200.949265	1005.780212	935.239075	978.473938	38.709717
201.331131	964.820801	928.412476	937.514587	74.999916
201.712967	1080.872437	944.341125	914.759338	121.666672
202.094742	873.799988	1030.810913	971.647400	62.318855
202.476517	885.177612	1001.229126	912.483826	23.529390
202.858231	928.412476	951.167725	944.341125	69.999893
203.239944	942.065613	985.300537	919.310425	-52.631496
203.621582	946.616638	957.994263	946.616638	0.000000
204.003235	907.932800	923.861450	930.687988	142.856979
204.384827	903.381775	985.300537	948.892151	55.555496
204.766388	928.412476	935.239075	939.790100	166.666077
205.147934	1003.504700	955.718750	903.381775	209.523773
205.529449	980.749451	957.994263	942.065613	170.000076
205.910904	896.555176	964.820801	1008.055725	163.333374
206.292343	962.545288	985.300537	841.942688	-529.999023
206.673767	964.820801	1012.606750	932.963501	-66.666664
207.055115	892.004150	1001.229126	951.167725	54.166710
207.436462	937.514587	1001.229126	878.351013	-92.857262
207.817780	942.065613	944.341125	960.269775	800.002686
208.199051	930.687988	1042.188477	930.687988	0.000000
208.580307	887.453125	973.922913	928.412476	47.368397
208.961517	901.106262	1005.780212	937.514587	34.782604
209.342712	948.892151	944.341125	967.096313	-400.001343
209.723846	944.341125	932.963501	869.248962	659.998596
210.104965	914.759338	930.687988	932.963501	114.285660
210.486069	917.034912	1021.708862	896.555176	-19.565266
210.867111	871.524475	942.065613	910.208313	54.838692
211.248123	973.922913	1069.494751	889.728638	-88.095276
211.629120	937.514587	976.198425	1005.780212	176.470657
212.010071	946.616638	967.096313	928.412476	-88.888924
212.390991	994.402588	930.687988	853.320313	221.428482
212.771881	907.932800	980.749451	862.422363	-62.500042
213.152756	989.851563	953.443237	983.024963	18.750105
213.533569	992.127075	983.024963	903.381775	974.996826
213.914368	1008.055725	992.127075	953.443237	342.856964
214.295135	962.545288	1017.157776	853.320313	-200.000000
214.675858	994.402588	1026.259888	976.198425	-57.142830
215.056549	928.412476	1033.086426	860.146851	-65.217400
215.437225	926.136963	1026.259888	951.167725	25.000031
215.817841	951.167725	976.198425	926.136963	-100.000244
216.198441	873.799988	1055.841675	928.412476	29.999990
216.579025	983.024963	960.269775	983.024963	-0.000000
216.959549	932.963501	973.922913	989.851563	138.888870
217.340057	967.096313	1008.055725	969.371887	5.555680
217.720535	953.443237	917.034912	948.892151	12.500126
218.100967	926.136963	1010.331238	1001.229126	89.189156
218.481369	951.167725	910.208313	978.473938	-66.666519
218.861740	996.678101	910.208313	992.127075	5.263139
219.242065	994.402588	996.678101	948.892151	-2000.008057
219.622391	926.136963	992.127075	935.239075	13.793145
220.002670	946.616638	951.167725	973.922913	599.994629
220.382919	951.167725	992.127075	978.473938	66.666618
220.763123	983.024963	953.443237	901.106262	276.923340
221.143295	978.473938	962.545288	887.453125	571.428284
221.523453	948.892151	957.994263	898.830688	-549.998352
221.903549	955.718750	1003.504700	1001.229126	95.237984
222.283630	910.208313	1055.841675	921.585938	7.812512
222.663696	919.310425	1042.188477	937.514587	14.814820
223.043701	948.892151	1030.810913	928.412476	-24.999981
223.423676	964.820801	1058.117188	937.514587	-29.268244
223.803635	1033.086426	1042.188477	892.004150	-1550.005371
224.183548	1008.055725	998.953613	962.545288	499.998657
224.563431	951.167725	987.576050	948.892151	-6.250147
224.943283	960.269775	1026.259888	980.749451	31.034460
225.323105	873.799988	1069.494751	910.208313	18.604650
225.702881	885.177612	978.473938	948.892151	68.292656
226.082642	910.208313	1042.188477	894.279663	-12.068973
226.462357	903.381775	1028.535400	926.136963	18.181805
226.842041	955.718750	1037.637451	935.239075	-25.000000
227.221695	892.004150	1019.433350	894.279663	1.785707
227.601318	987.576050	1058.117188	923.861450	-90.322617
227.980911	930.687988	1044.463989	992.127075	54.000042
228.360474	917.034912	1012.606750	917.034912	0.000000
228.739990	962.545288	1133.209351	939.790100	-13.333322
229.119476	905.657288	1149.138062	1023.984375	48.598125
229.498932	821.463013	1149.138062	869.248962	14.583335
229.878372	885.177612	1210.577026	885.177612	0.000000
230.257736	901.106262	1240.158813	919.310425	5.369127
230.637115	944.341125	1233.332275	926.136963	-6.299211
231.016449	935.239075	1142.311401	964.820801	14.285697
231.395737	871.524475	1133.209351	973.922913	39.130436
231.774994	898.830688	1183.270874	957.994263	20.800005
232.154221	926.136963	1153.689087	862.422363	-28.000002
232.533417	939.790100	1117.280762	994.402588	30.769218
232.912582	921.585938	1133.209351	896.555176	-11.827973
233.291702	935.239075	1121.831787	989.851563	29.268286
233.670792	944.341125	1185.546387	983.024963	16.037725
234.049866	942.065613	1126.382813	892.004150	-27.160494
234.428894	955.718750	1149.138062	919.310425	-18.823521
234.807892	951.167725	1121.831787	892.004150	-34.666687
235.186874	944.341125	1128.658325	921.585938	-12.345667
235.565781	882.902100	1151.413574	892.004150	3.389818
235.944687	1019.433350	1149.138062	919.310425	-77.192978
236.323547	967.096313	1199.199463	996.678101	12.745104
236.702377	955.718750	1199.199463	942.065613	-5.607482
237.081177	985.300537	1169.617676	948.892151	-19.753120
237.459946	932.963501	1274.291626	976.198425	12.666675
237.838669	953.443237	1210.577026	912.483826	-15.929222
238.217361	894.279663	1151.413574	892.004150	-0.884952
238.596039	948.892151	1083.147949	971.647400	16.949175
238.974670	914.759338	1174.168701	996.678101	31.578953
239.353271	905.657288	1169.617676	917.034912	4.310353
239.731842	957.994263	1140.035889	946.616638	-6.250012
240.110367	914.759338	1240.158813	948.892151	10.489511
240.488876	896.555176	1192.372925	905.657288	3.076932
240.867340	971.647400	1244.709839	907.932800	-23.333345
241.245789	901.106262	1303.873413	912.483826	2.824849
241.624176	935.239075	1376.690063	955.718750	4.639173
242.002548	932.963501	1281.118164	894.279663	-11.111107
242.380890	887.453125	1401.720825	898.830688	2.212382
242.759186	957.994263	1529.150024	964.820801	1.195215
243.137451	944.341125	1622.446289	948.892151	0.671139
243.515686	939.790100	1670.232300	994.402588	7.476634
243.893890	928.412476	1683.885376	1010.331238	10.843375
244.272049	869.248962	1665.681274	935.239075	8.285715
244.650192	1026.259888	1590.588989	930.687988	-16.935490
245.028290	932.963501	1590.588989	1010.331238	11.764710
245.406357	928.412476	1510.945801	978.473938	8.593751
245.784393	912.483826	1497.292725	1030.810913	20.233461
246.162384	973.922913	1433.578125	967.096313	-1.485156
246.540359	889.728638	1549.629639	1012.606750	18.620689
246.918289	955.718750	1620.170776	1017.157776	9.246571
247.296204	964.820801	1795.385864	876.075500	-10.684931
247.674057	1005.780212	1995.631714	978.473938	-2.758623
248.051895	996.678101	2339.235352	973.922913	-1.694914
248.429703	919.310425	2359.715088	953.443237	2.369668
248.807465	907.932800	2325.582275	996.678101	6.260032
249.185196	1001.229126	2093.479248	919.310425	-7.499995
249.562897	946.616638	1959.223389	967.096313	2.022471
249.940567	889.728638	1884.131226	914.759338	2.517160
250.318192	976.198425	1642.926025	960.269775	-2.389079
250.695801	960.269775	1667.956787	901.106262	-8.360125
251.073349	1019.433350	1661.130127	905.657288	-17.730503
251.450882	992.127075	1567.833862	980.749451	-1.976288
251.828400	985.300537	1563.282837	951.167725	-5.905512
252.205872	914.759338	1613.344238	937.514587	3.257335
252.583313	905.657288	1633.823975	939.790100	4.687500
252.960693	978.473938	1733.946899	903.381775	-9.939755
253.338074	983.024963	1768.079712	967.096313	-2.028986
253.715408	951.167725	1722.569214	957.994263	0.884953
254.092682	928.412476	1720.293701	930.687988	0.287355
254.469955	894.279663	1570.109375	1021.708862	18.855223
254.847198	930.687988	1658.854614	953.443237	3.125006
255.224365	866.973450	1565.558350	914.759338	6.840384
255.601563	919.310425	1535.976563	948.892151	4.797041
255.978683	1005.780212	1576.935913	964.820801	-7.171321
256.355743	896.555176	1576.935913	962.545288	9.698997
256.732819	937.514587	1526.874512	923.861450	-2.316604
257.109894	894.279663	1586.037964	923.861450	4.276319
257.486877	932.963501	1558.731689	967.096313	5.454546
257.863831	887.453125	1688.436401	967.096313	9.943177
258.240753	1008.055725	1818.141113	946.616638	-7.584273
258.617645	914.759338	1788.559326	910.208313	-0.520831
258.994507	967.096313	1797.661377	889.728638	-9.315065
259.371307	964.820801	1984.254150	946.616638	-1.785714
259.748108	971.647400	2209.530762	951.167725	-1.654411
260.124878	951.167725	2364.266113	946.616638	-0.322064
260.501617	919.310425	2555.409912	987.576050	4.172462
260.878296	946.616638	2846.676514	969.371887	1.197607
261.254944	960.269775	2983.207764	957.994263	-0.112486
261.631561	851.044800	2924.044189	994.402588	6.915476
262.008179	962.545288	2555.409912	887.453125	-4.714284
262.384735	928.412476	2252.765625	985.300537	4.295536
262.761261	905.657288	2025.213501	1026.259888	10.772358
263.137695	873.799988	1952.396851	930.687988	5.274260
263.514191	937.514587	1986.529663	1023.984375	8.242949
263.890594	976.198425	1934.192627	948.892151	-2.850359
264.267029	957.994263	1925.090576	932.963501	-2.588239
264.643341	898.830688	1868.202637	930.687988	3.286386
265.019653	953.443237	1790.834839	946.616638	-0.815222
265.395935	926.136963	1865.927002	960.269775	3.631962
265.772217	953.443237	1815.865601	983.024963	3.430074
266.148407	989.851563	1897.784302	944.341125	-5.012534
266.524597	976.198425	1884.131226	905.657288	-7.769423
266.900726	939.790100	2088.927979	939.790100	0.000000
267.276855	937.514587	2136.714111	962.545288	2.087284
267.652924	992.127075	2198.153076	962.545288	-2.452832
268.028992	1005.780212	2191.326416	903.381775	-8.637238
268.404999	996.678101	2204.979736	914.759338	-6.779662
268.781006	935.239075	2198.153076	901.106262	-2.702703
269.156921	946.616638	2195.877686	935.239075	-0.910744
269.532837	967.096313	2245.938965	1055.841675	6.939506
269.908661	901.106262	2209.530762	955.718750	4.173912
270.284546	901.106262	2093.479248	985.300537	7.061068
270.660339	976.198425	2141.265137	1023.984375	4.101563
271.036133	976.198425	2195.877686	973.922913	-0.186566
271.411835	885.177612	2195.877686	957.994263	5.555554
271.787537	967.096313	2407.500977	957.994263	-0.631909
272.163239	978.473938	2748.829102	980.749451	0.128534
272.538849	939.790100	2796.614990	1008.055725	3.676471
272.914459	946.616638	2848.952148	1030.810913	4.425838
273.290070	864.697876	2673.737061	1001.229126	7.547169
273.665588	960.269775	2607.746826	1069.494751	6.629833
274.041046	960.269775	2562.236328	923.861450	-2.272727
274.416565	942.065613	2466.664551	957.994263	1.044776
274.791962	953.443237	2523.552490	998.953613	2.898548
275.167389	905.657288	2421.154053	1005.780212	6.606607
275.542755	930.687988	2255.041016	994.402588	4.810998
275.918060	930.687988	2302.827148	976.198425	3.316751
276.293365	948.892151	2402.949951	953.443237	0.312992
276.668640	976.198425	2437.082764	939.790100	-2.492211
277.043854	955.718750	2400.674561	994.402588	2.677164
277.419037	919.310425	2523.552490	989.851563	4.397163
277.794189	928.412476	2544.032227	1046.739624	7.323948
278.169312	983.024963	2466.664551	944.341125	-2.607361
278.544373	987.576050	2532.654541	912.483826	-4.860091
278.919464	1028.535400	2437.082764	998.953613	-2.100163
279.294464	976.198425	2437.082764	1017.157776	2.803737
279.669464	928.412476	2450.735840	939.790100	0.747386
280.044403	969.371887	2311.929199	1019.433350	3.728814
280.419312	985.300537	2439.358398	1008.055725	1.564944
280.794189	998.953613	2521.277100	985.300537	-0.896858
281.169037	1030.810913	2603.195801	953.443237	-4.920403
281.543854	935.239075	2644.155273	939.790100	0.266311
281.918671	960.269775	2701.043213	944.341125	-0.915033
282.293365	955.718750	2853.503174	978.473938	1.199040
282.668091	980.749451	3012.789551	1010.331238	1.455768
283.042786	957.994263	2980.932129	1058.117188	4.949382
283.417419	973.922913	3112.912354	953.443237	-0.957446
283.792053	923.861450	3008.238525	1044.463989	5.786024
284.166595	989.851563	2974.105713	967.096313	-1.146791
284.541138	921.585938	2782.961914	923.861450	0.122249
284.915619	937.514587	2835.298828	985.300537	2.517987
285.290100	898.830688	2935.421875	1010.331238	5.474862
285.664520	983.024963	3015.064941	967.096313	-0.783875
286.038940	935.239075	3035.544678	980.749451	2.166845
286.413300	932.963501	3231.239502	957.994263	1.089110
286.787628	944.341125	3231.239502	957.994263	0.597015
287.161896	964.820801	3345.015625	903.381775	-2.581260
287.536194	930.687988	3317.709229	955.718750	1.048619
287.910400	937.514587	3231.239502	967.096313	1.289681
288.284607	939.790100	3060.575439	932.963501	-0.321890
288.658752	878.351013	2978.656738	923.861450	2.166848
289.032867	926.136963	2869.431641	980.749451	2.810304
289.406921	960.269775	3005.962891	953.443237	-0.333703
289.781006	960.269775	3010.513916	989.851563	1.442842
290.154999	964.820801	2921.768799	962.545288	-0.116279
290.529022	953.443237	3110.636963	955.718750	0.105485
290.902954	928.412476	3438.312012	985.300537	2.266547
291.276825	971.647400	3392.801514	942.065613	-1.221805
291.650757	930.687988	3370.046387	967.096313	1.492537
292.024597	948.892151	3253.994629	953.443237	0.197435
292.398407	971.647400	3217.586426	1001.229126	1.317121
292.772156	914.759338	3267.647949	971.647400	2.417797
293.145905	946.616638	3056.024414	935.239075	-0.539372
293.519592	962.545288	2983.207764	937.514587	-1.238737
293.893280	942.065613	2971.830078	973.922913	1.569507
294.266907	976.198425	3108.361328	978.473938	0.106723
294.640533	937.514587	3372.321777	955.718750	0.747663
295.014069	912.483826	3445.138428	989.851563	3.054808
295.387604	910.208313	3495.199951	964.820801	2.112676
295.761078	898.830688	3586.220703	1003.504700	3.895006
296.134552	917.034912	3620.353516	937.514587	0.757575
296.507996	882.902100	3704.547852	967.096313	2.983869
296.881378	921.585938	3743.231689	1037.637451	4.112902
297.254730	921.585938	3736.405273	1008.055725	3.071948
297.628021	964.820801	3982.161377	976.198425	0.377075
298.001282	953.443237	4161.927734	969.371887	0.496454
298.374573	910.208313	4032.222900	1028.535400	3.790087
298.747803	953.443237	4171.029785	1001.229126	1.485147
299.121002	885.177612	3811.497314	1019.433350	4.587870
299.494141	1014.882263	3652.210938	1051.290649	1.380502
299.867188	944.341125	3463.342773	1117.280762	6.865404
300.240265	935.239075	3483.822266	1037.637451	4.017855
300.613312	914.759338	3351.842041	976.198425	2.521009
300.986328	919.310425	3288.127441	1028.535400	4.610950
301.359314	976.198425	3340.464600	1019.433350	1.828683
301.732239	898.830688	3326.811523	960.269775	2.530460
302.105103	1053.566162	3499.750977	1005.780212	-1.953489
302.477997	976.198425	3440.587402	1058.117188	3.324100
302.850830	944.341125	3381.423828	957.994263	0.560225
303.223602	946.616638	3228.964111	1042.188477	4.187436
303.596375	923.861450	3144.769775	1080.872437	7.069675
303.969116	894.279663	3160.698486	1026.259888	5.823293
304.341766	957.994263	3112.912354	1023.984375	3.062303
304.714478	923.861450	3108.361328	1033.086426	4.999999
305.087067	910.208313	3119.739014	1042.188477	5.973221
305.459656	898.830688	3208.484375	1051.290649	6.600987
305.832214	841.942688	3074.228516	1019.433350	7.951072
306.204681	964.820801	3017.340576	1087.698975	5.986699
306.577148	935.239075	3056.024414	1060.392700	5.901287
306.949646	930.687988	3242.617188	1115.005249	7.972444
307.322021	912.483826	3110.636963	1253.812012	15.527953
307.694397	994.402588	3128.841064	1115.005249	5.650322
308.066742	923.861450	3158.422852	1146.862427	9.979630
308.439026	928.412476	3288.127441	1176.444214	10.511089
308.811279	926.136963	3315.433838	1278.842651	14.761903
309.183502	964.820801	3397.352539	1235.607788	11.131900
309.555695	917.034912	3634.006836	1290.220337	13.735343
309.927887	980.749451	3606.700439	1331.179688	13.344889
310.299988	983.024963	3513.404053	1256.087524	10.791369
310.672058	892.004150	3670.415039	1390.343262	17.936119
311.044128	894.279663	3677.241699	1415.373901	18.724447
311.416168	969.371887	3611.251465	1431.302612	17.484926
311.788147	917.034912	3586.220703	1399.445313	18.073317
312.160065	1014.882263	3775.089111	1483.639526	16.982687
312.531982	983.024963	3531.608398	1433.578125	17.678572
312.903870	926.136963	3542.985840	1492.741699	21.652176
313.275696	907.932800	3429.209961	1397.169800	19.404333
313.647491	992.127075	3381.423828	1424.476074	18.095240
314.019318	964.820801	3360.944336	1408.547363	18.518518
314.391022	1012.606750	3340.464600	1490.466064	20.527855
314.762726	939.790100	3451.965088	1419.924927	19.112316
315.134369	946.616638	3533.883789	1474.537476	20.404573
315.505981	926.136963	3738.680664	1458.608887	18.932041
315.877594	948.892151	3779.640137	1465.435425	18.247589
316.249146	992.127075	3611.251465	1403.996338	15.725455
316.620636	978.473938	3426.934326	1383.516602	16.542749
316.992157	1008.055725	3381.423828	1376.690063	15.532118
317.363586	983.024963	3370.046387	1360.761475	15.824596
317.735016	937.514587	3306.331787	1317.526489	16.042265
318.106354	992.127075	3363.219727	1356.210449	15.355087
318.477722	912.483826	3356.393066	1460.884399	22.439482
318.849060	912.483826	3347.291016	1417.649414	20.747663
319.220306	969.371887	3374.597412	1378.965576	17.029325
319.591522	921.585938	3456.516113	1419.924927	19.658884
319.962738	942.065613	3495.199951	1415.373901	18.538322
320.333923	932.963501	3529.332764	1417.649414	18.667835
320.705017	948.892151	3556.638916	1429.027100	18.411869
321.076111	903.381775	3476.995850	1367.588013	18.037136
321.447144	942.065613	3340.464600	1333.455200	16.318787
321.818176	892.004150	3203.933350	1367.588013	20.570866
322.189178	969.371887	3272.198975	1356.210449	16.798420
322.560120	919.310425	3385.974854	1378.965576	18.634684
322.931030	873.799988	3279.025391	1403.996338	22.043520
323.301910	894.279663	3454.240479	1431.302612	20.977779
323.672729	932.963501	3679.517090	1383.516602	16.404306
324.043549	926.136963	3706.823486	1394.894287	16.857611
324.414337	919.310425	3902.518066	1454.057739	17.925247
324.785095	939.790100	4211.988770	1438.129150	15.229486
325.155792	955.718750	4180.131836	1492.741699	16.654905
325.526428	983.024963	4034.498291	1401.720825	13.721105
325.897034	932.963501	4045.875977	1449.506714	16.593567
326.267670	937.514587	3979.885986	1465.435425	17.352282
326.638184	928.412476	3952.579590	1490.466064	18.585402
327.008728	951.167725	4068.631104	1472.261963	16.715328
327.379211	935.239075	4148.274414	1440.404663	15.722379
327.749634	907.932800	4041.324951	1433.578125	16.775600
328.120026	910.208313	3731.854004	1522.323364	21.693546
328.490417	907.932800	3811.497314	1508.670288	20.689655
328.860748	962.545288	3768.262451	1415.373901	16.139496
329.231079	971.647400	3743.231689	1415.373901	16.009851
329.601318	912.483826	3663.588379	1422.200562	18.527712
329.971558	951.167725	3684.068115	1406.271851	16.652788
330.341736	903.381775	3772.813477	1358.485962	15.860430
330.711914	901.106262	3693.170166	1378.965576	17.114912
331.082062	944.341125	3818.323975	1397.169800	15.756137
331.452148	939.790100	3715.925537	1383.516602	15.983603
331.822174	969.371887	3772.813477	1333.455200	12.987012
332.192200	973.922913	3895.691650	1426.751587	15.498443
332.562134	903.381775	3745.507324	1415.373901	18.014410
332.932129	994.402588	3934.375488	1442.680176	15.247678
333.302063	978.473938	4084.559814	1429.027100	14.505496
333.671906	1021.708862	4209.713379	1490.466064	14.703781
334.041718	928.412476	4207.437988	1513.221313	17.834837
334.411499	937.514587	4257.499512	1431.302612	14.873201
334.781281	939.790100	4196.060547	1383.516602	13.626832
335.151001	953.443237	4305.285156	1465.435425	15.274951
335.520721	1014.882263	4198.335938	1451.782227	13.724088
335.890350	921.585938	4086.835449	1419.924927	15.744066
336.259979	880.626526	4168.753906	1406.271851	15.986160
336.629547	955.718750	4152.825684	1367.588013	12.882562
336.999084	967.096313	4223.366699	1353.934937	11.879807
337.368622	953.443237	4027.671875	1460.884399	16.506292
337.738098	851.044800	4105.039551	1483.639526	19.440557
338.107513	885.177612	4198.335938	1513.221313	18.956043
338.476898	894.279663	4177.855957	1495.017212	18.295221
338.846252	951.167725	4148.274414	1472.261963	16.298931
339.215576	973.922913	4414.510254	1401.720825	12.433863
339.584869	896.555176	4293.907715	1399.445313	14.802412
339.954132	1044.463989	4205.162598	1454.057739	12.958962
340.323334	928.412476	4134.621094	1422.200562	15.400997
340.692505	894.279663	3948.028564	1374.414551	15.722801
341.061646	953.443237	3857.007813	1408.547363	15.673981
341.430786	894.279663	4073.182129	1431.302612	16.893345
341.799896	983.024963	4275.703613	1369.863525	11.748446
342.168915	923.861450	4218.815430	1495.017212	17.334255
342.537903	937.514587	4225.642090	1406.271851	14.256055
342.906830	948.892151	4273.428223	1467.710938	15.605750
343.275757	992.127075	4421.336914	1565.558350	16.721964
343.644684	969.371887	4537.388672	1508.670288	15.114794
344.013550	944.341125	4541.939453	1545.078613	16.698292
344.382355	960.269775	4628.409180	1556.456177	16.253101
344.751129	985.300537	4894.645020	1510.945801	13.445868
345.119873	887.453125	4990.217285	1515.496826	15.307818
345.488586	1012.606750	5217.769043	1595.140137	13.852817
345.857269	992.127075	5415.739746	1570.109375	13.065843
346.225891	926.136963	5443.045898	1620.170776	15.365237
346.594482	955.718750	5484.005371	1622.446289	14.723617
346.963043	907.932800	5374.780273	1665.681274	16.963831
347.331543	885.177612	5208.666992	1572.384888	15.894737
347.700043	942.065613	5058.482910	1538.252075	14.483139
348.068512	992.127075	5024.350098	1622.446289	15.632051
348.436951	878.351013	4887.818848	1581.486938	17.536890
348.805328	1005.780212	4628.409180	1506.394775	13.819096
349.173645	957.994263	4612.480469	1499.568237	14.819428
349.541931	946.616638	4592.000977	1638.375000	18.976280
349.910217	912.483826	4783.144531	1604.242188	17.871841
350.278473	939.790100	4940.155762	1592.864502	16.325367
350.646667	901.106262	4935.604492	1592.864502	17.146078
351.014801	932.963501	5019.798828	1620.170776	16.815144
351.382935	1012.606750	4880.992188	1631.548462	16.000000
351.751007	964.820801	4965.186523	1574.660400	15.244596
352.119049	914.759338	4962.910645	1633.823975	17.762791
352.487091	957.994263	4987.941406	1542.803101	14.511576
352.855072	948.892151	5063.033691	1586.037964	15.486726
353.222992	957.994263	5154.054688	1620.170776	15.780910
353.590881	953.443237	5160.881348	1652.028076	16.603569
353.958740	912.483826	5449.872559	1699.814087	17.352057
354.326599	887.453125	5481.729492	1708.916138	17.880138
354.694397	882.902100	5809.404785	1770.355225	18.013855
355.062134	912.483826	5784.374023	1863.651489	19.523586
355.429840	878.351013	5707.006348	1875.029175	20.640905
355.797516	946.616638	5970.966797	1845.447388	17.889492
356.165192	896.555176	6157.559082	1854.549438	18.209343
356.532776	892.004150	6303.192383	1911.437500	18.839361
356.900360	967.096313	6435.172852	2002.458252	18.934664
357.267883	976.198425	6426.070801	2077.550537	20.208767
357.635376	978.473938	6906.205566	2138.989502	19.577736
358.002808	960.269775	7277.115723	2027.489014	16.894812
358.370270	964.820801	7568.382324	2243.663574	19.365955
358.737640	937.514587	7561.555664	2152.642578	18.344210
359.105011	905.657288	7302.146484	2120.785400	18.996798
359.472321	926.136963	6967.644531	2018.386963	18.079096
359.839569	978.473938	6837.939941	2079.825928	18.796118
360.206787	921.585938	6915.307617	2000.182739	17.995443
360.574005	907.932800	7170.166016	2102.581299	19.077034
360.941193	873.799988	7390.891602	2161.744873	19.762569
361.308319	887.453125	8055.343750	2182.224365	18.063490
361.675415	944.341125	8335.232422	2373.368164	19.334976
362.042450	932.963501	8831.295898	2546.307861	20.426392
362.409424	971.647400	9766.535156	2676.012451	19.379042
362.776428	898.830688	9736.953125	2637.328613	19.670444
363.143402	901.106262	9163.522461	2660.083740	21.288900
363.510284	978.473938	8594.641602	2466.664551	19.539888
363.877136	971.647400	7727.668457	2289.173828	19.501514
364.243988	937.514587	7384.064941	2157.193604	18.919870
364.610779	894.279663	6935.787598	2120.785400	20.301319
364.977539	905.657288	6712.786133	2243.663574	23.040754
365.344269	983.024963	6717.337402	2068.448486	18.928574
365.710938	926.136963	6544.397949	2148.091553	21.749695
366.077576	937.514587	6505.713867	2020.662476	19.452393
366.444183	866.973450	6355.529785	2152.642578	23.424543
366.810760	1001.229126	6332.774414	2109.407715	20.785316
367.177277	998.953613	6530.744629	2136.714111	20.567669
367.543823	894.279663	6564.877441	2195.877686	22.953453
367.910248	930.687988	6469.305664	2123.060791	21.528347
368.276642	928.412476	6328.223145	2138.989502	22.418880
368.643036	939.790100	6305.468262	2161.744873	22.773539
369.009399	885.177612	6214.447266	2118.509766	23.142612
369.375671	892.004150	6000.548340	2159.469238	24.810692
369.741974	951.167725	6168.937012	2113.958740	22.285212
370.108215	923.861450	6089.293457	2177.673340	24.273127
370.474396	910.208313	6066.538574	2170.846924	24.448370
370.840546	932.963501	5993.721680	2170.846924	24.460434
371.206665	994.402588	6200.793945	2275.520752	24.606642
371.572784	955.718750	6289.539551	2266.418701	24.573378
371.938843	935.239075	6485.234375	2261.867676	23.903240
372.304840	905.657288	6705.959961	2314.204590	24.284031
372.670807	957.994263	6305.468262	2453.011475	27.957447
373.036713	1017.157776	6530.744629	2334.684326	23.895998
373.402649	930.687988	6441.999512	2361.990479	25.970270
373.768524	942.065613	6360.080566	2291.449463	24.905500
374.134308	987.576050	6430.621582	2343.786377	24.916388
374.500122	944.341125	6487.509766	2364.266113	25.615767
374.865875	962.545288	6521.642578	2387.021240	25.624231
375.231567	962.545288	6482.958984	2336.959961	24.896952
375.597260	905.657288	6721.888672	2437.082764	26.330202
375.962891	946.616638	6874.348145	2612.297852	28.099808
376.328461	932.963501	6919.858887	2669.185791	29.000378
376.694031	960.269775	7229.329590	2707.869873	27.876591
377.059540	887.453125	7563.831055	2748.829102	27.880028
377.425049	964.820801	7793.658691	2807.992676	26.991003
377.790497	978.473938	8005.282227	2983.207764	28.529795
378.155945	960.269775	8260.140625	3147.045166	29.956356
378.521301	873.799988	8112.231445	3197.106689	32.096825
378.886597	901.106262	7937.016602	2994.585449	29.754206
379.251892	957.994263	7613.892578	2976.381104	30.324783
379.617157	976.198425	7299.870605	2887.635986	30.226700
379.982422	978.473938	7047.288086	2887.635986	31.458570
380.347595	973.922913	7104.175781	2926.319824	31.848555
380.712738	903.381775	7076.869629	2960.452637	33.321049
381.077820	985.300537	7258.911133	2978.656738	31.773668
381.442902	898.830688	7022.257324	2926.319824	33.110367
381.807953	989.851563	7124.655762	3003.687500	32.826408
382.172974	928.412476	6958.542480	2985.483398	34.113209
382.537933	939.790100	6953.991699	3067.402100	35.376469
382.902832	898.830688	6899.378906	3044.646729	35.760330
383.267700	914.759338	7256.635742	3203.933350	36.096165
383.632538	944.341125	7308.972656	3365.495361	38.040764
383.997345	948.892151	7479.636719	3449.689453	38.292683
384.362152	953.443237	7893.781738	3317.709229	34.065575
384.726898	930.687988	7588.861816	3479.271240	38.277512
385.091553	953.443237	7745.873047	3531.608398	37.956448
385.456238	973.922913	7638.923340	3517.955078	38.170025
385.820862	987.576050	7750.423828	3745.507324	40.780621
386.185425	889.728638	7579.759766	3709.098877	42.142853
386.549988	1005.780212	7736.770508	3752.333740	40.804596
386.914490	1005.780212	7921.087891	3784.191162	40.177689
387.278961	1010.331238	8046.241699	3827.426025	40.038807
387.643372	857.871338	7987.078125	3995.814453	44.015316
388.007782	912.483826	8053.068359	4100.488281	44.646267
388.372101	930.687988	8196.425781	4155.101074	44.378330
388.736450	983.024963	8089.476563	4321.213867	46.974060
389.100739	971.647400	8175.946289	4191.509277	44.693619
389.464966	892.004150	7996.180176	4109.590332	45.291477
389.829163	841.942688	7802.760742	4141.447754	47.401112
390.193329	912.483826	7714.015625	4284.805664	49.581799
390.557495	969.371887	7896.057129	4425.888184	49.901451
390.921570	1010.331238	8134.986816	4528.286621	49.377197
391.285614	937.514587	8200.976563	4655.715332	51.190475
391.649597	873.799988	8842.673828	4921.951660	50.799541
392.013550	944.341125	9313.707031	5261.003906	51.576935
392.377502	978.473938	9325.083984	5363.402344	52.535439
392.741455	964.820801	9393.349609	5486.280762	53.644707
393.105316	898.830688	9432.034180	5565.923828	54.693333
393.469086	983.024963	9020.164063	5454.423340	55.634205
393.832886	942.065613	8824.469727	5415.739746	56.755199
394.196655	973.922913	9006.511719	5625.087402	57.903679
394.560333	853.320313	9195.379883	5750.241211	58.701580
394.924042	878.351013	9391.074219	5991.446289	60.064152
395.287659	948.892151	9290.951172	5957.313477	60.038197
395.651245	1001.229126	9409.278320	5998.272949	59.431671
396.014771	898.830688	8956.450195	5900.425293	62.072857
396.378296	928.412476	8460.386719	5850.363770	65.347427
396.741791	921.585938	8303.375000	5864.017090	66.954384
397.105255	930.687988	8353.436523	5836.710938	66.094421
397.468628	983.024963	8155.466797	5807.128906	67.258881
397.832001	955.718750	8128.160156	5702.455078	66.180206
398.195313	951.167725	8132.711426	6066.538574	71.229408
398.558624	937.514587	8353.436523	6025.579102	68.610008
398.921844	917.034912	8266.966797	6164.385742	71.393188
399.285095	903.381775	8419.426758	6225.824707	70.814407
399.648254	887.453125	8458.110352	6175.763672	69.852730
400.011383	912.483826	8346.610352	6464.754395	74.686256
400.374451	912.483826	8119.058105	6430.621582	76.570885
400.737549	939.790100	8567.335938	6423.795410	71.897377
401.100586	882.902100	8018.935547	6398.764648	77.295914
401.463562	921.585938	8246.487305	6553.500000	76.887238
401.826508	928.412476	8451.284180	6676.377930	76.406532
402.189392	983.024963	8137.262207	6651.347168	79.230278
402.552246	971.647400	8330.681641	6828.837891	79.591835
402.915070	855.595825	8367.089844	6876.624023	80.157532
403.277893	948.892151	8756.204102	7045.012207	78.082191
403.640656	985.300537	8758.479492	7313.523926	81.411011
404.003326	907.932800	9031.541992	7625.270020	82.689072
404.366028	946.616638	9131.665039	7795.934082	83.680840
404.728699	955.718750	9582.217773	8198.701172	83.962013
405.091248	1003.504700	9750.606445	8312.477539	83.558792
405.453857	942.065613	9789.290039	8592.366211	86.471191
405.816345	983.024963	9832.525391	8253.313477	82.154793
406.178833	882.902100	9834.800781	8319.303711	83.070663
406.541260	1008.055725	9841.627930	8458.110352	84.337959
406.903687	992.127075	9680.065430	8228.283203	83.289680
407.266052	967.096313	9213.583984	8285.170898	88.741722
407.628387	1028.535400	9163.522461	8032.588379	86.097893
407.990662	955.718750	9170.348633	8264.691406	88.975067
408.352905	896.555176	9163.522461	8210.079102	88.466835
408.715118	914.759338	9256.818359	8264.691406	88.106934
409.077332	937.514587	8901.836914	8237.385742	91.657150
409.439484	914.759338	9197.655273	8171.395020	87.609894
409.801575	898.830688	9347.839844	8421.702148	89.038513
410.163605	980.749451	9466.166992	8694.764648	90.909081
410.525635	989.851563	9618.625977	8981.480469	92.616035
410.887604	912.483826	9702.820313	8876.806641	90.603157
411.249573	892.004150	9655.035156	9024.715820	92.807060
411.611481	948.892151	9689.167969	8810.816406	89.950531
411.973328	921.585938	9347.839844	8813.091797	93.653786
412.335144	976.198425	9457.064453	9090.706055	95.680176
412.696930	973.922913	9411.553711	8665.183594	91.154266
413.058685	939.790100	9611.799805	8808.541016	90.737343
413.420410	919.310425	9470.717773	8496.794922	88.610962
413.782104	889.728638	9591.320313	8856.327148	91.553345
414.143707	912.483826	9645.932617	8842.673828	90.802498
414.505310	882.902100	9709.647461	8788.061523	89.559166
414.866852	930.687988	9862.107422	8833.571289	88.484062
415.228394	921.585938	9748.331055	9238.614258	94.225311
415.589874	948.892151	10046.424805	9199.930664	90.695343
415.951324	951.167725	10230.741211	9352.390625	90.534576
416.312683	935.239075	10326.313477	9459.339844	90.768112
416.674072	1046.739624	10745.008789	10069.179688	93.031448
417.035370	923.861450	10838.305664	10044.148438	91.989899
417.396667	942.065613	11159.154297	10430.987305	92.873047
417.757935	951.167725	11131.847656	10512.906250	93.920433
418.119141	880.626526	11607.431641	10826.927734	92.723801
418.480286	896.555176	11741.687500	10920.224609	92.425514
418.841400	882.902100	12503.986328	11739.412109	93.420799
419.202484	946.616638	12779.325195	11891.872070	92.500000
419.563568	957.994263	13320.898438	12378.833008	92.379906
419.924591	973.922913	14374.464844	13147.958984	90.847343
420.285553	957.994263	14201.525391	13104.724609	91.718216
420.646484	996.678101	15457.613281	14417.700195	92.808815
421.007355	960.269775	15459.888672	14438.179688	92.953545
421.368225	946.616638	16247.218750	15334.734375	94.036285
421.729065	912.483826	16852.507813	15541.806641	91.777298
422.089874	942.065613	17362.224609	16135.717773	92.530487
422.450592	930.687988	17107.365234	15792.114258	91.869453
422.811279	937.514587	17086.884766	15899.063477	92.644783
423.171936	960.269775	16920.773438	16072.003906	94.682060
423.532593	1017.157776	16888.916016	15343.836914	90.265228
423.893127	953.443237	17055.029297	15887.686523	92.750137
424.253723	930.687988	17330.367188	16149.371094	92.798660
424.614197	996.678101	16875.261719	16040.146484	94.740616
424.974670	948.892151	17899.246094	16640.882813	92.576180
425.335052	919.310425	18165.482422	16918.498047	92.769501
425.695496	923.861450	16827.476563	16128.891602	95.607384
426.055817	928.412476	17532.888672	16112.962891	91.448540
426.416168	944.341125	17125.570313	15958.227539	92.785820
426.776398	889.728638	16201.708008	15132.212891	93.015305
427.136627	989.851563	15475.817383	14399.496094	92.569901
427.496826	998.953613	15198.203125	14413.148438	94.471153
427.856995	962.545288	14620.220703	13732.767578	93.502167
428.217102	873.799988	13951.217773	13427.848633	95.997917
428.577179	932.963501	13871.575195	13234.428711	95.075623
428.937195	905.657288	13673.604492	12897.652344	93.922653
429.297180	944.341125	13259.459961	12383.383789	92.886177
429.657135	937.514587	13168.438477	12381.108398	93.562790
430.017059	905.657288	13539.348633	12433.445313	91.246399
430.376984	869.248962	13245.806641	12135.352539	91.027763
430.736786	1003.504700	13063.764648	11994.270508	91.132080
431.096588	885.177612	12936.335938	12110.321289	93.145767
431.456360	967.096313	12949.989258	11994.270508	92.024307
431.816071	907.932800	12788.426758	12046.607422	93.755989
432.175781	955.718750	12906.753906	11753.064453	90.346535
432.535400	860.146851	12949.989258	12123.974609	93.167694
432.895020	930.687988	12893.100586	12103.495117	93.399277
433.254578	996.678101	12865.794922	12253.679688	94.842789
433.614105	907.932800	13391.439453	12317.394531	91.396286
433.973602	960.269775	13612.165039	12474.405273	91.007202
434.333038	951.167725	13621.267578	12622.313477	92.115654
434.692444	1026.259888	13430.124023	12422.068359	91.873055
435.051819	998.953613	13714.563477	12927.233398	93.808159
435.411133	917.034912	13723.666016	12888.549805	93.479034
435.770416	923.861450	13132.030273	12155.832031	92.003731
436.129669	962.545288	13684.982422	12990.948242	94.544800
436.488861	989.851563	13427.848633	12695.130859	94.109039
436.848083	989.851563	13662.226563	12392.486328	89.980247
437.207184	996.678101	13605.338867	12451.649414	90.850021
437.566254	978.473938	13837.442383	13038.734375	93.788712
437.925293	939.790100	13546.175781	12713.334961	93.393501
438.284363	955.718750	13644.022461	13093.346680	95.659973
438.643311	953.443237	14151.463867	12829.386719	89.982765
439.002258	866.973450	14372.189453	13389.164063	92.721146
439.361145	914.759338	14747.650391	13414.195313	90.360260
439.719971	948.892151	15084.427734	13867.023438	91.387634
440.078827	892.004150	15307.428711	14390.393555	93.638512
440.437592	985.300537	15739.777344	14597.465820	92.257866
440.796295	942.065613	16017.390625	14779.507813	91.788681
441.155029	998.953613	17264.376953	15817.145508	91.102402
441.513672	928.412476	17243.896484	16033.319336	92.580193
441.872253	878.351013	17064.130859	15844.451172	92.464500
442.230865	903.381775	16638.607422	15466.714844	92.552429
442.589386	944.341125	16777.414063	15453.061523	91.635529
442.947876	928.412476	16597.648438	15532.705078	93.203606
443.306335	894.279663	15971.880859	14936.518555	93.133110
443.664764	962.545288	15471.265625	14429.077148	92.816811
444.023102	921.585938	15612.348633	14704.415039	93.819695
444.381500	921.585938	15607.796875	14599.741211	93.136040
444.739777	955.718750	15573.664063	14727.170898	94.209221
445.098022	951.167725	16090.208008	15111.733398	93.536743
445.456238	930.687988	15876.308594	14733.997070	92.356873
445.814423	921.585938	16679.568359	15125.386719	90.137177
446.172577	937.514587	17330.367188	16595.373047	95.516365
446.530701	930.687988	17437.316406	16456.566406	94.058449
446.888733	962.545288	17799.123047	16704.597656	93.499123
447.246765	967.096313	18898.201172	17633.009766	92.944153
447.604736	957.994263	18215.544922	17152.875000	93.842293
447.962677	894.279663	18741.189453	16818.375000	89.226067
448.320587	935.239075	18732.087891	17694.449219	94.169540
448.678436	989.851563	18361.177734	16993.589844	92.127327
449.036255	996.678101	17869.664063	16907.119141	94.295349
449.394043	926.136963	16852.507813	15669.236328	92.570366
449.751770	939.790100	17264.376953	16181.228516	93.364929
450.109467	1008.055725	16652.261719	15544.083008	92.916367
450.467163	951.167725	16424.708984	15482.643555	93.911766
450.824768	948.892151	16411.056641	15200.478516	92.170708
451.182343	923.861450	16126.616211	15004.784180	92.620865
451.539886	937.514587	15573.664063	14363.086914	91.728851
451.897369	1017.157776	15889.961914	14829.569336	92.870255
452.254822	898.830688	15393.898438	14645.251953	94.835167
452.612274	942.065613	16176.677734	14934.243164	91.844658
452.969635	919.310425	15978.707031	14702.139648	91.523117
453.326965	921.585938	15942.298828	14592.915039	91.016510
453.684326	914.759338	15562.287109	14501.894531	92.760605
454.041534	942.065613	15245.989258	14347.158203	93.716194
454.398773	967.096313	14900.110352	13735.043945	91.638084
454.755951	976.198425	14602.016602	13650.849609	93.019379
455.113098	980.749451	14247.036133	13111.550781	91.440819
455.470215	1001.229126	14390.393555	13316.347656	91.978249
455.827240	930.687988	14363.086914	13382.337891	92.698639
456.184265	996.678101	13764.625000	13043.285156	94.350388
456.541260	935.239075	14162.841797	13022.805664	91.381386
456.898193	926.136963	14181.045898	12981.845703	90.952782
457.255096	910.208313	14274.341797	13225.327148	92.150520
457.611969	880.626526	14208.351563	12963.641602	90.660744
457.968781	953.443237	14347.158203	13188.918945	91.352364
458.325531	976.198425	14460.934570	13284.490234	91.275734
458.682312	989.851563	15207.305664	14233.382813	93.149811
459.039001	953.443237	15837.625000	14745.375000	92.661674
459.395630	951.167725	16599.923828	15484.918945	92.874802
459.752289	996.678101	18215.544922	16870.710938	92.189766
460.108856	955.718750	19514.867188	18001.644531	91.846489
460.465363	932.963501	19967.695313	18625.138672	92.946808
460.821899	948.892151	20136.083984	18445.371094	91.188324
461.178345	951.167725	19271.384766	17826.429688	92.112785
461.534760	964.820801	19114.375000	17878.767578	93.192078
461.891144	905.657288	18195.064453	16970.833984	92.919189
462.247467	960.269775	17105.089844	16254.044922	94.728683
462.603760	951.167725	16891.191406	15494.021484	91.234833
462.960052	894.279663	16115.238281	14872.803711	91.837341
463.316254	914.759338	15644.205078	14604.292969	92.939911
463.672424	967.096313	15300.601563	14581.537109	94.983330
464.028564	914.759338	14902.385742	13839.717773	92.402802
464.384644	942.065613	15022.988281	13907.983398	92.081451
464.740723	873.799988	15170.897461	13732.767578	89.941109
465.096741	896.555176	14872.803711	13730.492188	91.826775
465.452698	951.167725	14683.935547	13659.951172	92.543495
465.808655	1053.566162	14777.232422	13878.401367	93.450500
466.164520	928.412476	14647.527344	13816.961914	93.945923
466.520355	921.585938	15398.449219	14388.118164	93.021065
466.876190	937.514587	16094.758789	14349.434570	88.485214
467.231964	926.136963	15555.459961	14513.271484	92.876030
467.587677	960.269775	16208.535156	15161.794922	93.135345
467.943390	1003.504700	16279.076172	15339.286133	93.847755
468.299011	898.830688	15819.420898	14429.077148	90.681709
468.654633	939.790100	15619.174805	14604.292969	93.086349
469.010223	896.555176	15587.317383	14533.750977	92.828377
469.365723	969.371887	15123.111328	14285.719727	94.083603
469.721191	964.820801	15491.746094	14051.340820	90.084579
470.076660	964.820801	14708.966797	13744.145508	92.980125
470.432068	946.616638	15002.508789	13764.625000	91.193130
470.787445	905.657288	14918.314453	13919.360352	92.871056
471.142792	862.422363	14668.006836	13807.860352	93.769577
471.498016	955.718750	15191.376953	13707.737305	89.578003
471.853271	939.790100	15054.845703	13878.401367	91.665321
472.208496	957.994263	15111.733398	14021.758789	92.299034
472.563660	951.167725	15412.102539	14096.851563	90.904800
472.918762	969.371887	15521.327148	14317.577148	91.727913
473.273865	907.932800	15751.155273	14740.824219	93.193314
473.628876	907.932800	16433.810547	14982.029297	90.649284
473.983917	912.483826	16206.258789	15136.764648	93.006996
474.338837	942.065613	16169.850586	15027.539063	92.498505
474.693787	971.647400	16137.993164	15084.427734	93.053268
475.048645	1028.535400	15742.052734	14679.384766	92.777611
475.403503	880.626526	16213.085938	14963.825195	91.852180
475.758270	923.861450	16454.291016	15332.458984	92.776558
476.113037	971.647400	16313.208984	15168.622070	92.539307
476.467773	987.576050	16820.650391	15808.042969	93.604477
476.822418	996.678101	17623.908203	16458.841797	92.993019
477.177063	955.718750	17312.162109	15880.859375	91.249306
477.531647	923.861450	17673.970703	16832.027344	94.973503
477.886200	992.127075	18115.421875	16713.701172	91.813957
478.240723	971.647400	18568.250000	17476.000000	93.792839
478.595184	923.861450	18800.353516	17400.908203	92.171585
478.949585	923.861450	19319.171875	17594.326172	90.623451
479.303986	960.269775	19457.978516	17846.910156	91.290443
479.658325	1026.259888	19442.048828	18088.115234	92.647972
480.012634	930.687988	19603.611328	18256.503906	92.785774
480.366913	951.167725	20386.390625	18575.076172	90.680252
480.721130	989.851563	20914.312500	19064.312500	90.714928
481.075317	912.483826	21253.365234	19533.070313	91.542671
481.429474	919.310425	22197.705078	20873.351563	93.776062
481.783569	889.728638	23358.220703	21510.498047	91.776382
482.137604	969.371887	24639.339844	22843.953125	92.414917
482.491669	955.718750	26657.726563	24728.083984	92.492249
482.845612	921.585938	29668.240234	27401.822266	92.115891
483.199554	967.096313	33365.960938	30965.287109	92.590256
483.553436	926.136963	38749.843750	36524.382813	94.116226
483.907318	994.402588	46288.644531	42909.496094	92.539566
484.261139	973.922913	52205.000000	48939.625000	93.626183
484.614899	944.341125	54667.113281	50910.226563	93.006905
484.968628	912.483826	54116.437500	51008.074219	94.157646
485.322357	969.371887	51265.207031	47879.234375	93.267883
485.675964	885.177612	47594.792969	44359.003906	93.072540
486.029572	928.412476	43378.253906	40570.261719	93.385155
486.383148	948.892151	40620.320313	38069.464844	93.570045
486.736694	903.381775	38790.804688	35818.972656	92.156151
487.090149	946.616638	39154.886719	36005.566406	91.757492
487.443604	919.310425	40167.492188	36997.691406	91.923698
487.796997	873.799988	42199.535156	38849.964844	91.894714
488.150360	973.922913	43610.355469	39787.480469	91.033783
488.503693	939.790100	43660.417969	40399.597656	92.367104
488.856964	989.851563	42836.679688	39557.652344	92.164215
489.210175	996.678101	40602.117188	37118.296875	91.203682
489.563416	946.616638	38014.851563	35040.746094	91.976677
489.916565	967.096313	35768.910156	32967.746094	91.951103
490.269653	1053.566162	33482.011719	31254.277344	93.130310
490.622772	951.167725	32835.765625	30309.937500	92.078217
490.975769	882.902100	32824.386719	29945.853516	90.988106
491.328735	976.198425	34474.140625	31741.240234	91.841583
491.681732	892.004150	36585.824219	33181.644531	90.462830
492.034607	989.851563	38167.308594	35545.910156	92.948959
492.387482	967.096313	39232.253906	35903.167969	91.299957
492.740326	901.106262	38372.105469	35095.355469	91.255234
493.093079	957.994263	36462.945313	33086.074219	90.489021
493.445862	930.687988	32983.675781	30284.906250	91.580284
493.798523	921.585938	30585.275391	27526.974609	89.690086
494.151215	846.493713	28170.947266	25831.712891	91.439041
494.503815	917.034912	26241.306641	24059.082031	91.382874
494.856384	898.830688	24477.777344	22645.982422	92.231224
495.208923	955.718750	23940.753906	21710.744141	90.297997
495.561432	919.310425	23201.210938	21191.925781	90.982437
495.913879	973.922913	22336.511719	21018.986328	93.832558
496.266296	1003.504700	23110.189453	20873.351563	89.881622
496.618683	946.616638	23171.628906	21107.730469	90.713623
496.970978	946.616638	23879.314453	21760.804688	90.762054
497.323273	894.279663	23672.242188	21904.164063	92.237770
497.675507	964.820801	24120.519531	22354.716797	92.374222
498.027710	948.892151	24172.857422	21942.847656	90.397804
498.379852	921.585938	23870.212891	21879.132813	91.323753
498.731995	921.585938	23221.689453	21756.253906	93.428574
499.084076	928.412476	22894.015625	21191.925781	92.251114
499.436096	957.994263	22841.677734	20805.085938	90.693558
499.788086	921.585938	22238.664063	20231.656250	90.584976
500.140106	1035.361938	21908.714844	20040.511719	91.049820
500.491943	912.483826	21476.365234	19476.181641	90.273315
500.843842	923.861450	21305.701172	19330.548828	90.309258
501.195679	980.749451	20584.361328	18957.363281	91.700516
501.547455	873.799988	20231.656250	18595.556641	91.548134
501.899231	1001.229126	19924.460938	18183.687500	90.800865
502.250885	864.697876	19995.001953	18315.666016	91.221596
502.602600	1014.882263	19715.111328	18181.412109	91.798500
502.954193	892.004150	19863.021484	18017.574219	90.272278
503.305786	942.065613	19844.816406	18072.185547	90.622368
503.657379	948.892151	20204.349609	18449.921875	90.888672
504.008820	1035.361938	19876.673828	18272.431641	91.485504
504.360291	957.994263	20349.982422	18527.291016	90.600800
504.711700	907.932800	20288.542969	18547.769531	91.017960
505.063080	942.065613	20538.851563	18424.892578	89.212723
505.414368	973.922913	20459.207031	18479.503906	89.840012
505.765656	994.402588	20136.083984	18611.484375	92.035187
506.116943	926.136963	20179.318359	18693.404297	92.282242
506.468109	1003.504700	20111.052734	18115.421875	89.555801
506.819305	1001.229126	19776.550781	18081.289063	90.970795
507.170410	923.861450	19837.990234	18108.593750	90.856590
507.521484	976.198425	19913.082031	18456.750000	92.309547
507.872559	964.820801	20115.603516	18354.351563	90.803238
508.223480	912.483826	20415.972656	18470.402344	90.024498
508.574493	985.300537	20450.105469	18477.228516	89.864388
508.925385	901.106262	20764.126953	19296.416016	92.610840
509.276245	983.024963	21073.597656	19096.169922	90.157433
509.627045	985.300537	21235.160156	19480.734375	91.336105
509.977814	948.892151	21576.488281	19312.345703	89.023720
510.328613	953.443237	21649.304688	19760.623047	90.874107
510.679260	1026.259888	21840.449219	19724.214844	89.832733
511.029999	962.545288	22029.316406	19956.318359	90.159866
511.380585	985.300537	22309.205078	20227.103516	90.235832
511.731140	983.024963	22473.042969	20272.615234	89.760696
512.081726	969.371887	22609.574219	20620.769531	90.809677
512.432129	889.728638	22730.177734	20393.216797	89.299850
512.782654	992.127075	23114.740234	20768.677734	89.395187
513.133057	935.239075	22909.943359	20445.554688	88.785339
513.483398	892.004150	22725.626953	20604.841797	90.286606
513.833801	937.514587	22859.882813	20425.074219	88.893494
514.183960	898.830688	22532.207031	20238.482422	89.397285
514.534302	994.402588	22338.787109	20120.154297	89.605545
514.884460	932.963501	22400.226563	20220.277344	89.845238
515.234619	871.524475	22211.359375	20356.808594	91.309441
515.584717	928.412476	22099.857422	20352.257813	91.745491
515.934753	921.585938	22395.675781	20156.562500	89.572952
516.284851	953.443237	22493.523438	19933.562500	88.115356
516.634766	903.381775	22816.646484	20670.830078	90.207680
516.984741	885.177612	22711.972656	20802.810547	91.253128
517.334595	896.555176	23606.251953	21464.988281	90.571152
517.684448	1005.780212	24593.828125	22083.929688	89.359451
518.034363	1012.606750	25588.230469	23082.882813	89.805557
518.384094	901.106262	26298.193359	23799.671875	90.162170
518.733826	946.616638	27722.669922	24819.105469	89.156113
519.083496	901.106262	28175.498047	25740.691406	91.072922
519.433167	932.963501	28450.835938	25781.650391	90.300179
519.782776	980.749451	27954.773438	25422.119141	90.610764
520.132324	892.004150	27854.650391	24848.687500	88.851379
520.481873	919.310425	27131.035156	24748.564453	90.910667
520.831299	903.381775	26502.990234	24065.908203	90.480003
521.180786	905.657288	25560.925781	23654.039063	92.265800
521.530151	998.953613	25533.619141	22978.208984	89.584496
521.879517	957.994263	25080.791016	22527.656250	89.416092
522.228882	928.412476	24575.625000	22616.400391	91.714775
522.578064	955.718750	24891.921875	22245.492188	88.943817
522.927307	894.279663	24814.554688	22518.554688	90.401451
523.276489	969.371887	24725.808594	22325.134766	89.894638
523.625610	980.749451	25042.105469	22404.777344	89.039154
523.974792	930.687988	25433.496094	22652.810547	88.651566
524.323792	905.657288	25990.998047	23717.753906	90.937958
524.672852	896.555176	26853.421875	24227.470703	89.883408
525.021790	964.820801	27781.833984	24805.453125	88.901146
525.370728	907.932800	28746.654297	26418.796875	91.638062
525.719604	939.790100	30480.601563	27561.107422	90.117081
526.068420	957.994263	32041.609375	29053.849609	90.387993
526.417297	980.749451	33274.941406	30416.886719	91.149940
526.765991	905.657288	34094.128906	30767.316406	89.975998
527.114746	951.167725	35347.941406	31895.974609	89.964272
527.463379	973.922913	36383.300781	32990.500000	90.418350
527.812012	951.167725	38768.046875	34781.335938	89.457855
528.160706	998.953613	42026.593750	37951.136719	90.066559
528.509155	948.892151	46812.015625	42684.218750	90.999748
528.857727	946.616638	51590.609375	47232.984375	91.395576
529.206177	955.718750	54471.417969	49667.792969	91.023895
529.554565	955.718750	54412.253906	49736.058594	91.252342
529.902893	971.647400	53010.531250	48008.937500	90.388741
530.251221	910.208313	49868.039063	45150.882813	90.364861
530.599548	901.106262	45956.417969	41510.050781	90.131317
530.947876	930.687988	42479.421875	38303.839844	89.950157
531.296021	955.718750	39432.500000	35229.613281	89.076820
531.644165	942.065613	36918.050781	32947.265625	88.962677
531.992249	946.616638	35259.195313	31545.544922	89.177002
532.340454	948.892151	34246.589844	30699.050781	89.345985
532.688354	955.718750	34417.253906	31081.337891	90.030594
533.036438	953.443237	35850.832031	32191.792969	89.514854
533.384338	948.892151	37823.707031	34114.609375	89.941383
533.732239	882.902100	39896.707031	35689.269531	89.215515
534.080139	987.576050	40165.218750	36016.941406	89.411621
534.427917	976.198425	39487.113281	35846.277344	90.545967
534.775757	907.932800	37568.847656	33875.679688	89.926140
535.123474	901.106262	35800.769531	32260.058594	89.854599
535.471191	896.555176	34123.710938	30526.111328	89.172714
535.818848	901.106262	32644.621094	29201.757813	89.154121
536.166382	957.994263	32000.648438	28689.765625	89.334412
536.513977	962.545288	31848.189453	28744.378906	89.950638
536.861511	1008.055725	32558.152344	29060.675781	88.914528
537.208984	971.647400	32373.833984	29149.421875	89.731888
537.556396	885.177612	32442.099609	28728.449219	88.231895
537.903809	939.790100	31304.339844	28016.212891	89.171165
538.251160	944.341125	30808.275391	27217.503906	87.976227
538.598389	953.443237	29247.269531	26277.714844	89.504585
538.945740	905.657288	28630.603516	25481.281250	88.640839
539.292969	905.657288	28175.498047	25328.822266	89.561081
539.640137	910.208313	28091.304688	24960.187500	88.480530
539.987244	955.718750	28177.773438	25278.759766	89.350494
540.334351	939.790100	28826.296875	26070.642578	90.118324
540.681458	964.820801	30853.787109	27888.783203	90.079941
541.028442	951.167725	33766.453125	29863.935547	88.107620
541.375366	905.657288	37179.734375	33070.144531	88.670723
541.722290	951.167725	39869.398438	36016.941406	90.101151
542.069153	948.892151	41678.437500	37065.957031	88.675346
542.416016	917.034912	41632.929688	37614.359375	90.130219
542.762756	932.963501	40044.613281	36385.578125	90.644638
543.109558	887.453125	38617.863281	34913.316406	90.181534
543.456299	937.514587	37439.144531	33004.152344	87.849884
543.802917	921.585938	35916.820313	32041.609375	88.926460
544.149536	903.381775	34207.902344	30560.244141	89.047562
544.496094	953.443237	31763.994141	28475.867188	89.327919
544.842651	928.412476	30214.365234	26996.779297	89.013214
545.189148	992.127075	28510.000000	25786.201172	90.101707
545.535583	935.239075	27916.089844	25133.126953	89.685417
545.882019	926.136963	27299.423828	24400.410156	89.007767
546.228333	1010.331238	26939.890625	24111.417969	89.091705
546.574707	978.473938	27046.839844	24298.011719	89.455307
546.920898	910.208313	27144.687500	23986.265625	87.960800
547.267212	903.381775	27272.117188	24359.449219	88.954086
547.613342	910.208313	27005.880859	23977.162109	88.393791
547.959473	976.198425	26309.572266	23981.712891	90.811096
548.305664	994.402588	25727.039063	23183.005859	89.713860
548.651611	962.545288	24448.195313	22022.490234	89.671547
548.997742	935.239075	23883.867188	21119.109375	87.952408
549.343689	973.922913	22737.003906	20347.707031	89.021332
549.689575	894.279663	21719.845703	19355.580078	88.647293
550.035522	930.687988	21178.271484	18741.189453	87.963593
550.381287	917.034912	20429.625000	17917.451172	87.125366
550.727173	976.198425	19888.052734	18145.001953	90.783287
551.072876	898.830688	19462.529297	17466.898438	89.249825
551.418640	887.453125	19505.763672	17303.060547	88.169159
551.764282	885.177612	19291.865234	17309.886719	89.232292
552.109863	960.269775	19510.314453	17325.814453	88.223747
552.455505	898.830688	19694.632813	17812.777344	89.987892
552.801025	964.820801	19910.806641	17790.021484	88.806152
553.146545	930.687988	20411.421875	17956.134766	87.396332
553.491943	973.922913	20447.830078	17962.960938	87.240005
553.837341	926.136963	20445.554688	17819.603516	86.546982
554.182800	901.106262	19794.755859	17999.369141	90.497406
554.528015	978.473938	19428.396484	17683.072266	90.540207
554.873352	998.953613	19050.660156	17369.050781	90.684486
555.218628	1014.882263	19157.609375	16907.119141	87.595642
555.563721	887.453125	18595.556641	16750.109375	89.578514
555.908875	903.381775	18445.371094	16354.167969	88.078865
556.254028	935.239075	18147.279297	16349.617188	89.555779
556.599121	914.759338	18131.349609	16233.565430	88.977005
556.944031	951.167725	17751.337891	16031.043945	89.760262
557.289063	914.759338	17762.714844	15689.715820	87.695839
557.633972	978.473938	17557.917969	15582.766602	88.086754
557.978882	935.239075	17387.253906	15350.663086	87.621017
558.323792	964.820801	17503.306641	15296.050781	86.653824
558.668518	996.678101	17362.224609	15473.541016	88.459389
559.013306	978.473938	17232.519531	15387.071289	88.646225
559.358032	960.269775	17346.294922	15357.490234	87.862801
559.702637	901.106262	17141.498047	15202.754883	88.062218
560.047363	953.443237	17055.029297	14970.651367	87.054825
560.391846	930.687988	17284.855469	15159.519531	87.004318
560.736450	960.269775	16902.568359	15302.876953	89.965744
561.080933	892.004150	17373.601563	15566.837891	89.037689
561.425354	987.576050	17450.968750	15316.530273	87.035248
561.769775	944.341125	17655.765625	15446.235352	86.778328
562.114136	923.861450	17519.234375	15482.643555	87.727959
562.458496	921.585938	17596.601563	15537.255859	87.650116
562.802673	894.279663	17548.816406	15403.000000	87.115723
563.146912	953.443237	17400.908203	15234.611328	86.828995
563.491150	942.065613	17430.490234	15271.020508	86.903122
563.835266	960.269775	17255.273438	14991.130859	86.105293
564.179443	1012.606750	17389.529297	15223.234375	86.772270
564.523438	964.820801	16954.906250	15252.816406	89.355339
564.867493	905.657288	17353.121094	15261.917969	87.285561
565.211426	901.106262	17519.234375	15471.265625	87.676292
565.555359	901.106262	17412.285156	15610.072266	89.084885
565.899231	937.514587	17899.246094	16001.461914	88.811371
566.243042	948.892151	18572.800781	16543.037109	88.482895
566.586914	983.024963	18734.363281	16902.568359	89.680809
566.930603	962.545288	19460.253906	17114.191406	87.317009
567.274292	937.514587	19391.988281	17086.884766	87.509239
567.617981	946.616638	19494.386719	17080.058594	86.983192
567.961609	971.647400	18788.974609	16861.609375	89.182632
568.305237	898.830688	18518.187500	16424.708984	88.118301
568.648682	919.310425	18563.699219	16206.258789	86.639153
568.992188	860.146851	18031.226563	15885.411133	87.503319
569.335632	926.136963	18172.308594	15641.929688	85.327881
569.679016	942.065613	17947.033203	16008.289063	88.598961
570.022461	960.269775	17956.134766	15760.256836	87.079926
570.365662	942.065613	18076.736328	15930.920898	87.476768
570.708984	887.453125	17917.451172	15935.472656	88.361839
571.052185	935.239075	18033.501953	15951.400391	87.822723
571.395386	951.167725	18245.125000	16288.177734	88.684212
571.738525	951.167725	18748.015625	16595.373047	87.904358
572.081604	880.626526	19159.884766	16811.546875	87.152992
572.424683	923.861450	19605.886719	17391.804688	88.148598
572.767578	946.616638	19428.396484	17118.742188	87.503082
573.110596	985.300537	19640.019531	17148.324219	86.643082
573.453552	964.820801	19580.857422	16993.589844	86.101944
573.796387	896.555176	19237.251953	16961.732422	87.593056
574.139282	939.790100	19041.558594	16816.099609	87.705849
574.481995	928.412476	19112.099609	16522.556641	85.758980
574.824768	866.973450	18445.371094	16163.024414	87.016182
575.167480	946.616638	18668.373047	16754.660156	89.201340
575.510132	946.616638	18543.218750	16263.147461	87.042557
575.852722	921.585938	18854.964844	16390.576172	86.258087
576.195251	937.514587	18206.441406	16097.034180	87.784950
576.537842	923.861450	18019.849609	16092.483398	88.726204
576.880188	946.616638	17881.042969	15835.349609	87.919922
577.222717	978.473938	17498.755859	15114.008789	85.564735
577.565063	930.687988	17478.275391	14982.029297	84.914742
577.907410	978.473938	16711.423828	14731.721680	87.416840
578.249756	978.473938	16597.648438	14267.515625	85.081589
578.591919	1017.157776	16360.994141	14278.892578	86.430374
578.934204	973.922913	15908.166016	13807.860352	85.936310
579.276306	955.718750	15471.265625	13798.757813	88.477814
579.618469	955.718750	15232.335938	13380.062500	87.025826
579.960571	996.678101	14959.273438	13386.888672	88.738594
580.302551	967.096313	14765.854492	13047.835938	87.549469
580.644531	1023.984375	14865.977539	13145.683594	87.571922
580.986511	935.239075	14490.516602	12959.090820	88.702362
581.328369	917.034912	14590.639648	12786.151367	86.803123
581.670227	901.106262	14265.240234	12563.150391	87.263748
582.012024	928.412476	14358.536133	12620.038086	87.055237
582.353821	907.932800	14253.862305	12428.894531	86.325661
582.695496	907.932800	14313.025391	12394.761719	85.690041
583.037231	962.545288	14112.780273	12440.272461	87.281540
583.378845	942.065613	14090.024414	12346.975586	86.742821
583.720398	944.341125	14260.688477	12349.250977	85.645935
584.062012	864.697876	13769.176758	12098.944336	87.056953
584.403442	923.861450	14051.340820	12121.699219	85.300743
584.744934	969.371887	13823.789063	12096.668945	86.563995
585.086365	1003.504700	13721.390625	11860.014648	85.364105
585.427734	942.065613	13632.645508	12089.841797	87.842918
585.768982	1033.086426	13928.462891	11944.208984	84.612671
586.110291	1005.780212	13796.482422	12048.882813	86.336952
586.451599	951.167725	13443.777344	11732.584961	86.302361
586.792725	955.718750	13578.032227	11844.085938	86.262848
587.133850	937.514587	13646.297852	12035.229492	87.323189
587.474915	951.167725	13823.789063	11996.545898	85.805199
587.815979	976.198425	13521.144531	12178.586914	89.298019
588.157043	1012.606750	13737.319336	12128.525391	87.356934
588.497925	987.576050	13732.767578	12178.586914	87.805748
588.838867	989.851563	14071.820313	12064.811523	84.658203
589.179749	923.861450	14117.331055	12139.903320	85.012070
589.520569	869.248962	14037.687500	12387.935547	87.471924
589.861450	951.167725	14003.554688	12554.047852	88.894699
590.202087	942.065613	14429.077148	12519.915039	85.844437
590.542847	892.004150	14212.903320	12601.833984	87.905701
590.883484	960.269775	14376.740234	12569.976563	86.533241
591.224121	912.483826	14053.616211	12283.261719	86.528145
591.564636	987.576050	14365.363281	12390.210938	85.235580
591.905151	921.585938	14060.443359	12219.546875	85.988914
592.245667	903.381775	13871.575195	12080.740234	86.190559
592.585999	928.412476	13805.584961	11916.902344	85.333099
592.926453	1008.055725	13518.869141	12167.209961	89.196075
593.266724	946.616638	13805.584961	11871.391602	84.958412
593.607056	1026.259888	13655.400391	12103.495117	87.711708
593.947388	967.096313	13958.044922	12276.434570	87.055519
594.287476	889.728638	13771.452148	12265.056641	88.305946
594.627686	967.096313	14210.626953	12381.108398	86.185570
594.967773	969.371887	14353.985352	12383.383789	85.277115
595.307861	948.892151	14383.567383	12412.965820	85.331978
595.647888	976.198425	14394.944336	12595.007813	86.586403
595.987854	892.004150	14724.895508	12749.743164	85.721336
596.327820	953.443237	14788.609375	12977.294922	86.907898
596.667725	885.177612	14986.580078	13614.441406	90.269485
597.007568	946.616638	15919.543945	13760.074219	85.577507
597.347351	912.483826	16158.473633	14278.892578	87.671638
597.687073	969.371887	16611.302734	14583.812500	87.038109
598.026794	1010.331238	16474.771484	14322.127930	86.080040
598.366455	942.065613	16087.931641	14044.514648	86.508415
598.706116	937.514587	15332.458984	13591.685547	87.907051
599.045654	985.300537	15057.121094	13188.918945	86.723808
599.385193	944.341125	14408.597656	12713.334961	87.409164
599.724731	878.351013	14058.167969	12303.741211	86.688538
600.064087	957.994263	13955.769531	11907.800781	84.243698
600.403564	957.994263	13575.756836	11607.431641	84.400360
600.742920	930.687988	13248.082031	11582.401367	86.476997
601.082153	953.443237	13111.550781	11634.738281	87.853271
601.421387	992.127075	13307.246094	11168.255859	82.631187
601.760620	964.820801	13179.816406	11243.348633	84.146790
602.099854	962.545288	13136.582031	11536.890625	86.859810
602.438843	871.524475	13095.622070	11266.103516	85.033508
602.778015	894.279663	13694.083984	11600.605469	83.644447
603.117065	960.269775	13830.615234	11889.595703	84.918671
603.456055	937.514587	13923.912109	12253.679688	87.138603
603.794983	967.096313	14342.607422	12592.732422	86.917320
604.133850	914.759338	14943.344727	13188.918945	87.493919
604.472778	983.024963	15682.889648	13220.775391	83.250771
604.811584	917.034912	16056.075195	13987.625977	86.336983
605.150330	880.626526	16454.291016	14130.984375	85.081825
605.489075	930.687988	16552.138672	14317.577148	85.695549
605.827698	907.932800	16367.821289	13937.564453	84.280243
606.166382	935.239075	16219.912109	13903.431641	84.844421
606.504883	989.851563	15744.328125	13518.869141	84.916718
606.843445	957.994263	15161.794922	12970.468750	84.572258
607.181946	964.820801	14624.772461	12478.956055	84.291183
607.520386	921.585938	14292.545898	12333.322266	85.347176
607.858826	944.341125	13898.880859	12051.158203	85.736870
608.197083	873.799988	13757.798828	11739.412109	84.334160
608.535461	923.861450	13434.674805	11680.248047	85.976715
608.873718	992.127075	13675.879883	11903.249023	86.024399
609.211914	937.514587	14017.208008	11973.790039	84.377174
609.550171	910.208313	14442.730469	12435.720703	85.168991
609.888245	889.728638	14863.702148	12481.231445	82.950661
610.226318	960.269775	14854.599609	12827.110352	85.407791
610.564392	951.167725	15280.122070	13066.040039	84.548195
610.902344	926.136963	14586.087891	13011.427734	88.472435
611.240295	957.994263	14840.946289	13041.009766	87.034912
611.578247	998.953613	14435.904297	12827.110352	88.027084
611.916138	855.595825	14237.933594	12858.967773	89.695625
612.253845	937.514587	13930.738281	12249.128906	87.057800
612.591675	917.034912	13318.623047	11964.688477	89.082573
612.929382	960.269775	12990.948242	11671.146484	89.029701
613.267090	948.892151	12554.047852	11238.796875	88.666664
613.604736	898.830688	12645.069336	11068.132813	86.574966
613.942261	939.790100	12324.220703	10886.091797	87.367584
614.279785	942.065613	12269.608398	10544.763672	84.773003
614.617310	894.279663	11962.413086	10590.273438	87.602791
614.954712	976.198425	11809.953125	10355.895508	86.578453
615.292175	905.657288	11894.147461	10101.037109	83.681923
615.629517	935.239075	11805.402344	10380.925781	86.895538
615.966797	880.626526	11714.380859	10253.497070	86.515442
616.304138	907.932800	11611.982422	10205.710938	86.862251
616.641296	921.585938	11773.544922	10160.200195	85.133148
616.978516	962.545288	11759.891602	10069.179688	84.341415
617.315552	932.963501	11577.849609	10037.322266	85.528008
617.652771	1033.086426	11671.146484	10060.077148	84.855598
617.989685	944.341125	11916.902344	10178.404297	84.155952
618.326721	901.106262	11530.063477	10107.863281	86.619568
618.663696	912.483826	11491.379883	10046.424805	86.341156
619.000549	957.994263	11566.472656	10005.464844	85.285278
619.337463	930.687988	11746.238281	10339.966797	86.997688
619.674194	932.963501	11382.155273	9832.525391	85.169861
620.010986	985.300537	11377.604492	10050.975586	87.234505
620.347778	992.127075	11461.797852	9848.454102	84.590309
620.684387	976.198425	11475.451172	9807.495117	84.113571
621.020996	1053.566162	11338.919922	9837.076172	85.398232
621.357605	992.127075	11425.389648	9809.770508	84.514725
621.694214	976.198425	11470.900391	9709.647461	83.217697
622.030579	951.167725	11250.174805	9618.625977	84.158195
622.367065	923.861450	11077.235352	9570.840820	85.163605
622.703430	942.065613	11068.132813	9602.698242	85.528099
623.039795	926.136963	11218.317383	9680.065430	85.054169
623.376160	1008.055725	11040.827148	9545.809570	85.098656
623.712402	907.932800	10797.346680	9529.880859	87.183609
624.048645	946.616638	10906.571289	9627.728516	87.160156
624.384766	942.065613	10963.458984	9777.913086	88.169853
624.720886	1012.606750	10824.652344	9450.238281	85.992584
625.057007	953.443237	11284.307617	9397.901367	81.740089
625.392944	953.443237	11159.154297	9614.075195	84.860641
625.729004	948.892151	11288.858398	9363.768555	81.382050
626.064941	978.473938	11466.349609	9802.943359	84.139725
626.400818	994.402588	11737.136719	9764.259766	81.635246
626.736633	935.239075	11730.309570	10210.261719	85.919052
627.072449	953.443237	11746.238281	10194.333008	85.620911
627.408264	969.371887	11900.973633	10244.394531	84.845963
627.743896	971.647400	12085.291016	10515.181641	85.872238
628.079590	937.514587	12119.423828	10583.447266	86.263733
628.415161	946.616638	11976.066406	10440.089844	86.073860
628.750793	912.483826	11885.044922	10053.250977	83.305687
629.086365	957.994263	11755.340820	9859.832031	82.444679
629.421753	955.718750	11514.135742	9771.085938	83.491371
629.757263	973.922913	11313.889648	9846.178711	85.805458
630.092651	962.545288	11022.623047	9655.035156	86.405792
630.427917	976.198425	10958.908203	9454.789063	84.932755
630.763184	969.371887	10979.387695	9263.645508	82.859749
631.098511	841.942688	10779.141602	9206.756836	84.176781
631.433716	896.555176	10526.559570	9211.308594	86.342163
631.768799	901.106262	10456.018555	8981.480469	84.567749
632.103943	923.861450	10499.252930	8863.153320	82.913498
632.438965	969.371887	10371.824219	8929.143555	84.656334
632.773987	967.096313	10066.904297	8651.530273	84.446114
633.109070	939.790100	10192.057617	8658.356445	83.423508
633.443848	935.239075	10096.485352	8744.826172	85.245903
633.778870	926.136963	10137.445313	8578.713867	83.078064
634.113708	1035.361938	10522.007813	8785.786133	81.698257
634.448425	930.687988	10358.170898	8813.091797	83.610909
634.783264	960.269775	10296.731445	8694.764648	82.841820
635.117859	942.065613	10201.160156	8653.805664	83.288277
635.452576	973.922913	10303.558594	8835.847656	84.268295
635.787170	976.198425	9925.821289	8590.090820	85.075012
636.121704	953.443237	10178.404297	8489.967773	81.697090
636.456177	907.932800	9652.758789	8449.008789	86.234718
636.790588	892.004150	9896.240234	8043.965820	79.428856
637.125122	962.545288	9630.003906	8014.384277	81.359932
637.459412	901.106262	9545.809570	8034.863770	82.521713
637.793762	973.922913	9472.993164	7959.771973	82.195450
638.128052	887.453125	9356.941406	7898.332520	82.778076
638.462280	928.412476	9341.012695	8055.343750	84.717339
638.796509	978.473938	9031.541992	7836.893555	85.165298
639.130615	960.269775	9129.389648	7880.128418	84.707512
639.464722	919.310425	8735.724609	7896.057129	89.257637
639.798767	937.514587	9074.777344	7714.015625	83.277405
640.132751	892.004150	8883.632813	7545.626953	83.257408
640.466736	866.973450	8769.857422	7547.902344	84.537857
640.800598	980.749451	8644.703125	7563.831055	85.896675
641.134521	967.096313	8619.672852	7324.901367	83.080582
641.468262	898.830688	8601.468750	7345.381348	83.692764
641.802063	948.892151	8644.703125	7427.299805	84.180962
642.135803	939.790100	8678.835938	7436.401855	83.945900
642.469421	951.167725	8512.723633	7122.379883	81.612991
642.803101	964.820801	8282.895508	7436.401855	88.432838
643.136658	937.514587	8346.610352	7331.728027	86.302208
643.470215	998.953613	8519.549805	7377.238281	84.810890
643.803711	912.483826	8419.426758	7079.145020	82.146103
644.137085	994.402588	8467.212891	7079.145020	81.425079
644.470581	914.759338	8510.448242	7035.910156	80.587173
644.803833	973.922913	8298.824219	7138.308594	84.156570
645.137207	919.310425	8303.375000	7085.971680	83.513100
645.470459	953.443237	8385.293945	7165.615234	83.588493
645.803589	1003.504700	8196.425781	6960.818359	82.821899
646.136780	971.647400	8464.937500	7176.992676	82.812027
646.469849	964.820801	8130.436035	7019.981445	84.503014
646.802979	917.034912	8449.008789	7190.645508	83.293045
647.135986	939.790100	8282.895508	7247.533691	85.900215
647.468994	939.790100	8307.926758	7288.493164	86.164299
647.801941	944.341125	8239.661133	7183.819336	85.527138
648.134766	976.198425	8571.886719	7220.227539	82.204918
648.467651	885.177612	8474.039063	7208.850098	83.328346
648.800354	926.136963	8282.895508	7115.553711	84.132393
649.133179	914.759338	8198.701172	7206.574219	86.379257
649.465881	932.963501	8203.252930	7156.512695	85.602493
649.798462	957.994263	8237.385742	6974.471191	82.650826
650.131104	912.483826	8414.875977	7040.461426	81.680313
650.463623	937.514587	8412.600586	7124.655762	82.770164
650.796143	973.922913	8373.916992	7165.615234	83.671585
651.128662	962.545288	8471.763672	7104.175781	81.787880
651.461060	953.443237	8376.192383	7058.665527	82.250153
651.793396	914.759338	8360.263672	7161.063965	83.893639
652.125732	921.585938	8344.334961	7334.003418	86.388718
652.458008	967.096313	8137.262207	7188.370117	86.766106
652.790222	957.994263	8517.274414	7131.482422	81.667671
653.122437	885.177612	8271.518555	7085.971680	83.949471
653.454529	971.647400	8289.722656	7076.869629	83.426613
653.786621	896.555176	8276.069336	7092.798340	83.965462
654.118713	937.514587	8173.670898	6837.939941	81.540878
654.450623	917.034912	8091.751953	6865.246094	82.905167
654.782654	926.136963	8214.629883	6746.918945	79.862625
655.114502	903.381775	7993.904785	6869.797363	84.146339
655.446350	973.922913	7930.189941	6774.225586	83.382401
655.778198	953.443237	8100.854004	6828.837891	82.203117
656.109863	962.545288	7939.291992	6649.071777	81.506851
656.441650	978.473938	7859.648926	6842.491211	85.218254
656.773254	901.106262	7741.321777	6676.377930	84.431137
657.104919	921.585938	8000.730957	6951.715820	85.181610
657.436462	939.790100	7798.209961	6667.275879	83.510284
657.767944	923.861450	7998.455566	6758.296875	82.470253
658.099548	917.034912	7996.180176	6974.471191	85.567337
658.430908	955.718750	8228.283203	7124.655762	84.824783
658.762268	914.759338	8378.467773	7252.084961	84.908539
659.093628	928.412476	8692.489258	7349.932129	82.708092
659.424927	862.422363	8733.449219	7609.341797	85.718414
659.756226	942.065613	9247.716797	7727.668457	81.698624
660.087341	992.127075	9161.247070	8007.557617	85.877434
660.418518	923.861450	9270.471680	8037.139648	85.223557
660.749573	912.483826	9193.104492	7918.812500	84.611145
661.080627	957.994263	9172.624023	7682.158203	81.855957
661.411621	912.483826	9040.644531	7543.351563	81.578941
661.742554	907.932800	8690.213867	7509.218750	84.824562
662.073547	923.861450	8542.304688	7268.013672	83.273605
662.404297	994.402588	8398.947266	7101.900391	82.483101
662.735229	926.136963	8312.477539	7013.155273	82.409119
663.065979	957.994263	8073.547852	6903.930176	83.562523
663.396667	932.963501	8014.384277	6778.776367	82.551414
663.727417	976.198425	7641.198730	6551.224609	83.646301
664.057922	935.239075	7668.504883	6482.958984	82.392708
664.388611	869.248962	7579.759766	6446.550293	83.112915
664.719116	928.412476	7575.208984	6282.712891	80.554604
665.049622	969.371887	7388.616211	6266.784180	82.523926
665.380005	996.678101	7306.697266	6159.834961	81.824738
665.710388	885.177612	7379.514160	6255.406738	82.690956
666.040771	971.647400	7245.258301	6230.375977	83.822998
666.371033	930.687988	7320.350586	6280.437500	83.725067
666.701294	930.687988	7117.829102	6207.620605	85.288704
667.031555	939.790100	7145.135254	6250.855469	85.588554
667.361633	919.310425	7402.269043	6266.784180	82.485085
667.691772	889.728638	7445.503906	6061.987305	78.896217
668.021790	857.871338	7249.809082	6073.365234	81.594887
668.351807	926.136963	7249.809082	6137.079590	82.403748
668.681763	969.371887	7233.880859	6116.600098	82.164909
669.011719	901.106262	7318.074707	6257.682129	83.475182
669.341614	942.065613	7268.013672	6221.273926	83.453239
669.671387	932.963501	7258.911133	6239.478027	83.884895
670.001221	967.096313	7293.043945	6239.478027	83.345329
670.330933	928.412476	7295.319824	6187.141113	82.594711
670.660583	896.555176	7172.441406	6018.752441	81.617111
670.990173	905.657288	7131.482422	6159.834961	84.393272
671.319763	889.728638	7026.808105	6150.732910	85.724884
671.649292	937.514587	7060.940918	5955.038086	81.939804
671.978821	1001.229126	7115.553711	5891.323242	79.977669
672.308289	964.820801	6933.511719	5943.660156	83.415932
672.637695	989.851563	6938.062988	5964.140137	83.626625
672.966980	946.616638	7017.706055	5834.435547	80.509750
673.296326	914.759338	6926.685547	5977.792969	84.216499
673.625610	926.136963	6915.307617	5768.445313	80.851067
673.954773	914.759338	6856.144043	6014.201660	85.829193
674.283936	960.269775	6737.816895	5879.945801	85.151634
674.613037	921.585938	6744.643555	5713.832520	82.297768
674.942078	919.310425	6694.582031	5795.751465	84.436569
675.271118	932.963501	6765.123535	5770.720703	82.949669
675.600098	869.248962	6690.031250	5697.904297	82.955437
675.928955	912.483826	6594.459473	5693.353027	84.140968
676.257813	919.310425	6605.836914	5625.087402	82.753098
676.586670	978.473938	6649.071777	5788.924805	84.831459
676.915466	921.585938	6530.744629	5581.852539	83.083168
677.244141	955.718750	6498.887207	5515.862305	82.266014
677.572876	953.443237	6569.428711	5606.883301	82.860611
677.901489	957.994263	6592.183594	5424.841797	79.281105
678.230042	932.963501	6562.602051	5675.148926	84.236053
678.558594	951.167725	6585.357422	5611.434082	82.714058
678.887085	942.065613	6796.980469	5772.996094	82.510689
679.215515	917.034912	6703.684082	5732.037109	83.208809
679.543945	969.371887	6862.970703	5879.945801	83.320465
679.872253	912.483826	6915.307617	5804.853516	81.501137
680.200562	907.932800	7001.777344	5961.864258	82.935028
680.528809	917.034912	7277.115723	6027.854492	80.357773
680.856995	960.269775	7347.656738	6036.956543	79.479866
681.185120	951.167725	7404.544922	6289.539551	82.722145
681.513306	866.973450	7327.176758	6105.222168	81.084892
681.841309	914.759338	7356.758789	6002.823730	78.982689
682.169373	996.678101	7204.298828	6198.518555	83.797653
682.497314	928.412476	7381.789551	6000.548340	78.596611
682.825134	957.994263	7170.166016	6050.609863	81.978027
683.153076	946.616638	7022.257324	6061.987305	84.194756
683.480896	928.412476	7090.522949	6080.191406	83.604134
683.808655	969.371887	6928.960938	5970.966797	83.925163
684.136414	873.799988	6767.398926	5759.343262	82.895752
684.464050	960.269775	6571.704102	5675.148926	84.022705
684.791626	930.687988	6507.989258	5606.883301	83.843330
685.119263	1001.229126	6546.673340	5404.361816	79.400902
685.446838	912.483826	6558.050781	5340.647461	78.436119
685.774292	980.749451	6362.355957	5324.718750	80.718819
686.101685	960.269775	6287.264160	5238.249023	80.307571
686.429077	957.994263	6241.753418	5340.647461	82.945740
686.756348	937.514587	6407.866699	5254.177734	78.910149
687.083679	962.545288	6223.549316	5361.126953	83.607269
687.410950	896.555176	6275.886230	5377.055664	83.291031
687.738159	1001.229126	6259.957520	5392.984375	83.513634
688.065308	992.127075	6207.620605	5488.556152	86.212914
688.392395	921.585938	6366.907227	5468.076660	83.493523
688.719421	926.136963	6544.397949	5468.076660	80.842445
689.046448	1014.882263	6296.366211	5440.770020	83.800079
689.373413	919.310425	6262.233398	5465.800781	85.093689
689.700317	962.545288	6184.865723	5290.585938	82.875816
690.027100	978.473938	6100.671387	5365.678223	85.650826
690.353943	882.902100	6036.956543	5229.146973	84.326714
690.680725	935.239075	5986.895020	5081.237793	82.072075
691.007446	930.687988	5980.068848	5113.095215	82.830101
691.334106	964.820801	5970.966797	5042.554199	81.454544
691.660645	960.269775	5875.394531	4946.982422	81.111115
691.987244	983.024963	5752.516602	4762.665039	79.246185
692.313721	955.718750	5775.271973	4912.849609	82.105759
692.640259	973.922913	5597.781250	4746.736328	81.594482
692.966675	907.932800	5647.842773	4726.256836	80.556885
693.293030	832.840637	5606.883301	4774.042480	82.554817
693.619324	857.871338	5590.954590	4623.858398	79.567314
693.945618	996.678101	5470.352051	4560.143555	79.654114
694.271851	944.341125	5361.126953	4657.991211	84.080383
694.598083	901.106262	5593.229980	4662.541992	80.164894
694.924194	871.524475	5454.423340	4632.960449	82.075478
695.250244	894.279663	5538.617676	4619.307129	80.205780
695.576294	960.269775	5440.770020	4585.174316	80.904015
695.902283	855.595825	5443.045898	4521.459961	79.910713
696.228210	962.545288	5356.576172	4603.378418	82.858612
696.554138	923.861450	5402.086426	4617.031738	82.469513
696.879944	894.279663	5584.127930	4755.838379	82.338669
697.205750	903.381775	5593.229980	4657.991211	80.058228
697.531433	962.545288	5750.241211	4803.624512	80.228134
697.857178	971.647400	5798.026855	4876.440918	80.905235
698.182739	962.545288	5889.047852	5249.626465	87.020782
698.508423	971.647400	6232.651367	5226.871094	80.882347
698.833984	985.300537	6385.111328	5454.423340	82.764442
699.159485	978.473938	6710.510742	5495.382813	78.801117
699.484924	960.269775	6769.674316	5738.863281	82.256172
699.810303	960.269775	6935.787598	5804.853516	81.073883
700.135681	953.443237	6851.593262	5747.965332	81.288574
700.460999	987.576050	6774.225586	5757.067871	82.422340
700.786255	1001.229126	6505.713867	5572.750488	83.050850
701.111450	998.953613	6485.234375	5427.117188	80.713394
701.436646	889.728638	6271.335449	5267.830566	81.353065
701.761719	889.728638	6011.925781	4974.288574	79.742340
702.086792	1044.463989	5916.354004	4842.308105	77.954224
702.411865	919.310425	5700.179688	4692.124023	78.914803
702.736816	978.473938	5456.698730	4655.715332	82.113823
703.061646	1001.229126	5413.463867	4635.235840	82.362045
703.386536	948.892151	5210.942871	4328.040527	79.284569
703.711365	976.198425	5081.237793	4305.285156	81.097557
704.036194	885.177612	5019.798828	4325.765137	83.214088
704.360901	948.892151	4969.737305	4266.601563	82.512741
704.685547	994.402588	5115.370605	4173.305176	77.139709
705.010132	989.851563	4885.542969	4152.825684	81.191597
705.334717	1023.984375	4739.909668	4132.345703	83.649727
705.659302	903.381775	4810.451172	4134.621094	82.702377
705.983765	889.728638	4892.369629	4164.203125	81.807846
706.308228	892.004150	4883.267578	4059.529053	79.361458
706.632568	926.136963	4685.297363	4023.120850	82.384987
706.956909	935.239075	4796.797852	3959.406250	78.314674
707.281189	989.851563	4708.052734	4077.733398	83.047737
707.605408	980.749451	4667.093262	3970.783691	81.111107
707.929626	905.657288	4830.930664	3986.712402	78.492752
708.253784	1010.331238	4862.788086	4166.478516	81.925568
708.577820	951.167725	4783.144531	4127.794922	82.897873
708.901855	973.922913	4844.583984	4120.968262	81.305115
709.225830	921.585938	4855.961426	4084.559814	80.393288
709.549805	919.310425	4867.338867	4116.416992	80.979828
709.873718	837.391663	4849.134766	4134.621094	82.189445
710.197510	1028.535400	4824.104004	4064.080078	79.976021
710.521362	935.239075	4906.022949	4227.917480	82.922630
710.845093	964.820801	5088.064453	4134.621094	76.876373
711.168701	987.576050	5053.931641	4268.876953	80.693901
711.492432	948.892151	4985.666016	4257.499512	81.961670
711.816040	921.585938	4997.043457	4355.346680	84.254608
712.139587	942.065613	5138.125977	4362.173340	81.507584
712.463074	898.830688	5201.840332	4375.826660	80.803818
712.786499	937.514587	5065.309082	4341.693848	82.469688
713.109924	1001.229126	5065.309082	4398.581543	83.594627
713.433350	971.647400	5119.921875	4259.774902	79.264946
713.756592	921.585938	4960.635254	4114.141602	79.042252
714.079834	907.932800	4983.390625	4221.091309	81.295372
714.403015	973.922913	4744.460938	4066.355713	82.015694
714.726196	1001.229126	4953.808594	4064.080078	77.489929
715.049255	869.248962	4833.206055	4064.080078	80.597015
715.372375	905.657288	4735.358887	3973.059326	80.095070
715.695435	998.953613	4710.328125	4020.845215	81.422440
716.018311	967.096313	4774.042480	3902.518066	77.106995
716.341248	983.024963	4880.992188	4043.600586	78.517227
716.664063	946.616638	4769.491699	3973.059326	79.166664
716.987000	953.443237	4680.746094	4107.314941	84.615387
717.309692	864.697876	4744.460938	4009.467773	81.055717
717.632385	978.473938	4767.216309	3932.099854	77.957954
717.955078	937.514587	4571.521484	3781.915527	78.271751
718.277649	932.963501	4594.276367	3872.936523	80.298332
718.600220	983.024963	4505.531250	3811.497314	80.297157
718.922791	901.106262	4425.888184	3725.027588	80.116203
719.245300	971.647400	4441.816406	3663.588379	77.573769
719.567688	919.310425	4341.693848	3531.608398	76.329788
719.890015	912.483826	4177.855957	3674.966064	84.599312
720.212341	967.096313	4127.794922	3520.230713	80.777527
720.534607	928.412476	4080.008789	3486.097900	81.155243
720.856873	994.402588	4175.580566	3527.057129	79.613731
721.179016	937.514587	4114.141602	3426.934326	78.366760
721.501160	980.749451	4202.886719	3472.444824	77.330513
721.823242	905.657288	4027.671875	3351.842041	78.352768
722.145264	983.024963	3927.548828	3438.312012	83.384857
722.467224	971.647400	3932.099854	3356.393066	80.553421
722.789185	973.922913	3957.130615	3354.117676	79.786423
723.111023	921.585938	3838.803711	3228.964111	79.095161
723.432861	919.310425	3909.344727	3354.117676	81.430748
723.754578	973.922913	3932.099854	3299.505127	78.615387
724.076294	937.514587	3843.354736	3251.719238	79.639778
724.397949	960.269775	3779.640137	3279.025391	82.243736
724.719666	946.616638	3982.161377	3210.759766	74.587700
725.041260	892.004150	3731.854004	3242.617188	82.772438
725.362732	971.647400	3893.416016	3274.474365	78.816200
725.684265	912.483826	3920.722412	3365.495361	81.543114
726.005676	912.483826	3841.079102	3319.984863	82.206680
726.327087	912.483826	3829.701416	3310.882813	82.215294
726.648438	994.402588	3938.926514	3256.270264	76.816071
726.969666	969.371887	3943.477539	3272.198975	77.429230
727.290894	976.198425	3904.793701	3411.005615	83.139084
727.612061	978.473938	3936.650879	3415.556641	82.384613
727.933228	971.647400	4009.467773	3429.209961	80.898880
728.254395	903.381775	4070.906738	3467.893799	80.962646
728.575378	987.576050	4130.070313	3379.148438	76.104271
728.896301	957.994263	4034.498291	3397.352539	79.289948
729.217285	935.239075	4084.559814	3331.362549	76.083817
729.538147	912.483826	4093.661865	3461.067139	80.114449
729.858948	1033.086426	4084.559814	3492.924316	80.611481
730.179810	953.443237	4107.314941	3395.077148	77.417030
730.500549	980.749451	4159.651855	3354.117676	74.659988
730.821228	962.545288	4086.835449	3395.077148	77.858704
731.141846	942.065613	4098.212891	3333.637939	75.775055
731.462402	892.004150	4016.294189	3545.261475	84.923531
731.782898	921.585938	4193.784668	3606.700439	82.058418
732.103455	973.922913	4280.254395	3579.394287	78.802483
732.423889	955.718750	4166.478516	3572.567627	81.502480
732.744263	971.647400	4141.447754	3531.608398	80.760956
733.064636	921.585938	4186.958496	3488.373291	78.606262
733.384888	962.545288	4271.152344	3618.078125	80.261353
733.705200	942.065613	4248.397461	3618.078125	80.935989
734.025330	953.443237	4145.999023	3599.874023	82.893799
734.345520	923.861450	4280.254395	3467.893799	75.796616
734.665527	976.198425	4234.744141	3470.169189	76.536316
734.985596	923.861450	4082.284424	3474.720215	80.763695
735.305542	967.096313	3918.446777	3363.219727	81.187355
735.625549	953.443237	3882.038574	3238.066162	78.010887
735.945435	907.932800	3932.099854	3306.331787	79.307755
736.265259	964.820801	3861.558838	3247.168213	78.790260
736.585083	930.687988	3861.558838	3290.403076	80.512421
736.904785	937.514587	3759.160400	3240.341553	81.612900
737.224426	930.687988	3852.456787	3188.004639	77.258568
737.544128	944.341125	3752.333740	3244.892578	81.928688
737.863708	978.473938	3720.476563	3224.413086	81.908714
738.183289	905.657288	3695.445801	3062.851074	77.324638
738.502808	1003.504700	3777.364502	3233.515137	80.393768
738.822205	823.738525	3763.711426	3162.973877	79.566559
739.141541	971.647400	3841.079102	3176.626953	76.843773
739.460938	1010.331238	3918.446777	3267.647949	77.621284
739.780212	973.922913	3995.814453	3326.811523	77.861450
740.099426	960.269775	3913.895752	3345.015625	80.739601
740.418640	937.514587	3954.855225	3345.015625	79.788841
740.737793	921.585938	3845.630127	3160.698486	76.575882
741.056885	928.412476	3920.722412	3304.056152	79.391624
741.375977	946.616638	3845.630127	3197.106689	77.629509
741.694946	951.167725	3754.609375	3137.943115	78.003242
742.013855	928.412476	3718.200928	3153.871826	79.771614
742.332703	907.932800	3688.619141	3156.147461	80.851067
742.651550	905.657288	3606.700439	3117.463379	81.887108
742.970398	919.310425	3558.914551	3071.953125	81.551727
743.289124	892.004150	3606.700439	2926.319824	74.937134
743.607788	957.994263	3563.465576	3033.269287	79.650658
743.926453	935.239075	3470.169189	2969.554688	80.251350
744.245056	967.096313	3492.924316	3085.606201	83.873871
744.563599	985.300537	3417.832275	3021.891602	83.723106
744.882141	971.647400	3454.240479	3024.167236	82.676453
745.200500	907.932800	3438.312012	2935.421875	80.125900
745.518860	896.555176	3451.965088	2980.932129	81.567223
745.837219	919.310425	3517.955078	2935.421875	77.583199
746.155518	901.106262	3440.587402	2930.870850	79.928322
746.473755	919.310425	3411.005615	2846.676514	77.351593
746.791992	923.861450	3365.495361	3003.687500	85.181740
747.110107	964.820801	3370.046387	2917.217773	81.173134
747.428162	964.820801	3281.301025	2955.901611	85.952850
747.746216	919.310425	3445.138428	2899.013428	78.378372
748.064148	887.453125	3392.801514	2885.360352	79.745682
748.382080	930.687988	3322.260254	2826.196777	79.257851
748.700073	1008.055725	3417.832275	2858.054199	76.770538
749.017822	951.167725	3404.179199	2830.747803	76.623367
749.335632	1001.229126	3331.362549	2983.207764	85.058594
749.653320	939.790100	3438.312012	2942.248291	80.145714
749.971008	930.687988	3399.628174	2905.840088	80.000000
750.288696	948.892151	3385.974854	2805.717041	76.190475
750.606262	983.024963	3458.791504	2883.084961	76.746330
750.923828	921.585938	3349.566650	2867.156250	80.131210
751.241272	876.075500	3304.056152	2917.217773	84.067482
751.558716	946.616638	3358.668701	2782.961914	76.132072
751.876038	946.616638	3420.107666	2778.410889	74.057037
752.193481	951.167725	3354.117676	2716.971924	73.484848
752.510681	987.576050	3322.260254	2871.707275	80.701767
752.827942	992.127075	3326.811523	2778.410889	76.510712
753.145081	903.381775	3272.198975	2794.339600	79.827087
753.462219	937.514587	3263.096924	2744.278076	77.690796
753.779297	1001.229126	3226.688477	2728.349365	77.607353
754.096375	976.198425	3224.413086	2810.268311	81.578949
754.413330	973.922913	3210.759766	2728.349365	78.433365
754.730286	983.024963	3190.280273	2785.237549	81.649483
755.047119	953.443237	3137.943115	2716.971924	80.729172
755.363892	935.239075	3142.494141	2817.094727	85.257736
755.680725	983.024963	3162.973877	2641.879639	76.096039
755.997498	957.994263	3331.362549	2789.788574	77.181213
756.314148	962.545288	3267.647949	2689.665527	74.925964
756.630737	935.239075	3213.035400	2789.788574	81.418587
756.947327	946.616638	3192.555664	2796.614990	82.370819
757.263855	914.759338	3194.831299	2678.288086	77.345314
757.580261	910.208313	3096.983887	2735.176025	83.454735
757.896729	887.453125	3128.841064	2744.278076	82.842644
758.213074	989.851563	3228.964111	2691.941162	76.016258
758.529419	930.687988	3249.443604	2748.829102	78.410210
758.845642	910.208313	3199.382324	2705.594238	78.429420
759.161865	946.616638	3381.423828	2905.840088	80.467293
759.478149	967.096313	3367.770752	2848.952148	78.388634
759.794189	894.279663	3365.495361	2833.023438	78.453033
760.110229	957.994263	3322.260254	2798.890625	77.863335
760.426270	985.300537	3324.535889	2844.401123	79.474716
760.742249	917.034912	3329.086914	2728.349365	75.094337
761.058105	989.851563	3276.750000	2796.614990	79.004967
761.374023	955.718750	3354.117676	2942.248291	82.827316
761.689819	942.065613	3299.505127	2821.645752	79.729729
762.005554	930.687988	3351.842041	2889.911377	80.921051
762.321289	955.718750	3242.617188	2889.911377	84.577110
762.636902	948.892151	3290.403076	2869.431641	82.021378
762.952515	983.024963	3449.689453	2946.799316	79.612541
763.268127	946.616638	3463.342773	2892.187012	77.305603
763.583618	917.034912	3618.078125	3081.055176	80.117943
763.899048	962.545288	4036.773926	3315.433838	76.535904
764.214478	976.198425	4378.102051	3602.149414	77.190636
764.529785	973.922913	4696.674805	3922.997803	79.217606
764.845093	1033.086426	4796.797852	3909.344727	76.420799
765.160400	910.208313	4769.491699	3918.446777	77.948112
765.475586	971.647400	4541.939453	3825.150391	79.923515
765.790771	976.198425	4423.612305	3531.608398	74.125420
766.105835	960.269775	4262.050293	3549.812500	78.428673
766.420837	889.728638	3847.905762	3463.342773	87.000000
766.735840	932.963501	3845.630127	3313.158203	81.718758
767.050842	912.483826	3761.435791	3178.902588	79.552719
767.365662	939.790100	3583.945313	3092.432861	81.411362
767.680542	912.483826	3529.332764	3024.167236	80.695656
767.995300	894.279663	3470.169189	2969.554688	80.565369
768.309998	896.555176	3533.883789	2892.187012	75.668686
768.624817	853.320313	3461.067139	2912.666504	78.970329
768.939392	910.208313	3308.607178	2860.329590	81.309296
769.254028	937.514587	3310.882813	2771.584229	77.277077
769.568481	948.892151	3101.534912	2730.625000	82.769554
769.882935	914.759338	3108.361328	2710.145264	81.846474
770.197388	935.239075	3233.515137	2669.185791	75.445541
770.511841	932.963501	3256.270264	2630.501953	73.065620
770.826172	944.341125	3099.259277	2605.471436	77.085541
771.140442	892.004150	3112.912354	2630.501953	78.278687
771.454651	951.167725	2976.381104	2573.614014	80.112366
771.768860	946.616638	3083.330566	2580.440674	76.464333
772.082886	896.555176	2965.003662	2532.654541	79.097900
772.397034	973.922913	3005.962891	2559.960938	78.051514
772.711060	957.994263	2951.350586	2496.246338	77.168945
773.025024	887.453125	2994.585449	2391.572266	71.382278
773.338928	946.616638	2919.493164	2437.082764	75.547867
773.652771	923.861450	2805.717041	2398.398926	78.355507
773.966614	971.647400	2839.849854	2434.807373	78.319130
774.280457	955.718750	2848.952148	2448.460449	78.846153
774.594116	910.208313	2892.187012	2418.878662	76.119400
774.907776	887.453125	2805.717041	2412.052002	79.478058
775.221375	848.769287	2780.686523	2373.368164	78.916367
775.534912	953.443237	2746.553711	2300.551514	75.126900
775.848450	894.279663	2730.625000	2412.052002	82.651794
776.161926	967.096313	2748.829102	2366.541748	78.544067
776.475342	917.034912	2614.573486	2412.052002	88.069695
776.788696	946.616638	2771.584229	2361.990479	77.556107
777.101990	944.341125	2737.451416	2375.643799	79.822342
777.415283	971.647400	2737.451416	2230.010498	71.262894
777.728516	921.585938	2851.227539	2389.296875	76.061325
778.041626	967.096313	2616.848877	2311.929199	81.517250
778.354736	962.545288	2705.594238	2327.857666	78.328972
778.667725	951.167725	2723.798340	2314.204590	76.893448
778.980774	932.963501	2707.869873	2296.000488	76.794868
779.293640	921.585938	2694.216553	2243.663574	74.582802
779.606567	987.576050	2653.257324	2255.041016	76.092888
779.919434	967.096313	2721.522949	2332.408936	77.821014
780.232239	946.616638	2698.767578	2268.694336	75.454552
780.544983	907.932800	2744.278076	2261.867676	73.729866
780.857666	860.146851	2619.124512	2241.387939	78.525223
781.170227	953.443237	2707.869873	2243.663574	73.540855
781.482849	978.473938	2607.746826	2204.979736	75.279335
781.795410	976.198425	2519.001465	2302.827148	85.988213
782.107910	985.300537	2578.165039	2248.214600	79.285721
782.420288	944.341125	2498.521729	2152.642578	77.745239
782.732666	1008.055725	2591.818115	2227.734863	77.011497
783.044983	912.483826	2471.215576	2164.020264	80.291969
783.357300	948.892151	2550.858887	2280.071777	83.096581
783.669495	969.371887	2514.450439	2145.816162	76.141388
783.981689	914.759338	2623.675537	2113.958740	70.173096
784.293762	983.024963	2425.705078	2193.602051	83.911682
784.605835	923.861450	2539.481201	2095.754639	72.535210
784.917908	882.902100	2521.277100	2159.469238	77.916664
785.229858	905.657288	2464.388916	2168.571289	81.021904
785.541748	876.075500	2489.419678	2041.142212	72.214386
785.853577	967.096313	2434.807373	2132.163086	79.379845
786.165405	844.218201	2443.909424	1959.223389	69.701271
786.477173	953.443237	2503.072998	2091.203613	73.421432
786.788879	935.239075	2371.092773	2068.448486	78.922348
787.100525	967.096313	2396.123291	2050.244141	75.796181
787.412109	967.096313	2427.980713	2088.927979	76.791267
787.723694	1035.361938	2382.470215	2020.662476	73.141899
788.035156	921.585938	2450.735840	2127.612061	78.869057
788.346558	919.310425	2432.531738	2077.550537	76.541359
788.658081	985.300537	2459.837891	2132.163086	77.777786
788.969360	962.545288	2539.481201	2207.255127	78.932175
789.280640	971.647400	2580.440674	2266.418701	80.480896
789.591919	996.678101	2687.390137	2109.407715	65.814262
789.903076	937.514587	2712.420898	2257.316650	74.358971
790.214172	955.718750	2628.226563	2214.081787	75.238098
790.525269	967.096313	2528.103516	2214.081787	79.883392
790.836365	953.443237	2534.930176	2116.234375	73.525185
791.147339	983.024963	2473.491211	2098.030273	74.809166
791.458191	957.994263	2437.082764	2123.060791	78.769226
791.769104	957.994263	2402.949951	2207.255127	86.456688
792.079895	960.269775	2430.256104	2032.040039	72.910217
792.390686	892.004150	2412.052002	2013.835938	73.802399
792.701416	882.902100	2509.899414	2009.284912	69.230774
793.012085	944.341125	2289.173828	1981.978638	77.157356
793.322693	928.412476	2341.510986	1988.805176	75.040253
793.633240	973.922913	2327.857666	1941.019287	71.428574
793.943787	948.892151	2282.347412	2036.591064	81.569962
794.254272	944.341125	2266.418701	1893.233276	71.772804
794.564636	912.483826	2243.663574	1936.468262	76.923080
794.875000	967.096313	2371.092773	1981.978638	72.285248
795.185303	903.381775	2334.684326	2004.733887	76.947540
795.495544	937.514587	2175.397949	1950.121338	81.801468
795.805786	937.514587	2339.235352	1961.498901	73.051949
796.115906	994.402588	2368.817139	2093.479248	79.966896
796.426025	980.749451	2355.164063	2013.835938	75.165565
796.736023	971.647400	2352.888428	2032.040039	76.771004
797.045959	901.106262	2346.062012	2061.621826	80.314957
797.355896	921.585938	2264.143311	2123.060791	89.491508
797.665833	953.443237	2359.715088	2118.509766	82.847885
797.975708	955.718750	2364.266113	2070.723877	79.159935
798.285461	885.177612	2446.184814	2020.662476	72.740524
798.595154	903.381775	2323.306641	2034.315552	79.647446
798.904846	919.310425	2311.929199	2068.448486	82.516342
799.214478	930.687988	2298.276123	1995.631714	77.870209
799.524109	957.994263	2327.857666	2007.009399	76.578087
799.833557	1012.606750	2218.632813	1995.631714	81.509422
800.143005	942.065613	2220.908203	1900.059814	74.911034
800.452393	951.167725	2166.295898	1975.152100	84.269661
800.761780	869.248962	2189.051025	1918.264038	79.482765
801.071106	1003.504700	2277.796387	1915.988525	71.607140
801.380371	896.555176	2107.132324	1820.416626	76.315788
801.689575	917.034912	2152.642578	1950.121338	83.609581
801.998718	873.799988	2164.020264	1918.264038	80.952393
802.307800	919.310425	2104.856689	1829.518677	76.775429
802.616882	996.678101	2138.989502	1868.202637	76.294830
802.925903	946.616638	2216.357178	1890.957764	74.372765
803.234863	942.065613	2107.132324	1829.518677	76.171867
803.543701	892.004150	2204.979736	1795.385864	68.804153
803.852539	992.127075	2104.856689	1793.110352	71.983643
804.161316	944.341125	2050.244141	1856.824951	82.510292
804.470032	928.412476	2123.060791	1772.630737	70.666679
804.778809	944.341125	2143.540527	1849.998413	75.521820
805.087341	903.381775	2118.509766	1809.039063	74.531845
805.395935	926.136963	2170.846924	1831.794189	72.760506
805.704468	985.300537	2066.172852	1806.763550	76.000008
806.012939	969.371887	2086.652588	1863.651489	80.040726
806.321350	951.167725	2138.989502	1954.672363	84.482765
806.629761	937.514587	2161.744873	1938.743774	81.784386
806.938049	928.412476	2191.326416	1920.539551	78.558563
807.246277	896.555176	2195.877686	1884.131226	76.006996
807.554504	969.371887	2223.183838	1872.753662	72.050812
807.862671	1010.331238	2111.683350	1925.090576	83.057854
808.170715	948.892151	2209.530762	1786.283813	66.425987
808.478821	953.443237	2154.918213	1906.886475	79.356064
808.786804	1008.055725	2104.856689	1820.416626	74.066391
809.094727	953.443237	2068.448486	1836.345337	79.183670
809.402649	1019.433350	2134.438477	1806.763550	70.612251
809.710510	996.678101	2123.060791	1697.538574	62.222233
810.018311	996.678101	2134.438477	1822.692139	72.599998
810.326050	960.269775	2032.040039	1813.590088	79.617836
810.633667	930.687988	2107.132324	1786.283813	72.727264
810.941345	898.830688	2041.142212	1836.345337	82.071716
811.248901	914.759338	2054.795166	1777.181763	75.648705
811.556396	944.341125	1927.366089	1788.559326	85.879631
811.863892	955.718750	1993.356201	1702.089600	71.929832
812.171326	885.177612	1991.080688	1838.620850	86.213997
812.478699	969.371887	2025.213501	1720.293701	71.120689
812.786011	944.341125	1906.886475	1720.293701	80.614655
813.093262	939.790100	2000.182739	1779.457275	79.184555
813.400391	932.963501	1959.223389	1722.569214	76.940132
813.707642	987.576050	1929.641602	1722.569214	78.019325
814.014709	921.585938	1920.539551	1743.048950	82.232346
814.321716	978.473938	1959.223389	1654.303589	68.909508
814.628723	985.300537	1847.722900	1763.528564	90.237457
814.935669	989.851563	1972.876587	1688.436401	71.064804
815.242554	928.412476	1877.304688	1711.191650	82.494003
815.549438	944.341125	2047.968750	1715.742676	69.896904
815.856201	992.127075	1945.570313	1733.946899	77.804298
816.162964	957.994263	1988.805176	1713.467163	73.289185
816.469604	996.678101	1977.427612	1681.609863	69.837585
816.776184	871.524475	1979.703125	1688.436401	73.716621
817.082825	889.728638	2050.244141	1683.885376	68.431374
817.389343	957.994263	2011.560425	1715.742676	71.922241
817.695801	957.994263	2018.386963	1736.222412	73.390564
818.002197	946.616638	2009.284912	1809.039063	81.156319
818.308533	939.790100	2022.937988	1736.222412	73.529411
818.614868	953.443237	1943.294800	1854.549438	91.034477
818.921143	978.473938	2009.284912	1724.844727	72.406166
819.227356	901.106262	2013.835938	1763.528564	77.505104
819.533447	823.738525	2000.182739	1818.141113	84.526115
819.839539	919.310425	2068.448486	1811.314575	77.623756
820.145569	919.310425	2134.438477	1822.692139	74.344566
820.451538	889.728638	2204.979736	1922.815063	78.546707
820.757568	903.381775	2309.653564	1995.631714	77.669914
821.063416	994.402588	2496.246338	2118.509766	74.848480
821.369263	932.963501	2721.522949	2079.825928	64.122131
821.675049	946.616638	2660.083740	2321.031250	80.212486
821.980713	878.351013	2767.033203	2432.531738	82.289162
822.286438	964.820801	3213.035400	2753.380127	79.554649
822.592102	932.963501	4059.529053	3297.229736	75.618637
822.897583	937.514587	5884.496582	4817.277344	78.426865
823.203125	935.239075	8271.518555	6519.367188	76.116623
823.508545	932.963501	9903.066406	7987.078125	78.640289
823.813965	957.994263	10421.885742	8134.986816	75.835533
824.119263	978.473938	9375.145508	7315.799316	75.474251
824.424622	962.545288	7884.679688	6189.416504	75.509529
824.729858	887.453125	6753.745605	5336.096191	75.833977
825.035095	987.576050	5838.986328	4730.807617	77.157593
825.340149	887.453125	5072.135742	4166.478516	78.357803
825.645264	892.004150	4689.848145	3850.181152	77.890953
825.950256	942.065613	4200.611328	3556.638916	80.237427
826.255310	967.096313	4082.284424	3329.086914	75.821770
826.560242	987.576050	3797.844238	3133.392090	76.356270
826.865112	971.647400	3597.598389	2974.105713	76.256500
827.169922	892.004150	3338.188965	2830.747803	79.255814
827.474670	935.239075	3618.078125	2944.523926	74.893974
827.779419	948.892151	4177.855957	3331.362549	73.784363
828.084045	996.678101	4651.164551	3825.150391	77.397255
828.388672	921.585938	5012.972168	4027.671875	75.917694
828.693176	855.595825	4974.288574	3827.426025	72.154694
828.997681	903.381775	4305.285156	3438.312012	74.515053
829.302124	896.555176	3811.497314	3156.147461	77.517570
829.606567	946.616638	3467.893799	2912.666504	77.978333
829.910828	919.310425	3128.841064	2644.155273	78.063850
830.215149	960.269775	2839.849854	2364.266113	74.697342
830.519348	910.208313	2682.839111	2311.929199	79.075737
830.823547	937.514587	2682.839111	2270.969727	76.401558
831.127686	928.412476	2473.491211	2038.866699	71.870399
831.431763	896.555176	2391.572266	2032.040039	75.951294
831.735779	917.034912	2220.908203	1941.019287	78.534042
832.039734	967.096313	2161.744873	1761.253052	66.476181
832.343628	971.647400	2214.081787	1749.875488	62.637363
832.647461	973.922913	2161.744873	1822.692139	71.455925
832.951233	957.994263	2057.070801	1838.620850	80.124229
833.255127	946.616638	2098.030273	1797.661377	73.913040
833.558777	969.371887	2132.163086	1861.375977	76.712311
833.862366	967.096313	2257.316650	1963.774414	77.248672
834.165955	946.616638	2587.267090	2186.775391	75.589455
834.469482	1010.331238	3008.238525	2359.715088	67.539864
834.773010	948.892151	3347.291016	2703.318604	73.149902
835.076416	1012.606750	3479.271240	2914.942139	77.121773
835.379822	946.616638	3415.556641	2807.992676	75.391708
835.683105	998.953613	3115.187988	2694.216553	80.107521
835.986389	946.616638	2899.013428	2478.042236	78.438232
836.289612	910.208313	2803.441650	2316.480225	74.278847
836.592773	928.412476	2582.716064	2175.397949	75.378273
836.895874	939.790100	2393.847900	1984.254150	71.830986
837.198914	1008.055725	2284.622803	1934.192627	72.549019
837.501892	910.208313	2232.285889	1881.855713	73.493973
837.804871	939.790100	2070.723877	1824.967651	78.269615
838.107666	955.718750	2032.040039	1729.395752	71.881607
838.410583	992.127075	1984.254150	1713.467163	72.706421
838.713379	914.759338	1856.824951	1695.262939	82.850235
839.016052	953.443237	1811.314575	1526.874512	66.843506
839.318787	973.922913	1822.692139	1547.354126	67.560318
839.621338	919.310425	1886.406738	1490.466064	59.058815
839.923889	923.861450	1770.355225	1581.486938	77.688164
840.226440	996.678101	1699.814087	1576.935913	82.524269
840.528931	907.932800	1859.100464	1636.099487	76.555031
840.831299	910.208313	1952.396851	1638.375000	69.869003
841.133606	903.381775	2075.274902	1681.609863	66.407776
841.435913	973.922913	2075.274902	1704.365112	66.322319
841.738220	942.065613	1972.876587	1640.650513	67.770416
842.040405	901.106262	1877.304688	1665.681274	78.321678
842.342529	876.075500	1740.773438	1581.486938	81.578941
842.644592	930.687988	1831.794189	1526.874512	66.161629
842.946594	980.749451	1722.569214	1492.741699	69.018417
843.248596	960.269775	1681.609863	1590.588989	87.381699
843.550598	953.443237	1677.058838	1510.945801	77.044022
843.852478	946.616638	1622.446289	1435.853638	72.390579
844.154236	951.167725	1535.976563	1465.435425	87.937744
844.455994	969.371887	1556.456177	1381.241089	70.155037
844.757690	919.310425	1547.354126	1415.373901	78.985504
845.059326	967.096313	1526.874512	1399.445313	77.235771
845.360962	1001.229126	1533.701050	1381.241089	71.367516
845.662476	953.443237	1515.496826	1308.424438	63.157894
845.963989	905.657288	1474.537476	1333.455200	75.200005
846.265381	910.208313	1463.159912	1249.260864	61.316860
846.566772	921.585938	1488.190552	1287.944824	64.658646
846.868042	985.300537	1415.373901	1353.934937	85.714310
847.169373	987.576050	1479.088501	1374.414551	78.703705
847.470581	946.616638	1465.435425	1308.424438	69.736832
847.771729	846.493713	1490.466064	1287.944824	68.551254
848.072815	967.096313	1417.649414	1342.557251	83.333336
848.373901	942.065613	1435.853638	1228.781250	58.064518
848.674866	964.820801	1474.537476	1267.465088	59.375004
848.975891	926.136963	1454.057739	1269.740601	65.086212
849.276794	939.790100	1469.986450	1269.740601	62.231758
849.577637	923.861450	1451.782227	1308.424438	72.844826
849.878357	971.647400	1363.036987	1267.465088	75.581390
850.179077	983.024963	1397.169800	1224.230225	58.241764
850.479736	946.616638	1374.414551	1240.158813	68.617020
850.780396	953.443237	1401.720825	1180.995239	50.761406
851.080994	994.402588	1429.027100	1215.128052	50.785324
851.381470	973.922913	1403.996338	1219.679199	57.142868
851.681946	948.892151	1369.863525	1237.883301	68.648643
851.982361	955.718750	1394.894287	1274.291626	72.538849
852.282715	985.300537	1390.343262	1215.128052	56.741550
852.583008	903.381775	1322.077637	1224.230225	76.630432
852.883240	930.687988	1433.578125	1237.883301	61.085968
853.183411	939.790100	1322.077637	1253.812012	82.142860
853.483521	901.106262	1333.455200	1212.852539	72.105247
853.783630	917.034912	1399.445313	1237.883301	66.509422
854.083679	964.820801	1381.241089	1276.567139	74.863388
854.383667	896.555176	1401.720825	1267.465088	73.423424
854.683533	955.718750	1333.455200	1274.291626	84.337341
854.983337	998.953613	1381.241089	1228.781250	60.119061
855.283203	935.239075	1392.618774	1237.883301	66.169144
855.582886	962.545288	1324.353149	1260.638550	82.389938
855.882629	964.820801	1388.067749	1249.260864	67.204277
856.182312	996.678101	1413.098389	1272.016113	66.120224
856.481873	932.963501	1403.996338	1142.311401	44.444439
856.781372	923.861450	1351.659302	1249.260864	76.063828
857.080872	1030.810913	1331.179688	1210.577026	59.848469
857.380310	960.269775	1356.210449	1135.484863	44.252865
857.679688	926.136963	1403.996338	1099.076538	36.190475
857.979004	876.075500	1342.557251	1246.985352	79.512192
858.278259	992.127075	1331.179688	1210.577026	64.429512
858.577454	994.402588	1417.649414	1356.210449	85.483894
858.876648	1021.708862	1317.526489	1251.536499	77.692337
859.175720	1019.433350	1408.547363	1231.056763	54.385967
859.474792	912.483826	1372.139038	1285.669312	81.188133
859.773743	980.749451	1278.842651	1210.577026	77.099236
860.072693	960.269775	1326.628662	1317.526489	97.515503
860.371521	989.851563	1365.312500	1226.505737	63.030304
860.670349	1005.780212	1253.812012	1228.781250	89.908241
860.969116	951.167725	1294.771362	1196.923950	71.523170
861.267883	976.198425	1328.904175	1312.975464	95.483856
861.566589	946.616638	1265.189575	1231.056763	89.285713
861.865112	987.576050	1308.424438	1169.617676	56.737583
862.163635	937.514587	1406.271851	1146.862427	44.660179
862.462158	967.096313	1394.894287	1276.567139	72.340416
862.760620	944.341125	1353.934937	1176.444214	56.666649
863.059021	914.759338	1294.771362	1190.097412	72.455093
863.357361	935.239075	1349.383789	1194.648438	62.637371
863.655640	919.310425	1356.210449	1128.658325	47.916660
863.953857	898.830688	1358.485962	1258.363037	78.217827
864.251953	937.514587	1285.669312	1124.107300	53.594769
864.550110	962.545288	1388.067749	1237.883301	64.705872
864.848206	980.749451	1440.404663	1246.985352	57.920784
865.146179	969.371887	1303.873413	1208.301514	71.428558
865.444092	878.351013	1340.281738	1212.852539	72.413788
865.741943	942.065613	1344.832764	1190.097412	61.581932
866.039795	896.555176	1363.036987	1249.260864	75.609741
866.337646	876.075500	1342.557251	1178.719727	64.878044
866.635376	914.759338	1351.659302	1187.821899	62.500019
866.933044	953.443237	1297.046875	1262.914063	90.066223
867.230652	992.127075	1324.353149	1281.118164	86.986275
867.528198	976.198425	1317.526489	1287.944824	91.333366
867.825745	996.678101	1292.495850	1290.220337	99.230774
868.123230	873.799988	1322.077637	1180.995239	68.527901
868.420593	914.759338	1331.179688	1087.698975	41.530064
868.717896	951.167725	1367.588013	1219.679199	64.480881
869.015198	928.412476	1299.322388	1203.750488	74.233124
869.312439	980.749451	1351.659302	1153.689087	46.625786
869.609619	992.127075	1342.557251	1203.750488	60.389610
869.906738	873.799988	1331.179688	1194.648438	70.149254
870.203796	994.402588	1312.975464	1217.403687	70.000031
870.500854	942.065613	1310.699951	1258.363037	85.802483
870.797791	926.136963	1349.383789	1151.413574	53.225822
871.094666	905.657288	1272.016113	1260.638550	96.894424
871.391602	953.443237	1308.424438	1231.056763	78.205132
871.688293	967.096313	1331.179688	1224.230225	70.625008
871.985107	946.616638	1360.761475	1265.189575	76.923073
872.281738	955.718750	1326.628662	1201.474976	66.257660
872.578369	926.136963	1292.495850	1215.128052	78.881966
872.874939	928.412476	1331.179688	1224.230225	73.446335
873.171509	862.422363	1358.485962	1190.097412	66.055046
873.467957	994.402588	1397.169800	1196.923950	50.282486
873.764343	914.759338	1331.179688	1128.658325	51.366123
874.060669	907.932800	1331.179688	1151.413574	57.526890
874.356995	967.096313	1306.148926	1215.128052	73.154350
874.653198	971.647400	1328.904175	1101.352051	36.305721
874.949463	973.922913	1363.036987	1203.750488	59.064320
875.245544	937.514587	1294.771362	1251.536499	87.898102
875.541626	901.106262	1358.485962	1262.914063	79.104469
875.837646	928.412476	1344.832764	1281.118164	84.699448
876.133606	907.932800	1347.108276	1199.199463	66.321251
876.429565	885.177612	1349.383789	1212.852539	70.588234
876.725403	992.127075	1310.699951	1246.985352	79.999992
877.021179	946.616638	1249.260864	1185.546387	78.947403
877.316956	964.820801	1285.669312	1233.332275	83.687927
877.612610	919.310425	1360.761475	1174.168701	57.731945
877.908203	885.177612	1310.699951	1226.505737	80.213913
878.203857	928.412476	1312.975464	1267.465088	88.165688
878.499390	905.657288	1283.393677	1235.607788	87.349411
878.794800	992.127075	1365.312500	1262.914063	72.560974
879.090271	889.728638	1326.628662	1249.260864	82.291649
879.385559	980.749451	1319.802124	1267.465088	84.563744
879.680847	948.892151	1429.027100	1217.403687	55.924179
879.976196	932.963501	1442.680176	1292.495850	70.535721
880.271301	951.167725	1567.833862	1315.250977	59.040577
880.566467	917.034912	1485.915039	1285.669312	64.800011
880.861572	978.473938	1697.538574	1372.139038	54.746830
881.156555	957.994263	1797.661377	1561.007324	71.815727
881.451477	887.453125	1993.356201	1813.590088	83.744858
881.746460	932.963501	2537.205811	2193.602051	78.581558
882.041321	1003.504700	3372.321777	2794.339600	75.600388
882.336121	926.136963	4132.345703	3313.158203	74.449966
882.630798	907.932800	4478.225098	3729.578613	79.031227
882.925537	998.953613	4528.286621	3527.057129	71.631195
883.220215	937.514587	4159.651855	3404.179199	76.553680
883.514771	1010.331238	3813.772949	3017.340576	71.590904
883.809326	1001.229126	3622.629150	2851.227539	70.572922
884.103760	914.759338	3306.331787	2728.349365	75.832535
884.398132	1037.637451	3135.667725	2405.225586	65.184387
884.692505	1035.361938	2924.044189	2393.847900	71.927711
884.986816	962.545288	2848.952148	2321.031250	72.014473
885.281067	907.932800	2664.634766	2154.918213	70.984459
885.575256	964.820801	2473.491211	1936.468262	64.404221
885.869385	971.647400	2257.316650	1845.447388	67.964607
886.163452	1008.055725	2020.662476	1788.559326	77.078651
886.457458	948.892151	1975.152100	1670.232300	70.288246
886.751465	964.820801	1849.998413	1531.425537	64.010284
887.045410	926.136963	1747.599976	1529.150024	73.407211
887.339233	866.973450	1681.609863	1474.537476	74.581009
887.632996	939.790100	1613.344238	1401.720825	68.581085
887.926758	935.239075	1561.007324	1315.250977	60.727257
888.220398	960.269775	1488.190552	1338.006226	71.551727
888.514099	937.514587	1438.129150	1278.842651	68.181808
888.807678	983.024963	1385.792114	1240.158813	63.841812
889.101196	928.412476	1474.537476	1349.383789	77.083328
889.394653	862.422363	1422.200562	1308.424438	79.674782
889.688049	951.167725	1385.792114	1285.669312	76.963371
889.981384	987.576050	1369.863525	1249.260864	68.452362
890.274719	889.728638	1365.312500	1206.026001	66.507172
890.567932	932.963501	1372.139038	1297.046875	82.901558
>>>>>End Processed Spectral Data<<<<<
