Jaz Data File
++++++++++++++++++++++++++++++++++++
Date: Wed Feb 07 06:47:20 2024
User: jaz
Dark Spectrum Present: Yes
Reference Spectrum Present: Yes
Processed Spectrum Present: Yes
Spectrometers: JAZA3692
Integration Time (usec): 47000 (JAZA3692)
Spectra Averaged: 1 (JAZA3692)
Boxcar Smoothing: 0 (JAZA3692)
Correct for Electrical Dark: No (JAZA3692)
Strobe/Lamp Enabled: Yes (JAZA3692)
Correct for Detector Non-linearity: No (JAZA3692)
Correct for Stray Light: No (JAZA3692)
Number of Pixels in Processed Spectrum: 2048
>>>>>Begin Processed Spectral Data<<<<<
W	D	R	S	P
190.244385	0.000000	0.000000	0.000000	0.000000
190.627136	0.000000	0.000000	0.000000	0.000000
191.009842	1044.463989	1105.903076	1071.770264	44.444466
191.392532	964.820801	1023.984375	1085.423462	203.846130
191.775177	1033.086426	971.647400	1005.780212	44.444412
192.157791	1092.250000	1023.984375	1035.361938	83.333389
192.540390	1117.280762	1112.729614	955.718750	3549.918213
192.922943	1119.556274	1058.117188	1060.392700	96.296310
193.305481	1064.943726	1151.413574	996.678101	-78.947319
193.687958	1089.974487	1037.637451	978.473938	213.043304
194.070419	1162.791138	1089.974487	1062.668213	137.500046
194.452866	1060.392700	1130.933838	1108.178589	67.741875
194.835251	1115.005249	1117.280762	1089.974487	-1100.005371
195.217621	1049.015137	1049.015137	1017.157776	0.000000
195.599960	1033.086426	1105.903076	1039.912964	9.374969
195.982254	1158.240112	1094.525513	1087.698975	110.714241
196.364517	1094.525513	1144.586914	1080.872437	-27.272661
196.746750	1101.352051	1167.342163	1062.668213	-58.620659
197.128952	1119.556274	1060.392700	1080.872437	65.384552
197.511139	1137.760376	1055.841675	1115.005249	27.777695
197.893280	1101.352051	1021.708862	1055.841675	57.142834
198.275391	1117.280762	1076.321289	1076.321289	100.000000
198.657471	1128.658325	1069.494751	1096.801025	53.846138
199.039520	989.851563	1108.178589	1085.423462	80.769287
199.421539	1089.974487	1087.698975	1067.219238	1000.005371
199.803513	1099.076538	1039.912964	1069.494751	50.000000
200.185471	1017.157776	1140.035889	1071.770264	44.444439
200.567383	1053.566162	1124.107300	1028.535400	-35.483921
200.949265	1087.698975	1094.525513	1001.229126	-1266.671997
201.331131	1042.188477	1128.658325	1019.433350	-26.315678
201.712967	1049.015137	1069.494751	1037.637451	-55.556152
202.094742	1105.903076	1115.005249	1012.606750	-1024.989624
202.476517	1128.658325	1135.484863	1023.984375	-1533.338745
202.858231	1128.658325	1055.841675	1094.525513	46.875011
203.239944	1071.770264	1144.586914	1069.494751	-3.124990
203.621582	1137.760376	1026.259888	1023.984375	102.040810
204.003235	1108.178589	1037.637451	1074.045776	48.387104
204.384827	1060.392700	1053.566162	1060.392700	-0.000000
204.766388	1055.841675	1142.311401	1026.259888	-34.210571
205.147934	1092.250000	1105.903076	1049.015137	-316.667572
205.529449	1064.943726	1162.791138	1087.698975	23.255852
205.910904	1140.035889	1124.107300	1103.627563	228.572189
206.292343	1037.637451	1151.413574	1135.484863	85.999954
206.673767	1044.463989	1112.729614	998.953613	-66.666611
207.055115	1044.463989	1137.760376	1053.566162	9.756190
207.436462	1105.903076	1201.474976	1021.708862	-88.095154
207.817780	1078.596802	1119.556274	971.647400	-261.110291
208.199051	1142.311401	1089.974487	1028.535400	217.391495
208.580307	1076.321289	1140.035889	1008.055725	-107.142731
208.961517	1094.525513	1064.943726	1030.810913	215.384552
209.342712	1060.392700	1151.413574	1069.494751	9.999960
209.723846	1074.045776	1112.729614	1119.556274	117.647316
210.104965	1053.566162	1062.668213	1044.463989	-100.001343
210.486069	1074.045776	1096.801025	1037.637451	-159.999680
210.867111	1074.045776	1117.280762	1012.606750	-142.104889
211.248123	1085.423462	1112.729614	987.576050	-358.334686
211.629120	1069.494751	1146.862427	1064.943726	-5.882334
212.010071	980.749451	1094.525513	942.065613	-33.999981
212.390991	1026.259888	1119.556274	1017.157776	-9.756124
212.771881	1058.117188	1171.893188	1053.566162	-3.999987
213.152756	1062.668213	1046.739624	1074.045776	-71.428574
213.533569	998.953613	1085.423462	1085.423462	100.000000
213.914368	1030.810913	1087.698975	1010.331238	-35.999954
214.295135	1067.219238	1108.178589	1074.045776	16.666616
214.675858	1087.698975	1126.382813	1008.055725	-205.882492
215.056549	1103.627563	1151.413574	1017.157776	-180.952103
215.437225	1010.331238	1103.627563	1010.331238	0.000000
215.817841	1101.352051	1080.872437	978.473938	600.002075
216.198441	1019.433350	1142.311401	1005.780212	-11.111128
216.579025	1119.556274	1074.045776	985.300537	294.999481
216.959549	1112.729614	1112.729614	960.269775	0.000000
217.340057	1021.708862	1115.005249	1030.810913	9.756060
217.720535	1105.903076	1028.535400	1087.698975	23.529337
218.100967	1083.147949	1060.392700	1080.872437	9.999947
218.481369	1096.801025	1049.015137	1062.668213	71.428642
218.861740	1019.433350	1067.219238	1099.076538	166.666748
219.242065	1060.392700	1103.627563	1087.698975	63.157997
219.622391	1064.943726	1089.974487	1069.494751	18.181730
220.002670	1055.841675	1137.760376	1058.117188	2.777770
220.382919	1092.250000	1128.658325	1078.596802	-37.500210
220.763123	1049.015137	1187.821899	1064.943726	11.475369
221.143295	1028.535400	1121.831787	1064.943726	39.024368
221.523453	1037.637451	1110.454102	1035.361938	-3.124990
221.903549	1135.484863	1087.698975	1085.423462	104.761894
222.283630	1096.801025	1055.841675	1094.525513	5.555539
222.663696	1085.423462	1051.290649	1001.229126	246.666855
223.043701	1144.586914	1119.556274	1019.433350	500.001465
223.423676	1096.801025	1112.729614	998.953613	-614.288025
223.803635	1026.259888	1071.770264	1035.361938	19.999947
224.183548	1046.739624	1117.280762	1035.361938	-16.129150
224.563431	1083.147949	1096.801025	1010.331238	-533.335571
224.943283	1087.698975	1108.178589	1053.566162	-166.667267
225.323105	1130.933838	1105.903076	1110.454102	81.818268
225.702881	1023.984375	1096.801025	1076.321289	71.874924
226.082642	1030.810913	1135.484863	1017.157776	-13.043491
226.462357	1042.188477	1178.719727	1035.361938	-4.999982
226.842041	1083.147949	1099.076538	1117.280762	214.286484
227.221695	1133.209351	1092.250000	1089.974487	105.555542
227.601318	1062.668213	1133.209351	1042.188477	-29.032331
227.980911	960.269775	1187.821899	1142.311401	79.999969
228.360474	1092.250000	1187.821899	1060.392700	-33.333332
228.739990	1033.086426	1167.342163	1049.015137	11.864454
229.119476	1124.107300	1240.158813	1094.525513	-25.490221
229.498932	1092.250000	1265.189575	983.024963	-63.157917
229.878372	1105.903076	1299.322388	1046.739624	-30.588182
230.257736	1080.872437	1299.322388	1012.606750	-31.250034
230.637115	998.953613	1363.036987	1049.015137	13.750016
231.016449	1071.770264	1374.414551	978.473938	-30.827057
231.395737	1089.974487	1385.792114	1033.086426	-19.230789
231.774994	1067.219238	1235.607788	1105.903076	22.972961
232.154221	1023.984375	1267.465088	971.647400	-21.495327
232.533417	1030.810913	1242.434326	1087.698975	26.881742
232.912582	1115.005249	1246.985352	1051.290649	-48.275913
233.291702	1026.259888	1274.291626	1092.250000	26.605511
233.670792	1103.627563	1281.118164	1128.658325	14.102585
234.049866	1121.831787	1258.363037	1078.596802	-31.666733
234.428894	1001.229126	1237.883301	1039.912964	16.346146
234.807892	1119.556274	1253.812012	1105.903076	-10.169545
235.186874	1076.321289	1319.802124	1078.596802	0.934576
235.565781	1083.147949	1308.424438	1026.259888	-25.252552
235.944687	1003.504700	1363.036987	1062.668213	16.455688
236.323547	1083.147949	1269.740601	1008.055725	-40.243935
236.702377	1083.147949	1317.526489	1042.188477	-17.475779
237.081177	1103.627563	1367.588013	1064.943726	-14.655165
237.459946	1060.392700	1338.006226	989.851563	-25.409834
237.838669	1069.494751	1315.250977	1058.117188	-4.629613
238.217361	1046.739624	1237.883301	1053.566162	3.571417
238.596039	1042.188477	1281.118164	1069.494751	11.428581
238.974670	1067.219238	1340.281738	1078.596802	4.166652
239.353271	1039.912964	1235.607788	996.678101	-22.093002
239.731842	1096.801025	1363.036987	976.198425	-45.299141
240.110367	1121.831787	1196.923950	1042.188477	-106.060745
240.488876	1044.463989	1392.618774	1062.668213	5.228773
240.867340	1028.535400	1356.210449	1001.229126	-8.333340
241.245789	1105.903076	1479.088501	1017.157776	-23.780483
241.624176	1115.005249	1485.915039	1060.392700	-14.723944
242.002548	1069.494751	1479.088501	1060.392700	-2.222214
242.380890	998.953613	1558.731689	1083.147949	15.040664
242.759186	1076.321289	1642.926025	1074.045776	-0.401605
243.137451	1010.331238	1847.722900	1089.974487	9.510872
243.515686	1035.361938	1890.957764	1080.872437	5.319159
243.893890	1069.494751	1909.161987	1069.494751	0.000000
244.272049	1028.535400	1888.682251	1055.841675	3.174606
244.650192	1058.117188	1802.212524	1008.055725	-6.727829
245.028290	1023.984375	1704.365112	1087.698975	9.364551
245.406357	1060.392700	1686.160889	1069.494751	1.454540
245.784393	1005.780212	1747.599976	1008.055725	0.306747
246.162384	1035.361938	1617.895264	1021.708862	-2.343742
246.540359	1026.259888	1649.752563	1019.433350	-1.094887
246.918289	1078.596802	1824.967651	1010.331238	-9.146333
247.296204	1096.801025	1988.805176	1115.005249	2.040823
247.674057	1178.719727	2220.908203	1067.219238	-10.698688
248.051895	1137.760376	2521.277100	1055.841675	-5.921049
248.429703	1062.668213	2598.644775	1101.352051	2.518517
248.807465	1099.076538	2471.215576	1149.138062	3.648429
249.185196	1096.801025	2471.215576	1069.494751	-1.986757
249.562897	1092.250000	2232.285889	1064.943726	-2.395212
249.940567	1126.382813	2164.020264	1026.259888	-9.649124
250.318192	1112.729614	1959.223389	1094.525513	-2.150530
250.695801	1030.810913	1879.580200	1087.698975	6.702417
251.073349	1028.535400	1840.896362	1037.637451	1.120444
251.450882	1092.250000	1793.110352	1035.361938	-8.116890
251.828400	1099.076538	1752.151001	1074.045776	-3.832758
252.205872	1087.698975	1772.630737	1078.596802	-1.328917
252.583313	1053.566162	1845.447388	1014.882263	-4.885063
252.960693	1028.535400	1947.845825	1019.433350	-0.990095
253.338074	1092.250000	2016.111450	1071.770264	-2.216754
253.715408	1117.280762	1966.049927	987.576050	-15.281507
254.092682	1037.637451	1872.753662	1076.321289	4.632150
254.469955	1076.321289	1806.763550	1076.321289	0.000000
254.847198	1017.157776	1686.160889	1067.219238	7.482994
255.224365	1099.076538	1747.599976	1053.566162	-7.017538
255.601563	1085.423462	1736.222412	1058.117188	-4.195808
255.978683	1103.627563	1708.916138	1076.321289	-4.511282
256.355743	1033.086426	1765.804199	1099.076538	9.006211
256.732819	1078.596802	1743.048950	1094.525513	2.397270
257.109894	1023.984375	1795.385864	987.576050	-4.719763
257.486877	1105.903076	1745.324463	1026.259888	-12.455509
257.863831	1083.147949	1799.937012	1035.361938	-6.666677
258.240753	1019.433350	1929.641602	1055.841675	4.000000
258.617645	1096.801025	1975.152100	1089.974487	-0.777199
258.994507	1099.076538	2047.968750	1062.668213	-3.836930
259.371307	1089.974487	2220.908203	1064.943726	-2.213283
259.748108	1089.974487	2200.428711	1080.872437	-0.819669
260.124878	1080.872437	2616.848877	978.473938	-6.666671
260.501617	1085.423462	2928.595215	1030.810913	-2.962966
260.878296	1064.943726	3208.484375	1069.494751	0.212313
261.254944	1119.556274	3390.525879	1058.117188	-2.705412
261.631561	1058.117188	3203.933350	1169.617676	5.196181
262.008179	1096.801025	2876.258301	1078.596802	-1.023021
262.384735	1058.117188	2523.552490	1092.250000	2.329193
262.761261	1076.321289	2298.276123	1060.392700	-1.303533
263.137695	1083.147949	2218.632813	1064.943726	-1.603212
263.514191	1071.770264	2189.051025	1135.484863	5.702649
263.890594	1012.606750	2168.571289	1030.810913	1.574803
264.267029	1074.045776	2177.673340	1071.770264	-0.206185
264.643341	1117.280762	2202.704102	1167.342163	4.612154
265.019653	1062.668213	2145.816162	1019.433350	-3.991594
265.395935	1083.147949	2175.397949	1105.903076	2.083326
265.772217	985.300537	2125.336426	1021.708862	3.193612
266.148407	1042.188477	2052.519775	1096.801025	5.405410
266.524597	1085.423462	2236.836914	1115.005249	2.569172
266.900726	1062.668213	2243.663574	1019.433350	-3.660883
267.276855	1085.423462	2339.235352	1105.903076	1.633388
267.652924	1083.147949	2446.184814	1110.454102	2.003332
268.028992	1028.535400	2462.113525	1062.668213	2.380952
268.404999	1094.525513	2466.664551	1044.463989	-3.648429
268.781006	1128.658325	2361.990479	1117.280762	-0.922506
269.156921	985.300537	2268.694336	1133.209351	11.524819
269.532837	1105.903076	2336.959961	1112.729614	0.554527
269.908661	1010.331238	2459.837891	1094.525513	5.808478
270.284546	1053.566162	2380.194824	1089.974487	2.744425
270.660339	1039.912964	2491.695313	1101.352051	4.231977
271.036133	1071.770264	2484.868652	1089.974487	1.288249
271.411835	1076.321289	2573.614014	1058.117188	-1.215801
271.787537	1035.361938	2853.503174	1078.596802	2.377970
272.163239	1030.810913	2965.003662	1146.862427	5.999997
272.538849	1046.739624	3090.157227	957.994263	-4.342987
272.914459	1010.331238	3144.769775	1076.321289	3.091682
273.290070	1092.250000	2944.523926	1108.178589	0.859948
273.665588	1130.933838	2919.493164	1103.627563	-1.526719
274.041046	1055.841675	2949.074951	1055.841675	0.000000
274.416565	1044.463989	2798.890625	1076.321289	1.815824
274.791962	1071.770264	2751.104736	1039.912964	-1.897019
275.167389	1092.250000	2687.390137	1142.311401	3.138370
275.542755	1028.535400	2682.839111	1110.454102	4.951854
275.918060	1014.882263	2689.665527	1110.454102	5.706520
276.293365	1053.566162	2698.767578	1092.250000	2.351313
276.668640	1076.321289	2619.124512	1089.974487	0.884960
277.043854	1094.525513	2655.532715	1053.566162	-2.623905
277.419037	1092.250000	2757.931152	1144.586914	3.142073
277.794189	1008.055725	2735.176025	1146.862427	8.036886
278.169312	1087.698975	2757.931152	1117.280762	1.771118
278.544373	1014.882263	2776.135498	1023.984375	0.516797
278.919464	1051.290649	2735.176025	1039.912964	-0.675681
279.294464	1124.107300	2803.441650	1126.382813	0.135501
279.669464	1071.770264	2771.584229	1092.250000	1.204822
280.044403	1014.882263	2801.166016	1101.352051	4.840765
280.419312	1010.331238	2810.268311	1044.463989	1.896330
280.794189	1087.698975	2848.952148	1078.596802	-0.516801
281.169037	1069.494751	2990.034424	1046.739624	-1.184830
281.543854	1071.770264	3008.238525	1110.454102	1.997649
281.918671	1110.454102	3076.504150	1064.943726	-2.314813
282.293365	1067.219238	3224.413086	1064.943726	-0.105485
282.668091	1062.668213	3210.759766	1137.760376	3.495762
283.042786	1112.729614	3379.148438	1078.596802	-1.506024
283.417419	1176.444214	3470.169189	1101.352051	-3.273808
283.792053	1105.903076	3279.025391	1058.117188	-2.198951
284.166595	1080.872437	3192.555664	1051.290649	-1.400863
284.541138	1033.086426	3165.249512	1083.147949	2.347922
284.915619	1021.708862	3115.187988	1044.463989	1.086953
285.290100	1169.617676	3358.668701	1108.178589	-2.806654
285.664520	1017.157776	3390.525879	1085.423462	2.876321
286.038940	1071.770264	3465.618164	1046.739624	-1.045624
286.413300	1042.188477	3476.995850	1089.974487	1.962620
286.787628	1058.117188	3679.517090	1076.321289	0.694442
287.161896	1133.209351	3843.354736	1083.147949	-1.847185
287.536194	1012.606750	3718.200928	1062.668213	1.850295
287.910400	1060.392700	3702.272461	1174.168701	4.306630
288.284607	1103.627563	3379.148438	1160.515625	2.500002
288.658752	1017.157776	3306.331787	1101.352051	3.677933
289.032867	1042.188477	3210.759766	1101.352051	2.728228
289.406921	1085.423462	3356.393066	1058.117188	-1.202406
289.781006	1030.810913	3372.321777	1121.831787	3.887271
290.154999	1035.361938	3269.923340	1085.423462	2.240329
290.529022	1087.698975	3520.230713	1085.423462	-0.093545
290.902954	1101.352051	3690.894775	1053.566162	-1.845341
291.276825	1074.045776	3843.354736	1115.005249	1.479050
291.650757	1085.423462	3877.487549	1074.045776	-0.407501
292.024597	1101.352051	3922.997803	1121.831787	0.725808
292.398407	1103.627563	3597.598389	1149.138062	1.824821
292.772156	1108.178589	3545.261475	1085.423462	-0.933703
293.145905	1058.117188	3404.179199	1133.209351	3.200775
293.519592	1058.117188	3395.077148	1105.903076	2.044789
293.893280	1196.923950	3527.057129	1076.321289	-5.175784
294.266907	1076.321289	3595.322754	1112.729614	1.445348
294.640533	989.851563	3638.557861	1067.219238	2.920961
295.014069	978.473938	3918.446777	1089.974487	3.792571
295.387604	1128.658325	4032.222900	1094.525513	-1.175549
295.761078	1060.392700	4004.916504	1171.893188	3.786707
296.134552	1135.484863	4041.324951	1115.005249	-0.704774
296.507996	1062.668213	4050.427002	1074.045776	0.380806
296.881378	1051.290649	4045.875977	1051.290649	0.000000
297.254730	1076.321289	4289.356934	1115.005249	1.203969
297.628021	962.545288	4607.929688	1115.005249	4.182274
298.001282	1058.117188	4612.480469	1180.995239	3.457104
298.374573	1026.259888	4805.899902	1142.311401	3.070438
298.747803	1101.352051	4644.337891	1033.086426	-1.926782
299.121002	1042.188477	4323.489746	1121.831787	2.427187
299.494141	1119.556274	4143.723145	1053.566162	-2.182092
299.867188	1074.045776	4107.314941	1039.912964	-1.125281
300.240265	1078.596802	3941.202148	1094.525513	0.556441
300.613312	1071.770264	3820.599365	1074.045776	0.082781
300.986328	1089.974487	3818.323975	1010.331238	-2.919100
301.359314	1087.698975	3704.547852	1110.454102	0.869562
301.732239	1085.423462	3734.129639	1089.974487	0.171821
302.105103	1014.882263	3781.915527	1142.311401	4.605262
302.477997	1119.556274	3706.823486	1140.035889	0.791554
302.850830	1094.525513	3761.435791	1151.413574	2.133107
303.223602	1053.566162	3806.946289	1135.484863	2.975205
303.596375	1042.188477	3831.977051	1155.964600	4.078306
303.969116	1094.525513	3649.935303	1105.903076	0.445234
304.341766	1099.076538	3552.087891	1137.760376	1.576994
304.714478	1089.974487	3536.159424	1146.862427	2.325578
305.087067	1089.974487	3533.883789	1140.035889	2.048415
305.459656	1069.494751	3645.384277	1206.026001	5.300353
305.832214	1076.321289	3563.465576	1153.689087	3.110708
306.204681	1162.791138	3554.363525	1201.474976	1.617507
306.577148	1030.810913	3506.577637	1224.230225	7.812502
306.949646	1085.423462	3713.649902	1258.363037	6.580086
307.322021	1074.045776	3668.139648	1233.332275	6.140352
307.694397	1039.912964	3579.394287	1219.679199	7.078856
308.066742	1069.494751	3595.322754	1331.179688	10.360362
308.439026	992.127075	3818.323975	1274.291626	9.983896
308.811279	1146.862427	3761.435791	1376.690063	8.790255
309.183502	1019.433350	3948.028564	1381.241089	12.354310
309.555695	983.024963	3954.855225	1372.139038	13.093415
309.927887	1033.086426	3991.263428	1417.649414	12.999999
310.299988	1121.831787	4070.906738	1381.241089	8.796294
310.672058	1103.627563	4064.080078	1422.200562	10.760956
311.044128	1069.494751	4239.295410	1501.843750	13.639627
311.416168	1092.250000	4255.224121	1495.017212	12.733813
311.788147	1085.423462	4159.651855	1451.782227	11.917096
312.160065	1124.107300	4089.110840	1490.466064	12.356099
312.531982	1096.801025	4123.243652	1595.140137	16.466167
312.903870	1089.974487	3954.855225	1529.150024	15.329626
313.275696	1019.433350	3893.416016	1529.150024	17.735552
313.647491	1037.637451	4004.916504	1490.466064	15.260736
314.019318	1153.689087	3763.711426	1492.741699	12.990410
314.391022	1044.463989	3765.986816	1492.741699	16.471575
314.762726	1046.739624	3913.895752	1488.190552	15.396821
315.134369	1074.045776	4023.120850	1590.588989	17.515430
315.505981	1089.974487	4287.081055	1640.650513	17.224201
315.877594	1037.637451	4321.213867	1567.833862	16.146919
316.249146	1099.076538	4127.794922	1504.119263	13.373404
316.620636	1030.810913	3927.548828	1510.945801	16.575020
316.992157	1105.903076	3809.221924	1542.803101	16.161617
317.363586	1035.361938	3836.528076	1513.221313	17.059301
317.735016	1089.974487	3690.894775	1499.568237	15.748031
318.106354	1055.841675	3781.915527	1433.578125	13.856428
318.477722	1044.463989	3784.191162	1433.578125	14.202661
318.849060	1074.045776	3788.742188	1517.772339	16.345348
319.220306	1055.841675	3875.211914	1472.261963	14.769976
319.591522	1083.147949	3963.957275	1520.047852	15.165874
319.962738	1053.566162	3895.691650	1472.261963	14.731785
320.333923	1071.770264	4011.743164	1524.598877	15.402475
320.705017	1092.250000	3843.354736	1469.986450	13.730355
321.076111	1155.964600	3836.528076	1515.496826	13.412561
321.447144	1105.903076	3909.344727	1506.394775	14.285715
321.818176	1094.525513	3699.996826	1456.333252	13.886461
322.189178	1005.780212	3829.701416	1444.955688	15.551973
322.560120	1003.504700	3761.435791	1501.843750	18.069307
322.931030	1110.454102	3613.527100	1460.884399	14.000003
323.301910	1060.392700	3868.385254	1488.190552	15.235006
323.672729	1033.086426	4180.131836	1510.945801	15.184381
324.043549	1021.708862	4369.000000	1515.496826	14.751868
324.414337	1078.596802	4425.888184	1515.496826	13.052344
324.785095	1096.801025	4764.940430	1563.282837	12.717123
325.155792	1092.250000	4667.093262	1535.976563	12.412476
325.526428	1074.045776	4728.532227	1595.140137	14.259031
325.897034	1080.872437	4683.021973	1497.292725	11.560328
326.267670	1035.361938	4391.755371	1520.047852	14.440676
326.638184	1071.770264	4505.531250	1501.843750	12.524852
327.008728	1071.770264	4607.929688	1535.976563	13.127415
327.379211	1130.933838	4532.837402	1565.558350	12.775921
327.749634	1087.698975	4516.908691	1499.568237	12.010617
328.120026	1089.974487	4412.234863	1638.375000	16.506849
328.490417	1083.147949	4434.990234	1513.221313	12.830955
328.860748	1105.903076	4207.437988	1549.629639	14.306676
329.231079	1064.943726	4214.264648	1454.057739	12.355490
329.601318	1055.841675	4227.917480	1403.996338	10.975610
329.971558	1060.392700	4312.111816	1438.129150	11.616515
330.341736	1058.117188	4200.611328	1513.221313	14.482259
330.711914	1101.352051	4209.713379	1533.701050	13.909225
331.082062	1130.933838	4391.755371	1506.394775	11.514305
331.452148	1074.045776	4246.121582	1586.037964	16.140604
331.822174	1064.943726	4275.703613	1481.364014	12.969525
332.192200	1087.698975	4466.847168	1456.333252	10.909089
332.562134	1096.801025	4412.234863	1501.843750	12.216885
332.932129	1046.739624	4621.582520	1485.915039	12.285168
333.302063	1067.219238	4667.093262	1554.180664	13.527180
333.671906	1067.219238	4785.420410	1526.874512	12.362303
334.041718	1092.250000	4846.859375	1561.007324	12.484849
334.411499	1071.770264	4821.828613	1574.660400	13.410195
334.781281	1030.810913	4903.747559	1592.864502	14.512337
335.151001	1112.729614	4808.175293	1547.354126	11.761085
335.520721	1126.382813	4833.206055	1531.425537	10.926950
335.890350	1037.637451	4678.470703	1526.874512	13.437503
336.259979	1085.423462	4642.062500	1474.537476	10.940497
336.629547	1046.739624	4683.021973	1545.078613	13.704629
336.999084	1085.423462	4778.593750	1531.425537	12.076401
337.368622	1017.157776	4805.899902	1526.874512	13.453455
337.738098	1023.984375	4796.797852	1515.496826	13.027743
338.107513	1046.739624	4712.603516	1513.221313	12.725015
338.476898	1049.015137	4737.634277	1531.425537	13.078346
338.846252	1055.841675	4869.614746	1442.680176	10.143197
339.215576	1126.382813	4965.186523	1581.486938	11.855363
339.584869	1158.240112	4758.113770	1535.976563	10.493048
339.954132	1064.943726	4883.267578	1529.150024	12.157332
340.323334	1083.147949	4628.409180	1474.537476	11.039794
340.692505	1060.392700	4578.347656	1454.057739	11.190166
341.061646	1115.005249	4444.092285	1483.639526	11.073134
341.430786	1035.361938	4651.164551	1529.150024	13.656389
341.799896	1096.801025	4805.899902	1526.874512	11.595094
342.168915	976.198425	4830.930664	1599.691162	16.174736
342.537903	1117.280762	5010.696777	1533.701050	10.695499
342.906830	978.473938	5008.421387	1588.313477	15.132691
343.275757	1017.157776	5110.819824	1665.681274	15.842135
343.644684	937.514587	5035.727539	1604.242188	16.268740
344.013550	1078.596802	5183.636230	1556.456177	11.640799
344.382355	1064.943726	5361.126953	1586.037964	12.129237
344.751129	1021.708862	5490.831543	1601.966675	12.983707
345.119873	1080.872437	5784.374023	1656.579102	12.239960
345.488586	1087.698975	5891.323242	1736.222412	13.500711
345.857269	1137.760376	6075.640625	1708.916138	11.566820
346.225891	1067.219238	6118.875488	1761.253052	13.738738
346.594482	1087.698975	6389.662598	1752.151001	12.532187
346.963043	1053.566162	6385.111328	1704.365112	12.206573
347.331543	1053.566162	5850.363770	1652.028076	12.476279
347.700043	1133.209351	5766.169922	1713.467163	12.524558
348.068512	1030.810913	5700.179688	1665.681274	13.596493
348.436951	1069.494751	5479.454102	1608.793213	12.229102
348.805328	1064.943726	5402.086426	1638.375000	13.221407
349.173645	1130.933838	5333.820801	1752.151001	14.780725
349.541931	1060.392700	5395.259766	1636.099487	13.280840
349.910217	1078.596802	5577.301270	1722.569214	14.314619
350.278473	1092.250000	5527.240234	1706.640625	13.853258
350.646667	1067.219238	5763.894043	1711.191650	13.711241
351.014801	1026.259888	5827.608887	1749.875488	15.071089
351.382935	1033.086426	5895.874512	1686.160889	13.430041
351.751007	1128.658325	5688.802246	1722.569214	13.023951
352.119049	1080.872437	5950.486816	1770.355225	14.158879
352.487091	1101.352051	5873.119141	1761.253052	13.829279
352.855072	1033.086426	5786.649414	1713.467163	14.313068
353.222992	1046.739624	5975.517578	1770.355225	14.681440
353.590881	1033.086426	6046.058594	1752.151001	14.344077
353.958740	1092.250000	6255.406738	1708.916138	11.943587
354.326599	1035.361938	6337.325195	1799.937012	14.420603
354.694397	1158.240112	6601.285645	1777.181763	11.371238
355.062134	1037.637451	6703.684082	1890.957764	15.060241
355.429840	1130.933838	6890.276855	1843.171875	12.366654
355.797516	1101.352051	6960.818359	1952.396851	14.524272
356.165192	1046.739624	7017.706055	1979.703125	15.625000
356.532776	1044.463989	7233.880859	2041.142212	16.102942
356.900360	1083.147949	7445.503906	2032.040039	14.914163
357.267883	1078.596802	7588.861816	1993.356201	14.051031
357.635376	1071.770264	8087.201172	2195.877686	16.023355
358.002808	1069.494751	8262.416016	2113.958740	14.520720
358.370270	1080.872437	8756.204102	2286.898438	15.713015
358.737640	1062.668213	8722.071289	2239.112549	15.359478
359.105011	1055.841675	8494.519531	2150.367188	14.713980
359.472321	1062.668213	8162.292969	2198.153076	15.993589
359.839569	1049.015137	8182.772949	2098.030273	14.704945
360.206787	1037.637451	7930.189941	2032.040039	14.427203
360.574005	1023.984375	8296.548828	2161.744873	15.644557
360.941193	1046.739624	8801.714844	2280.071777	15.903754
361.308319	1003.504700	9165.797852	2241.387939	15.165876
361.675415	1008.055725	9964.505859	2384.745850	15.370935
362.042450	1110.454102	10690.396484	2605.471436	15.605702
362.409424	1008.055725	11115.918945	2641.879639	16.163891
362.776428	1046.739624	11099.990234	2746.553711	16.908104
363.143402	1071.770264	10804.172852	2564.511963	15.337854
363.510284	1094.525513	9932.648438	2575.889648	16.761072
363.877136	1092.250000	9236.338867	2523.552490	17.574741
364.243988	1121.831787	8503.621094	2273.245361	15.598029
364.610779	1105.903076	8071.272461	2264.143311	16.628555
364.977539	1058.117188	7964.322754	2195.877686	16.474466
365.344269	1017.157776	7775.454590	2218.632813	17.777779
365.710938	1039.912964	7641.198730	2286.898438	18.890039
366.077576	1019.433350	7427.299805	2266.418701	19.460228
366.444183	1001.229126	7334.003418	2170.846924	18.469280
366.810760	1044.463989	7447.779785	2214.081787	18.265814
367.177277	998.953613	7525.147461	2282.347412	19.665272
367.543823	1055.841675	7436.401855	2252.765625	18.758917
367.910248	1039.912964	7390.891602	2291.449463	19.706200
368.276642	1049.015137	7236.156250	2273.245361	19.786686
368.643036	1058.117188	7447.779785	2223.183838	18.233618
369.009399	1110.454102	7124.655762	2143.540527	17.177448
369.375671	1051.290649	7142.859863	2164.020264	18.266716
369.741974	1042.188477	6938.062988	2239.112549	20.301044
370.108215	1142.311401	7004.053223	2300.551514	19.759317
370.474396	1037.637451	7111.002441	2223.183838	19.520420
370.840546	1085.423462	7145.135254	2341.510986	20.728502
371.206665	1021.708862	7274.839844	2223.183838	19.213974
371.572784	1089.974487	7288.493164	2277.796387	19.162996
371.938843	1008.055725	7570.657715	2291.449463	19.556173
372.304840	1110.454102	7418.197754	2459.837891	21.392496
372.670807	1078.596802	7618.443848	2468.940186	21.259569
373.036713	1055.841675	7472.810547	2421.154053	21.276594
373.402649	1026.259888	7368.136230	2384.745850	21.420883
373.768524	985.300537	7363.585449	2418.878662	22.475918
374.134308	1017.157776	7447.779785	2389.296875	21.337580
374.500122	980.749451	7409.095703	2498.521729	23.610617
374.865875	1049.015137	7818.689453	2566.787354	22.420166
375.231567	1112.729614	7859.648926	2539.481201	21.146711
375.597260	1071.770264	7848.271484	2637.328613	23.102755
375.962891	1033.086426	7902.883789	2680.563477	23.981451
376.328461	1078.596802	8394.396484	2773.859863	23.172628
376.694031	1055.841675	8335.232422	2839.849854	24.507658
377.059540	1094.525513	8699.316406	2905.840088	23.818071
377.425049	1112.729614	8945.072266	3044.646729	24.665892
377.790497	1087.698975	9263.645508	3153.871826	25.271360
378.155945	1089.974487	9614.075195	3192.555664	24.666309
378.521301	1121.831787	9611.799805	3288.127441	25.515947
378.886597	1060.392700	9275.022461	3094.708252	24.764544
379.251892	1142.311401	8906.388672	3053.749023	24.618994
379.617157	1074.045776	8565.060547	2999.136475	25.698664
379.982422	1039.912964	8351.161133	2994.585449	26.735142
380.347595	1094.525513	8178.221680	3040.095703	27.465466
380.712738	1053.566162	8278.344727	2994.585449	26.866142
381.077820	1021.708862	8230.558594	2999.136475	27.430557
381.442902	989.851563	8403.498047	2935.421875	26.243095
381.807953	1126.382813	8319.303711	2980.932129	25.782980
382.172974	1085.423462	8480.866211	3110.636963	27.384615
382.537933	1021.708862	8114.507324	3122.014648	29.611805
382.902832	1001.229126	8291.998047	3051.473389	28.121096
383.267700	1112.729614	8330.681641	3203.933350	28.972256
383.632538	1023.984375	8269.242188	3210.759766	30.182161
383.997345	1099.076538	8594.641602	3431.485352	31.117184
384.362152	1046.739624	8844.949219	3549.812500	32.098045
384.726898	1049.015137	8976.929688	3404.179199	29.707233
385.091553	1092.250000	8854.051758	3720.476563	33.861038
385.456238	1060.392700	8872.255859	3508.853027	31.342848
385.820862	1069.494751	9113.460938	3695.445801	32.644981
386.185425	1083.147949	8942.796875	3797.844238	34.539665
386.549988	1055.841675	9006.511719	3868.385254	35.374924
386.914490	1053.566162	9281.849609	3907.069336	34.679203
387.278961	1080.872437	9422.931641	3925.273438	34.097107
387.643372	980.749451	9407.002930	3950.304199	35.241695
388.007782	1105.903076	9566.289063	4221.091309	36.820877
388.372101	1083.147949	9545.809570	4155.101074	36.300079
388.736450	1078.596802	9447.961914	4380.377441	39.450790
389.100739	1092.250000	9475.268555	4330.315918	38.626492
389.464966	998.953613	9379.696289	4275.703613	39.098564
389.829163	1033.086426	9320.533203	4303.009766	39.456341
390.193329	1089.974487	9163.522461	4419.061523	41.234497
390.557495	1001.229126	9193.104492	4548.766113	43.305553
390.921570	1049.015137	9413.829102	4605.654297	42.519043
391.285614	1053.566162	9598.146484	4662.541992	42.237019
391.649597	1101.352051	10248.945313	5008.421387	42.711445
392.013550	1055.841675	10742.733398	5465.800781	45.525017
392.377502	1062.668213	10817.826172	5495.382813	45.439701
392.741455	1119.556274	10952.082031	5584.127930	45.406155
393.105316	1026.259888	10963.458984	5716.108398	47.194874
393.469086	1037.637451	10565.243164	5565.923828	47.528061
393.832886	1080.872437	10444.640625	5479.454102	46.974480
394.196655	1012.606750	10553.865234	5686.526367	48.986401
394.560333	1039.912964	10647.162109	5930.007324	50.900047
394.924042	1058.117188	10733.631836	6034.681152	51.434616
395.287659	1042.188477	10738.182617	6077.916016	51.936165
395.651245	1005.780212	10763.213867	6084.742676	52.052235
396.014771	1121.831787	10476.498047	6148.457031	53.733879
396.378296	1037.637451	10114.690430	5909.527344	53.672592
396.741791	1110.454102	9798.392578	5927.731445	55.447876
397.105255	1062.668213	9684.616211	5900.425293	56.109787
397.468628	1076.321289	9450.238281	5875.394531	57.309776
397.832001	1014.882263	9427.482422	5898.149902	58.047062
398.195313	1049.015137	9650.483398	6027.854492	57.883595
398.558624	1092.250000	9402.452148	6162.110352	61.007668
398.921844	1087.698975	9582.217773	6294.090332	61.291191
399.285095	1026.259888	9602.698242	6353.253906	62.111961
399.648254	1089.974487	9675.514648	6332.774414	61.065464
400.011383	1042.188477	9741.504883	6492.061035	62.647137
400.374451	1126.382813	9723.300781	6665.000488	64.425621
400.737549	1067.219238	9645.932617	6847.041992	67.374008
401.100586	1094.525513	9591.320313	6512.540527	63.765400
401.463562	1078.596802	9645.932617	6749.194824	66.188583
401.826508	994.402588	9946.301758	7045.012207	67.590233
402.189392	1099.076538	9866.658203	6894.828125	66.104332
402.552246	1030.810913	9686.891602	6915.307617	67.981071
402.915070	1126.382813	9918.995117	7076.869629	67.675980
403.277893	1044.463989	10148.823242	7359.034180	69.357658
403.640656	1055.841675	10289.905273	7384.064941	68.531296
404.003326	1042.188477	10640.334961	7932.465332	71.787575
404.366028	1001.229126	10806.448242	7873.301758	70.085869
404.728699	1051.290649	11036.276367	8289.722656	72.493164
405.091248	1037.637451	11475.451172	8526.375977	71.746239
405.453857	1110.454102	11366.226563	8499.070313	72.043488
405.816345	1121.831787	11357.124023	8355.711914	70.675850
406.178833	1062.668213	11377.604492	8544.581055	72.534744
406.541260	1135.484863	11416.288086	8778.958984	74.347054
406.903687	1108.178589	10983.938477	8291.998047	72.741943
407.266052	1028.535400	10936.153320	8330.681641	73.702339
407.628387	1076.321289	10756.386719	8173.670898	73.319229
407.990662	1069.494751	10565.243164	8235.109375	75.461296
408.352905	1119.556274	10797.346680	8378.467773	75.005882
408.715118	1096.801025	10676.743164	8530.927734	77.600960
409.077332	1076.321289	10442.365234	8273.793945	76.846451
409.439484	1096.801025	10679.019531	8348.885742	75.682732
409.801575	1010.331238	10783.693359	8417.151367	75.785797
410.163605	1080.872437	11179.633789	8628.774414	74.740868
410.525635	1051.290649	11074.959961	8976.929688	79.069244
410.887604	1087.698975	11384.430664	9015.613281	76.994476
411.249573	1130.933838	11400.359375	9113.460938	77.731003
411.611481	1058.117188	11566.472656	9036.092773	75.920303
411.973328	1021.708862	11209.215820	9102.083008	79.316498
412.335144	1030.810913	11475.451172	8929.143555	75.620911
412.696930	1035.361938	11079.510742	8963.276367	78.930679
413.058685	1078.596802	11102.265625	8829.020508	77.321228
413.420410	1080.872437	11065.857422	8986.031250	79.170456
413.782104	1074.045776	11131.847656	9081.603516	79.615387
414.143707	1060.392700	11250.174805	8874.531250	76.686020
414.505310	1012.606750	11272.929688	9081.603516	78.642715
414.866852	1099.076538	11477.726563	9177.175781	77.833809
415.228394	1067.219238	11525.512695	9347.839844	79.177559
415.589874	1078.596802	11586.952148	9409.278320	79.276741
415.951324	1128.658325	11805.402344	9564.013672	79.006813
416.312683	1101.352051	12183.138672	10032.771484	80.595482
416.674072	1060.392700	12422.068359	10044.148438	79.070694
417.035370	998.953613	12674.650391	10205.710938	78.854027
417.396667	1012.606750	12852.141602	10444.640625	79.665581
417.757935	1049.015137	13141.132813	10540.211914	78.490784
418.119141	1062.668213	13755.523438	11241.073242	80.190033
418.480286	1051.290649	13846.543945	11261.552734	79.797264
418.841400	1062.668213	14690.762695	11860.014648	79.228584
419.202484	1055.841675	15052.570313	12039.780273	78.475044
419.563568	1112.729614	15619.174805	12569.976563	78.980392
419.924591	1092.250000	16490.699219	13154.786133	78.336044
420.285553	1060.392700	16729.628906	13314.072266	78.202148
420.646484	1087.698975	17785.470703	14408.597656	79.776505
421.007355	1110.454102	18261.054688	14797.711914	79.806282
421.368225	1060.392700	19087.068359	15657.858398	80.977028
421.729065	1014.882263	19485.285156	15849.001953	80.312927
422.089874	1069.494751	20008.654297	16208.535156	79.935120
422.450592	1085.423462	20354.533203	16381.474609	79.381203
422.811279	1010.331238	19917.632813	16201.708008	80.346619
423.171936	1060.392700	19933.562500	15917.267578	78.719551
423.532593	1010.331238	19567.203125	15437.132813	77.743721
423.893127	1019.433350	19942.664063	15871.757813	78.487259
424.253723	1039.912964	20397.767578	16172.125977	78.170914
424.614197	1039.912964	20456.931641	16238.116211	78.272583
424.974670	1137.760376	21091.802734	16618.128906	77.580109
425.335052	1087.698975	21280.669922	16895.742188	78.284882
425.695496	1087.698975	19999.552734	15990.084961	78.799179
426.055817	1008.055725	20254.410156	15999.186523	77.890762
426.416168	985.300537	20156.562500	16188.054688	79.299706
426.776398	1064.943726	19171.263672	15148.141602	77.780563
427.136627	1058.117188	18213.267578	14483.689453	78.259720
427.496826	992.127075	17753.613281	14479.138672	80.464294
427.856995	1060.392700	17266.652344	14096.851563	80.440887
428.217102	1046.739624	16506.626953	13598.512695	81.189293
428.577179	1053.566162	16518.005859	13336.827148	79.429070
428.937195	1042.188477	16304.106445	12945.437500	77.993141
429.297180	1028.535400	15616.899414	12513.088867	78.724068
429.657135	1076.321289	15484.918945	12469.853516	79.074539
430.017059	1085.423462	15980.982422	12797.529297	78.628174
430.376984	1030.810913	15425.755859	12544.946289	79.987350
430.736786	1014.882263	15437.132813	12101.219727	76.869675
431.096588	1044.463989	15018.437500	12269.608398	80.328934
431.456360	1094.525513	15496.296875	12174.036133	76.931580
431.816071	985.300537	14840.946289	11907.800781	78.830681
432.175781	1064.943726	14911.488281	12192.240234	80.361542
432.535400	1110.454102	15455.336914	12160.382813	77.030457
432.895020	1030.810913	15170.897461	11948.759766	77.212746
433.254578	1019.433350	15327.908203	12103.495117	77.465012
433.614105	1026.259888	15457.613281	12494.884766	79.470200
433.973602	1101.352051	15557.735352	12895.375977	81.583504
434.333038	1003.504700	15830.797852	12940.886719	80.509514
434.692444	1044.463989	15812.593750	12797.529297	79.583977
435.051819	1083.147949	16103.860352	13045.560547	79.639442
435.411133	1049.015137	16165.299805	13179.816406	80.249878
435.770416	989.851563	15387.071289	12315.118164	78.662872
436.129669	1049.015137	16274.524414	12879.447266	77.701385
436.488861	996.678101	15644.205078	12726.988281	80.083893
436.848083	1023.984375	15910.441406	12758.844727	78.829102
437.207184	1046.739624	15785.288086	12802.080078	79.759148
437.566254	1039.912964	16263.147461	13159.336914	79.611359
437.925293	987.576050	15992.360352	13022.805664	80.209282
438.284363	1101.352051	16265.422852	13257.184570	80.162064
438.643311	1089.974487	16663.638672	13341.378906	78.667450
439.002258	1117.280762	16586.271484	13405.092773	79.435127
439.361145	1108.178589	17146.048828	13473.358398	77.099884
439.719971	1051.290649	17505.582031	13944.391602	78.357071
440.078827	985.300537	17603.429688	14247.036133	79.802818
440.437592	1062.668213	18395.310547	14597.465820	78.088486
440.796295	1028.535400	18802.628906	14900.110352	78.043785
441.155029	1119.556274	19640.019531	15944.574219	80.046692
441.513672	1096.801025	20345.431641	16242.667969	78.685425
441.872253	1028.535400	20306.748047	16235.840820	78.883377
442.230865	1117.280762	19517.142578	15867.207031	80.163246
442.589386	1078.596802	19717.388672	15525.878906	77.511909
442.947876	1060.392700	19426.121094	15289.224609	77.474915
443.306335	1110.454102	18982.394531	15079.875977	78.163986
443.664764	1112.729614	18224.646484	14722.619141	79.534576
444.023102	1044.463989	18793.525391	14847.773438	77.769241
444.381500	1085.423462	18377.105469	14847.773438	79.589424
444.739777	1026.259888	18600.107422	14818.191406	78.479866
445.098022	1094.525513	18734.363281	14959.273438	78.599068
445.456238	1033.086426	18656.994141	15050.294922	79.535194
445.814423	1085.423462	19483.009766	15660.133789	79.220772
446.172577	1023.984375	20320.400391	16017.390625	77.700470
446.530701	1101.352051	20468.310547	16335.963867	78.662895
446.888733	1060.392700	21344.384766	16870.710938	77.944809
447.246765	1076.321289	22152.195313	17555.642578	78.190445
447.604736	1064.943726	21137.312500	17180.181641	80.285683
447.962677	1049.015137	21756.253906	16970.833984	76.890114
448.320587	1046.739624	21904.164063	17494.203125	78.856636
448.678436	1019.433350	21389.896484	17166.529297	79.267204
449.036255	1128.658325	21253.365234	16715.976563	77.453644
449.394043	1017.157776	19949.490234	16158.473633	79.975967
449.751770	1087.698975	20347.707031	16404.228516	79.525040
450.109467	998.953613	19626.367188	15637.378906	78.585388
450.467163	1064.943726	19517.142578	15600.970703	78.776665
450.824768	1060.392700	19232.701172	15537.255859	79.664413
451.182343	1069.494751	19025.628906	15305.153320	79.280190
451.539886	1064.943726	18356.626953	14629.323242	78.444527
451.897369	989.851563	18468.126953	15245.989258	81.564896
452.254822	1099.076538	18201.890625	14633.874023	79.137840
452.612274	1101.352051	18759.392578	14991.130859	78.659798
452.969635	1023.984375	18656.994141	15036.641602	79.468323
453.326965	1044.463989	18538.667969	14784.058594	78.537987
453.684326	1042.188477	18513.636719	14533.750977	77.220627
454.041534	1014.882263	17922.001953	14369.914063	78.990585
454.398773	1023.984375	17576.123047	14253.862305	79.928513
454.755951	1062.668213	17173.355469	13698.634766	78.432198
455.113098	1023.984375	16866.160156	13323.173828	77.635735
455.470215	1158.240112	16754.660156	13719.115234	80.536911
455.827240	1060.392700	16736.455078	13461.981445	79.111633
456.184265	1078.596802	16413.332031	13468.807617	80.798332
456.541260	1062.668213	16793.343750	13175.265625	76.999855
456.898193	1105.903076	16447.464844	13175.265625	78.671013
457.255096	1033.086426	16984.486328	13703.186523	79.429390
457.611969	1069.494751	16624.955078	13500.665039	79.915154
457.968781	1071.770264	16590.822266	13653.125000	81.070381
458.325531	1105.903076	17234.794922	13653.125000	77.793449
458.682312	1049.015137	17908.349609	14267.515625	78.404640
459.039001	1071.770264	18868.619141	15107.182617	78.864586
459.395630	1039.912964	19703.734375	15778.460938	78.968536
459.752289	1014.882263	21005.332031	16884.365234	79.385330
460.108856	1023.984375	22919.044922	18431.718750	79.505302
460.465363	1049.015137	23478.824219	18707.056641	78.725777
460.821899	1103.627563	23817.876953	18900.476563	78.351036
461.178345	1053.566162	22702.871094	18104.042969	78.757614
461.534760	1076.321289	22275.072266	18024.400391	79.948479
461.891144	1076.321289	21722.121094	17214.314453	78.165985
462.247467	1014.882263	20588.912109	16397.402344	78.586380
462.603760	1103.627563	20174.767578	16224.462891	79.286476
462.960052	1053.566162	18697.955078	15209.581055	80.229553
463.316254	1092.250000	18443.095703	15066.223633	80.537712
463.672424	1092.250000	18231.472656	14533.750977	78.425385
464.028564	1101.352051	17516.958984	14328.954102	80.579422
464.384644	1140.035889	17380.427734	14262.964844	80.804260
464.740723	1021.708862	18072.185547	14490.516602	78.993729
465.096741	1014.882263	17683.072266	14144.637695	78.771339
465.452698	1003.504700	17407.734375	14137.810547	80.066574
465.808655	960.269775	17696.724609	14310.750000	79.768867
466.164520	1069.494751	17623.908203	14108.228516	78.762878
466.520355	1044.463989	18358.902344	14840.946289	79.681953
466.876190	1155.964600	18256.503906	15143.590820	81.796402
467.231964	1049.015137	18616.035156	14752.201172	78.005180
467.587677	1037.637451	18975.568359	15457.613281	80.388176
467.943390	1094.525513	19332.824219	15432.582031	78.615097
468.299011	1158.240112	18661.546875	15095.804688	79.628181
468.654633	1149.138062	18506.810547	14979.753906	79.680138
469.010223	1021.708862	18540.943359	15057.121094	80.114304
469.365723	1167.342163	18067.634766	14349.434570	77.999199
469.721191	1117.280762	18183.687500	14658.905273	79.346672
470.076660	1110.454102	17396.357422	14294.821289	80.955704
470.432068	1062.668213	17928.828125	14479.138672	79.546684
470.787445	1042.188477	17601.154297	14406.322266	80.706337
471.142792	1078.596802	17464.623047	13992.177734	78.808502
471.498016	1064.943726	17767.265625	14356.260742	79.577660
471.853271	1042.188477	17790.021484	14310.750000	79.225548
472.208496	1055.841675	17937.929688	14447.281250	79.323364
472.563660	1012.606750	18042.603516	14638.425781	80.010704
472.918762	1115.005249	18251.953125	14916.039063	80.533798
473.273865	1112.729614	18684.300781	14875.079102	78.321686
473.628876	1026.259888	18934.609375	15352.938477	79.999992
473.983917	1071.770264	18932.333984	15598.695313	81.335197
474.338837	1071.770264	19143.957031	15193.652344	78.141518
474.693787	1101.352051	19096.169922	15259.642578	78.679825
475.048645	1058.117188	18757.117188	15252.816406	80.200569
475.403503	1089.974487	19314.621094	15484.918945	78.986137
475.758270	1010.331238	19519.417969	15735.226563	79.554955
476.113037	1035.361938	19298.691406	15505.398438	79.229996
476.467773	1117.280762	19746.968750	15789.838867	78.759018
476.822418	1174.168701	20825.566406	16615.853516	78.578041
477.177063	1010.331238	20247.583984	16522.556641	80.636391
477.531647	1028.535400	20880.179688	16527.107422	78.071983
477.886200	1005.780212	21494.570313	17278.029297	79.420250
478.240723	1044.463989	22108.960938	18008.470703	80.533646
478.595184	1074.045776	22113.511719	17733.132813	79.180183
478.949585	1089.974487	22677.839844	18094.941406	78.770950
479.303986	1076.321289	22805.269531	18299.738281	79.264847
479.658325	992.127075	23267.201172	18575.076172	78.935539
480.012634	1074.045776	22919.044922	18324.769531	78.968758
480.366913	1010.331238	23863.386719	19132.578125	79.299011
480.721130	1062.668213	24375.378906	19234.976563	77.950218
481.075317	1144.586914	25124.025391	20104.226563	79.066246
481.429474	1042.188477	26345.980469	21244.261719	79.838127
481.783569	1074.045776	27096.902344	22111.236328	80.841202
482.137604	1076.321289	28489.519531	22873.535156	79.513573
482.491669	1101.352051	31129.125000	25053.484375	79.766594
482.845612	989.851563	34688.039063	27556.556641	78.837196
483.199554	1037.637451	38736.191406	30576.173828	78.354561
483.553436	1030.810913	45319.273438	36130.718750	79.252937
483.907318	1092.250000	52503.089844	42522.656250	80.586906
484.261139	1108.178589	57998.472656	48564.164063	83.416664
484.614899	1099.076538	59985.003906	51836.363281	86.161987
484.968628	1105.903076	59912.187500	51055.859375	84.939827
485.322357	1058.117188	57973.445313	48104.507813	82.660316
485.675964	1133.209351	54819.570313	45205.496094	82.092148
486.029572	1110.454102	51119.574219	40963.925781	79.692406
486.383148	969.371887	47931.570313	38299.289063	79.489288
486.736694	1028.535400	45879.050781	36214.914063	78.452560
487.090149	1074.045776	45740.242188	36358.269531	78.995361
487.443604	1069.494751	46859.800781	37339.019531	79.207863
487.796997	1071.770264	48165.949219	39259.558594	81.088127
488.150360	1067.219238	50236.671875	40297.199219	79.785271
488.503693	1042.188477	50939.808594	40781.882813	79.642464
488.856964	1071.770264	49988.640625	40053.718750	79.690193
489.210175	1051.290649	47296.699219	37992.093750	79.879936
489.563416	1046.739624	44905.128906	35448.062500	78.437271
489.916565	1110.454102	42374.750000	33657.226563	78.873932
490.269653	1083.147949	39924.011719	31864.117188	79.248932
490.622772	1115.005249	38645.167969	30623.958984	78.627296
490.975769	1035.361938	38567.800781	30701.326172	79.040871
491.328735	1083.147949	40046.890625	31829.984375	78.911407
491.681732	1049.015137	42024.316406	33868.851563	80.096634
492.034607	1042.188477	44613.859375	35657.410156	79.444328
492.387482	1017.157776	45430.773438	36776.968750	80.515427
492.740326	1099.076538	44852.789063	35504.949219	78.635323
493.093079	1028.535400	42939.078125	33802.863281	78.200676
493.445862	1021.708862	39093.449219	31263.380859	79.433380
493.798523	1033.086426	36228.566406	28519.101563	78.095299
494.151215	1101.352051	33502.492188	26653.175781	78.860878
494.503815	1058.117188	30969.837891	24484.603516	78.318748
494.856384	1064.943726	29026.542969	23285.404297	79.467773
495.208923	1046.739624	28182.324219	22227.287109	78.054512
495.561432	1117.280762	27435.955078	21644.753906	77.995850
495.913879	1083.147949	26468.857422	21383.068359	79.965935
496.266296	1049.015137	26971.748047	21587.865234	79.231033
496.618683	1080.872437	26951.267578	21640.203125	79.470490
496.970978	1110.454102	27611.169922	22202.255859	79.589554
497.323273	1035.361938	27891.058594	22338.787109	79.325539
497.675507	1021.708862	28519.101563	22375.195313	77.656403
498.027710	1099.076538	28473.591797	22463.941406	78.046555
498.379852	1094.525513	27704.464844	22247.767578	79.493759
498.731995	1049.015137	27572.486328	22006.562500	79.015099
499.084076	1121.831787	27021.808594	21731.224609	79.573013
499.436096	1089.974487	26910.308594	21469.539063	78.928352
499.788086	1078.596802	26250.408203	20896.107422	78.728981
500.140106	1087.698975	26009.203125	20329.501953	77.209641
500.491943	1085.423462	25126.300781	20045.062500	78.864174
500.843842	1117.280762	24819.105469	19897.154297	79.233871
501.195679	1046.739624	23968.060547	19592.234375	80.909363
501.547455	1076.321289	24206.990234	19068.865234	77.786522
501.899231	1053.566162	23747.335938	19157.609375	79.775391
502.250885	983.024963	23642.660156	18836.761719	78.790924
502.602600	1010.331238	23276.302734	18684.300781	79.376595
502.954193	1101.352051	23287.679688	18820.832031	79.866669
503.305786	1105.903076	23066.955078	18625.138672	79.774117
503.657379	1094.525513	23490.201172	18811.730469	79.109940
504.008820	1089.974487	23365.046875	18882.271484	79.875374
504.360291	1080.872437	23892.968750	19093.894531	78.962593
504.711700	1026.259888	24034.050781	19089.343750	78.508553
505.063080	1058.117188	24243.398438	19175.814453	78.143097
505.414368	1017.157776	24102.316406	18768.496094	76.895027
505.765656	1028.535400	23754.162109	19134.853516	79.673569
506.116943	1033.086426	23658.589844	19002.875000	79.422714
506.468109	1060.392700	23633.558594	18707.056641	78.175407
506.819305	955.718750	23269.476563	18952.812500	80.654694
507.170410	1030.810913	23540.261719	18652.443359	78.285484
507.521484	1049.015137	23501.578125	18816.281250	79.132462
507.872559	1051.290649	23635.833984	18650.167969	77.924431
508.223480	1053.566162	23506.128906	18784.423828	78.970306
508.574493	1035.361938	24350.347656	18713.882813	75.824715
508.925385	1110.454102	24232.021484	19394.263672	79.076859
509.276245	1126.382813	24641.615234	19733.316406	79.127151
509.627045	1101.352051	25269.658203	20051.888672	78.410698
509.977814	1069.494751	25240.076172	20154.287109	78.958763
510.328613	1051.290649	25167.259766	20466.033203	80.505753
510.679260	1037.637451	25410.740234	20190.695313	78.582764
511.029999	1064.943726	26027.406250	20586.636719	78.204193
511.380585	1110.454102	25783.925781	20550.228516	78.788155
511.731140	1062.668213	26396.041016	20871.076172	78.190964
512.081726	1074.045776	26434.724609	20973.474609	78.465683
512.432129	1089.974487	26805.634766	21046.291016	77.603752
512.782654	1042.188477	26721.441406	21401.273438	79.282234
513.133057	1042.188477	26725.992188	21257.916016	78.710014
513.483398	1030.810913	26682.757813	21269.292969	78.896477
513.833801	1012.606750	26883.001953	21203.302734	78.045563
514.183960	1003.504700	26491.613281	20982.578125	78.385864
514.534302	1092.250000	26061.539063	21164.619141	80.388229
514.884460	1151.413574	26355.082031	20529.748047	76.886963
515.234619	1108.178589	25909.080078	20529.748047	78.309937
515.584717	1124.107300	25827.160156	20629.871094	78.960945
515.934753	1094.525513	25938.662109	20923.414063	79.813148
516.284851	1124.107300	26377.837891	20864.250000	78.167236
516.634766	1130.933838	26582.634766	21239.710938	79.007599
516.984741	1101.352051	27101.453125	21114.556641	76.973564
517.334595	1089.974487	27636.199219	21772.183594	77.910172
517.684448	1101.352051	28589.642578	22855.330078	79.139069
518.034363	1096.801025	29775.189453	23765.539063	79.044670
518.384094	1033.086426	30981.214844	24509.634766	78.390701
518.733826	1064.943726	31898.250000	25233.250000	78.383766
519.083496	992.127075	32942.714844	26120.703125	78.648247
519.433167	1085.423462	33350.031250	26170.765625	77.748787
519.782776	1055.841675	33099.726563	25893.150391	77.510292
520.132324	1069.494751	32849.417969	25633.742188	77.294861
520.481873	1019.433350	32155.384766	25001.146484	77.022583
520.831299	1053.566162	31277.033203	24345.796875	77.066704
521.180786	1030.810913	30674.019531	23847.457031	76.970909
521.530151	1019.433350	29877.587891	23378.701172	77.479897
521.879517	1110.454102	29128.941406	22725.626953	77.146103
522.228882	1085.423462	29019.716797	23016.892578	78.510918
522.578064	1080.872437	29131.216797	22422.982422	76.085022
522.927307	1105.903076	28921.869141	22980.484375	78.640381
523.276489	1087.698975	28976.482422	22987.310547	78.524803
523.625610	1080.872437	29763.812500	23210.312500	77.151924
523.974792	1046.739624	30175.681641	23597.150391	77.415825
524.323792	1055.841675	30758.214844	24004.468750	77.261932
524.672852	1149.138062	31008.521484	24598.378906	78.532234
525.021790	1001.229126	32387.488281	25333.373047	77.524834
525.370728	1037.637451	34075.925781	26696.410156	77.663750
525.719604	1103.627563	35575.492188	27870.578125	77.648689
526.068420	1117.280762	37295.785156	29313.259766	77.935722
526.417297	1010.331238	38852.242188	30498.804688	77.925430
526.765991	1039.912964	40219.832031	31017.625000	76.512955
527.114746	1021.708862	41394.000000	32166.761719	77.144623
527.463379	1051.290649	42413.433594	33643.574219	78.797371
527.812012	1146.862427	45128.128906	35616.453125	78.373344
528.160706	1087.698975	48789.441406	38531.394531	78.495445
528.509155	1126.382813	53490.667969	42672.839844	79.341209
528.857727	1117.280762	57636.667969	47157.894531	81.459862
529.206177	1044.463989	59723.320313	50079.660156	83.565361
529.554565	1044.463989	60041.890625	50964.839844	84.614494
529.902893	1117.280762	58897.304688	49187.656250	83.195496
530.251221	1103.627563	56872.089844	46263.613281	80.977638
530.599548	1069.494751	53677.261719	42299.656250	78.372765
530.947876	1067.219238	50077.386719	39189.019531	77.783455
531.296021	1096.801025	46306.847656	36428.812500	78.150795
531.644165	1078.596802	43284.957031	34091.851563	78.218674
531.992249	1078.596802	41457.714844	32428.447266	77.638771
532.340454	1101.352051	40795.535156	31732.136719	77.166939
532.688354	1094.525513	40647.628906	31479.554688	76.820854
533.036438	1092.250000	41871.859375	32844.867188	77.863953
533.384338	1080.872437	44229.296875	34608.394531	77.702774
533.732239	987.576050	46543.503906	36121.617188	77.122879
534.080139	1026.259888	47260.292969	36997.691406	77.802925
534.427917	1021.708862	46543.503906	36290.003906	77.475624
534.775757	1074.045776	44293.011719	34494.621094	77.328491
535.123474	1096.801025	42265.523438	33359.136719	78.366135
535.471191	1019.433350	39933.113281	31329.371094	77.890182
535.818848	1064.943726	38665.648438	29991.363281	76.930527
536.166382	1049.015137	37241.171875	29219.962891	77.837158
536.513977	1115.005249	37566.574219	29472.544922	77.795113
536.861511	1026.259888	38142.281250	29668.240234	77.168785
537.208984	1042.188477	38155.933594	29647.759766	77.075409
537.556396	1121.831787	37910.175781	29452.066406	77.008728
537.903809	1083.147949	36893.019531	28701.144531	77.123978
538.251160	1060.392700	36135.269531	28416.703125	77.994034
538.598389	1094.525513	34929.246094	26992.228516	76.541801
538.945740	1023.984375	33409.195313	26002.376953	77.129013
539.292969	1021.708862	32917.683594	25408.464844	76.457161
539.640137	1049.015137	32640.070313	25717.935547	78.088310
539.987244	1087.698975	33102.000000	25574.578125	76.487312
540.334351	1108.178589	34069.097656	26366.458984	76.631004
540.681458	1103.627563	35668.789063	28380.294922	78.913765
541.028442	1003.504700	39063.867188	30614.857422	77.801025
541.375366	1103.627563	42406.605469	33395.542969	78.183022
541.722290	1039.912964	46402.421875	36328.691406	77.792824
542.069153	1074.045776	47808.691406	38048.984375	79.116760
542.416016	1069.494751	48611.949219	38085.390625	77.858612
542.762756	1080.872437	47312.628906	36592.648438	76.812515
543.109558	1155.964600	45380.710938	35680.167969	78.065353
543.456299	1039.912964	43394.183594	34123.710938	78.112068
543.802917	1142.311401	41728.500000	32751.570313	77.881813
544.149536	985.300537	39321.000000	31056.308594	78.441269
544.496094	1071.770264	37211.589844	29188.105469	77.798767
544.842651	1021.708862	35589.144531	27759.078125	77.348427
545.189148	1133.209351	34050.894531	26696.410156	77.657959
545.535583	1046.739624	32621.867188	25827.160156	78.480827
545.882019	1092.250000	31777.648438	25306.066406	78.909897
546.228333	1008.055725	31261.105469	24643.890625	78.127113
546.574707	1005.780212	31363.503906	25215.046875	79.746651
546.920898	1080.872437	31147.328125	24944.259766	79.368805
547.267212	1092.250000	31481.830078	25003.421875	78.682137
547.613342	1037.637451	31206.492188	24969.289063	79.325691
547.959473	1055.841675	30660.367188	24693.951172	79.846268
548.305664	996.678101	29986.812500	23672.242188	78.218208
548.651611	1089.974487	28905.941406	22734.728516	77.814133
548.997742	1042.188477	27690.812500	21829.070313	78.003586
549.343689	1049.015137	26250.408203	21048.568359	79.358917
549.689575	1074.045776	25733.865234	20115.603516	77.216942
550.035522	1083.147949	24718.982422	19519.417969	78.001350
550.381287	1108.178589	23776.916016	18936.884766	78.648872
550.727173	1101.352051	23658.589844	18663.822266	77.857361
551.072876	1110.454102	23064.679688	18129.074219	77.518654
551.418640	1092.250000	22859.882813	18010.748047	77.723190
551.764282	1080.872437	22759.759766	17967.511719	77.894402
552.109863	1058.117188	22848.503906	17856.011719	77.088554
552.455505	1119.556274	22823.474609	18192.789063	78.664284
552.801025	1069.494751	23465.169922	18363.453125	77.220078
553.146545	1044.463989	23319.537109	18525.015625	78.475845
553.491943	1019.433350	23993.091797	18677.474609	76.862122
553.837341	1012.606750	23767.814453	18579.626953	77.199997
554.182800	1060.392700	23617.630859	18429.443359	76.999901
554.528015	971.647400	23305.884766	18104.042969	76.709114
554.873352	1049.015137	23101.087891	17787.746094	75.905479
555.218628	1028.535400	22682.390625	17764.990234	77.290878
555.563721	1055.841675	22240.939453	17325.814453	76.799141
555.908875	1042.188477	22040.695313	17080.058594	76.376236
556.254028	1058.117188	21446.783203	16784.242188	77.131699
556.599121	1060.392700	21355.763672	16640.882813	76.768692
556.944031	1053.566162	21205.578125	16349.617188	75.903343
557.289063	1126.382813	20902.933594	16201.708008	76.228287
557.633972	1074.045776	21037.189453	16035.594727	74.945854
557.978882	1060.392700	20727.718750	15867.207031	75.286362
558.323792	1137.760376	20529.748047	16037.871094	76.836426
558.668518	1110.454102	20140.634766	15867.207031	77.543953
559.013306	1087.698975	20479.687500	15874.033203	76.249702
559.358032	1124.107300	19967.695313	15839.900391	78.094429
559.702637	1085.423462	20211.175781	15735.226563	76.597267
560.047363	1008.055725	20322.675781	15967.329102	77.450523
560.391846	1044.463989	20072.369141	15662.410156	76.823730
560.736450	1101.352051	20179.318359	15685.165039	76.443222
561.080933	1089.974487	19878.949219	15933.196289	78.999634
561.425354	1089.974487	20532.023438	15805.767578	75.690544
561.769775	1092.250000	20454.656250	16053.798828	77.271126
562.114136	1026.259888	20689.035156	16240.391602	77.375305
562.458496	1046.739624	20798.259766	15899.063477	75.195854
562.802673	1058.117188	20650.351563	16124.340820	76.898956
563.146912	1094.525513	20354.533203	15757.981445	76.134216
563.491150	1046.739624	20263.513672	15871.757813	77.146240
563.835266	1049.015137	20231.656250	15773.910156	76.761559
564.179443	1080.872437	20290.818359	15701.093750	76.107567
564.523438	1096.801025	20038.236328	15587.317383	76.501678
564.867493	1049.015137	20190.695313	15755.706055	76.830727
565.211426	1067.219238	20664.003906	16069.727539	76.555962
565.555359	1064.943726	20982.578125	16126.616211	75.619789
565.899231	1060.392700	21453.609375	16572.617188	76.065613
566.243042	1128.658325	21751.703125	17107.365234	77.479866
566.586914	1055.841675	22418.431641	17130.121094	75.244995
566.930603	1069.494751	23139.771484	17749.062500	75.574799
567.274292	1105.903076	22932.699219	17960.685547	77.220596
567.617981	1162.791138	22978.208984	17644.388672	75.550224
567.961609	1074.045776	22209.083984	17303.060547	76.787247
568.305237	1060.392700	21926.917969	17146.048828	77.088333
568.648682	1096.801025	21635.652344	17032.273438	77.586967
568.992188	1042.188477	21128.210938	16670.464844	77.806725
569.335632	1103.627563	21289.773438	16700.046875	77.262985
569.679016	1067.219238	21207.853516	16153.921875	74.906792
570.022461	1074.045776	21098.628906	15958.227539	74.329544
570.365662	1103.627563	21114.556641	16593.097656	77.405045
570.708984	1085.423462	20937.066406	16452.015625	77.407158
571.052185	1155.964600	21298.875000	16518.005859	76.265251
571.395386	1042.188477	21376.242188	16670.464844	76.857651
571.738525	1069.494751	22161.296875	16834.302734	74.743767
572.081604	1069.494751	22507.175781	17607.980469	77.146805
572.424683	1092.250000	22880.361328	17526.060547	75.425583
572.767578	1110.454102	23192.107422	17842.359375	75.772888
573.110596	980.749451	22955.453125	17696.724609	76.069168
573.453552	1119.556274	23005.515625	17678.521484	75.660217
573.796387	1060.392700	22577.716797	17355.396484	75.729698
574.139282	1094.525513	22602.748047	17298.509766	75.338554
574.481995	1019.433350	22004.287109	17191.560547	77.065712
574.824768	980.749451	22031.591797	16727.353516	74.802734
575.167480	1017.157776	22243.216797	16968.558594	75.150085
575.510132	1074.045776	21806.316406	16993.589844	76.786301
575.852722	1039.912964	21851.826172	16832.027344	75.880165
576.195251	1039.912964	21751.703125	16606.750000	75.159302
576.537842	1039.912964	21378.517578	16329.137695	75.173416
576.880188	1092.250000	20907.484375	16135.717773	75.918694
577.222717	1049.015137	20268.064453	16072.003906	78.167175
577.565063	1044.463989	20058.716797	15732.951172	77.249886
577.907410	1092.250000	19883.500000	15193.652344	75.042389
578.249756	1085.423462	19228.150391	15016.162109	76.784149
578.591919	1053.566162	19219.048828	14708.966797	75.172241
578.934204	1069.494751	18461.300781	14615.669922	77.888252
579.276306	1119.556274	18540.943359	14506.445313	76.841698
579.618469	1001.229126	17869.664063	13935.289063	76.676109
579.960571	1071.770264	17610.255859	13864.748047	77.352768
580.302551	1053.566162	17432.765625	13550.726563	76.298965
580.644531	1130.933838	17309.886719	13382.337891	75.724335
580.986511	1053.566162	17364.500000	13291.317383	75.027901
581.328369	1035.361938	17171.080078	13184.367188	75.292618
581.670227	1101.352051	17143.773438	13264.010742	75.815598
582.012024	1101.352051	16706.873047	13138.857422	77.136200
582.353821	1115.005249	16665.914063	13300.418945	78.358208
582.695496	1019.433350	16583.996094	13011.427734	77.046776
583.037231	1110.454102	16606.750000	13041.009766	76.989723
583.378845	1076.321289	16540.759766	13054.663086	77.457336
583.720398	989.851563	16306.381836	12922.682617	77.908188
584.062012	1062.668213	16304.106445	12827.110352	77.187218
584.403442	1078.596802	16602.199219	12954.540039	76.502495
584.744934	1019.433350	16310.933594	12724.711914	76.547615
585.086365	1071.770264	16215.361328	12526.742188	75.642372
585.427734	1130.933838	15933.196289	12658.722656	77.878563
585.768982	1115.005249	15933.196289	12567.701172	77.288086
586.110291	1153.689087	15910.441406	12483.506836	76.777176
586.451599	1005.780212	15994.635742	12494.884766	76.650978
586.792725	1117.280762	15908.166016	12590.457031	77.569229
587.133850	1053.566162	15853.553711	12549.497070	77.675270
587.474915	1103.627563	15914.992188	12610.936523	77.692429
587.815979	1099.076538	15967.329102	12886.274414	79.277626
588.157043	1055.841675	16288.177734	12811.181641	77.173584
588.497925	1146.862427	16358.718750	12670.099609	75.751686
588.838867	1078.596802	16156.197266	12802.080078	77.754303
589.179749	1108.178589	16465.667969	12752.018555	75.818642
589.520569	1055.841675	16404.228516	12918.131836	77.286888
589.861450	1112.729614	16820.650391	12802.080078	74.416916
590.202087	1087.698975	16579.445313	12961.366211	76.645119
590.542847	1080.872437	16649.986328	13081.968750	77.082718
590.883484	1053.566162	16936.701172	13264.010742	76.876793
591.224121	1085.423462	16627.230469	13054.663086	77.013176
591.564636	1128.658325	16479.322266	12708.783203	75.437294
591.905151	1067.219238	16206.258789	13020.530273	78.956863
592.245667	1101.352051	16219.912109	12403.864258	74.759178
592.585999	1117.280762	16060.625977	12658.722656	77.234657
592.926453	1008.055725	15978.707031	12494.884766	76.728989
593.266724	1110.454102	16395.126953	12756.569336	76.194733
593.607056	1039.912964	16215.361328	12531.292969	75.723495
593.947388	1092.250000	15965.053711	12626.865234	77.555084
594.287476	998.953613	16310.933594	12626.865234	75.939964
594.627686	1003.504700	16488.423828	12913.580078	76.914032
594.967773	1069.494751	16659.087891	12806.630859	75.288277
595.307861	1010.331238	16734.179688	13000.050781	76.251816
595.647888	1112.729614	16918.498047	13084.244141	75.741425
595.987854	985.300537	17132.396484	13491.562500	77.452080
596.327820	1049.015137	17510.132813	13502.940430	75.656624
596.667725	1051.290649	18051.707031	13760.074219	74.755722
597.007568	1076.321289	18513.636719	14212.903320	75.336029
597.347351	1101.352051	19159.884766	14401.771484	73.651718
597.687073	1099.076538	19494.386719	14761.303711	74.270164
598.026794	1119.556274	19023.353516	14843.222656	76.652267
598.366455	1064.943726	18766.220703	14602.016602	76.475121
598.706116	1099.076538	18117.697266	14108.228516	76.440697
599.045654	1012.606750	17769.541016	13575.756836	74.972847
599.385193	1049.015137	17109.640625	13223.051758	75.800522
599.724731	987.576050	16552.138672	12824.834961	76.052628
600.064087	1067.219238	16185.779297	12422.068359	75.105362
600.403564	1058.117188	15742.052734	12260.505859	76.290100
600.742920	1019.433350	15503.123047	12155.832031	76.889236
601.082153	1023.984375	15664.685547	11844.085938	73.904259
601.421387	964.820801	15118.560547	11693.901367	75.803848
601.760620	1019.433350	15261.917969	12012.474609	77.184853
602.099854	1108.178589	15537.255859	11848.636719	74.436211
602.438843	1083.147949	15377.969727	11714.380859	74.371208
602.778015	1062.668213	15705.644531	12057.984375	75.089355
603.117065	1014.882263	16342.790039	12547.221680	75.237534
603.456055	1051.290649	16586.271484	12695.130859	74.952393
603.794983	1087.698975	17064.130859	12977.294922	74.419594
604.133850	1055.841675	17767.265625	13646.297852	75.340416
604.472778	1076.321289	18063.083984	13896.605469	75.472206
604.811584	1092.250000	18832.210938	14374.464844	74.871727
605.150330	1037.637451	19125.751953	14545.128906	74.676056
605.489075	1023.984375	19621.816406	15029.814453	75.308937
605.827698	1126.382813	19665.050781	14704.415039	73.241684
606.166382	1053.566162	18898.201172	14367.638672	74.611069
606.504883	1080.872437	18415.789063	14044.514648	74.783417
606.843445	1076.321289	17844.634766	13477.910156	73.958481
607.181946	971.647400	17259.826172	13370.959961	76.124611
607.520386	1019.433350	16524.832031	12774.773438	75.814499
607.858826	1008.055725	16258.595703	12447.098633	75.007462
608.197083	1053.566162	16203.983398	12301.465820	74.241516
608.535461	1071.770264	15494.021484	11930.555664	75.291885
608.873718	1046.739624	16017.390625	12253.679688	74.859406
609.211914	1071.770264	16108.412109	12513.088867	76.089584
609.550171	1078.596802	16954.906250	12806.630859	73.871284
609.888245	1094.525513	17064.130859	12924.958008	74.080933
610.226318	1103.627563	17516.958984	13496.114258	75.502563
610.564392	1030.810913	17237.070313	13682.707031	78.067963
610.902344	1078.596802	17130.121094	13600.788086	78.012474
611.240295	1121.831787	17182.457031	13630.369141	77.883255
611.578247	1103.627563	16754.660156	13653.125000	80.183189
611.916138	1135.484863	16320.035156	13516.593750	81.537544
612.253845	1049.015137	15530.429688	12949.989258	82.181023
612.591675	1103.627563	15441.684570	12588.180664	80.098389
612.929382	1037.637451	15009.334961	12287.812500	80.521172
613.267090	1001.229126	14262.964844	11976.066406	82.755661
613.604736	1133.209351	14442.730469	11596.053711	78.611725
613.942261	1042.188477	14265.240234	11459.522461	78.781616
614.279785	946.616638	14226.555664	11448.145508	79.078140
614.617310	978.473938	14064.994141	11143.225586	77.673447
614.954712	1008.055725	13730.492188	11002.143555	78.554825
615.292175	1044.463989	14003.554688	10690.396484	74.433716
615.629517	1126.382813	13571.206055	10908.846680	78.606689
615.966797	1089.974487	13543.899414	10867.887695	78.512703
616.304138	1076.321289	13409.644531	10642.610352	77.564568
616.641296	1064.943726	13719.115234	10663.090820	75.849670
616.978516	1033.086426	13325.450195	10458.293945	76.675308
617.315552	1085.423462	13637.196289	10535.661133	75.290062
617.652771	1121.831787	13418.746094	10430.987305	75.703186
617.989685	1017.157776	13628.093750	10635.784180	76.272102
618.326721	1108.178589	13477.910156	10995.316406	79.930092
618.663696	1092.250000	13568.930664	10681.294922	76.855736
619.000549	1121.831787	13816.961914	10601.651367	74.672882
619.337463	1074.045776	13587.134766	10733.631836	77.195854
619.674194	1076.321289	13578.032227	10419.609375	74.736076
620.010986	1087.698975	13457.429688	10665.366211	77.428261
620.347778	1076.321289	13430.124023	10387.752930	75.373001
620.684387	1101.352051	13434.674805	10387.752930	75.295204
621.020996	1030.810913	13248.082031	10153.374023	74.669403
621.357605	1078.596802	13150.234375	10155.649414	75.193214
621.694214	1058.117188	13145.683594	10185.231445	75.508286
622.030579	1080.872437	13015.978516	10141.996094	75.919930
622.367065	1012.606750	13086.520508	10251.221680	76.517151
622.703430	1067.219238	13047.835938	9903.066406	73.751190
623.039795	1026.259888	12902.203125	10023.668945	75.761635
623.376160	1030.810913	12890.825195	10135.169922	76.765160
623.712402	1178.719727	12827.110352	9966.781250	75.444427
624.048645	1099.076538	12799.804688	9889.413086	75.126404
624.384766	1105.903076	12813.458008	10014.567383	76.093292
624.720886	1042.188477	12918.131836	10016.842773	75.570030
625.057007	1067.219238	12918.131836	10103.312500	76.248085
625.392944	1078.596802	13152.509766	10148.823242	75.122513
625.729004	1083.147949	13116.101563	9891.688477	73.203484
626.064941	1019.433350	13461.981445	10091.934570	72.915138
626.400818	1083.147949	13284.490234	10369.547852	76.109665
626.736633	1099.076538	13919.360352	10556.140625	73.766418
627.072449	1092.250000	13935.289063	10817.826172	75.726440
627.408264	1028.535400	13951.217773	10665.366211	74.572990
627.743896	998.953613	14426.801758	10751.835938	72.631767
628.079590	1021.708862	14181.045898	10783.693359	74.182953
628.415161	1051.290649	14404.046875	10790.519531	72.937965
628.750793	1037.637451	14014.932617	10679.019531	74.294235
629.086365	1105.903076	13707.737305	10314.935547	73.076920
629.421753	1064.943726	13336.827148	10155.649414	74.077515
629.757263	1060.392700	13154.786133	10182.956055	75.428032
630.092651	1008.055725	13097.897461	10041.873047	74.722382
630.427917	1128.658325	12849.866211	9934.923828	75.131042
630.763184	1096.801025	12681.477539	9805.218750	75.171867
631.098511	1128.658325	12681.477539	9623.177734	73.527679
631.433716	1094.525513	12244.577148	9655.035156	76.775513
631.768799	1055.841675	12242.301758	9541.258789	75.854355
632.103943	1133.209351	12019.300781	9507.125977	76.923080
632.438965	1158.240112	12139.903320	9368.319336	74.761711
632.773987	1049.015137	11939.657227	9259.093750	75.386536
633.109070	1030.810913	11873.667969	9309.155273	76.348366
633.443848	1087.698975	11759.891602	9026.991211	74.392326
633.778870	1035.361938	11648.390625	9161.247070	76.565193
634.113708	1046.739624	11991.994141	9133.940430	73.887733
634.448425	951.167725	12080.740234	9070.225586	72.950310
634.783264	985.300537	12060.259766	9370.594727	75.713997
635.117859	1058.117188	11896.422852	9074.777344	73.965988
635.452576	980.749451	12012.474609	9129.389648	73.865509
635.787170	1053.566162	11627.911133	8913.214844	74.327522
636.121704	1085.423462	11705.279297	8924.592773	73.816162
636.456177	1130.933838	11404.910156	8678.835938	73.466225
636.790588	1117.280762	11391.256836	8672.009766	73.532669
637.125122	1080.872437	11275.206055	8528.652344	73.058029
637.459412	1019.433350	11036.276367	8624.223633	75.920029
637.793762	1135.484863	10883.816406	8437.630859	74.906616
638.128052	1067.219238	10963.458984	8540.029297	75.511604
638.462280	1028.535400	10842.856445	8519.549805	76.327385
638.796509	1026.259888	10656.263672	8282.895508	75.354439
639.130615	1067.219238	10603.926758	8105.405273	73.801010
639.464722	1060.392700	10496.977539	8066.721191	74.246445
639.798767	1094.525513	10628.958008	8112.231445	73.603813
640.132751	1071.770264	10590.273438	7850.546875	71.216835
640.466736	1001.229126	10565.243164	7964.322754	72.805145
640.800598	1037.637451	10458.293945	7845.995605	72.270531
641.134521	1076.321289	10214.812500	7807.312012	73.655380
641.468262	1067.219238	10449.191406	7686.709473	70.555420
641.802063	1046.739624	10030.496094	7889.230469	76.165138
642.135803	1099.076538	9953.127930	7575.208984	73.143150
642.469421	1046.739624	9830.250000	7591.137207	74.507767
642.803101	1033.086426	10121.516602	7597.963867	72.233353
643.136658	1083.147949	9918.995117	7627.545898	74.066444
643.470215	1087.698975	9705.096680	7497.840820	74.386047
643.803711	1042.188477	9652.758789	7461.432617	74.550743
644.137085	1067.219238	9889.413086	7625.270020	74.335831
644.470581	1053.566162	9800.667969	7438.677734	72.996880
644.803833	1087.698975	9463.890625	7604.790527	77.804955
645.137207	1092.250000	9816.596680	7388.616211	72.170059
645.470459	1094.525513	9614.075195	7334.003418	73.237183
645.803589	1074.045776	9593.595703	7406.820313	74.332268
646.136780	1128.658325	9834.800781	7561.555664	73.889183
646.469849	1083.147949	9579.942383	7384.064941	74.156395
646.802979	1110.454102	9757.433594	7388.616211	72.605263
647.135986	1089.974487	9868.933594	7525.147461	73.302231
647.468994	1105.903076	9914.444336	7811.862793	76.130203
647.801941	1055.841675	9793.841797	7591.137207	74.791664
648.134766	1105.903076	9873.484375	7620.719238	74.305748
648.467651	1026.259888	9930.373047	7563.831055	73.421921
648.800354	1058.117188	9953.127930	7393.166992	71.220261
649.133179	1058.117188	9841.627930	7479.636719	73.108803
649.465881	1021.708862	9750.606445	7604.790527	75.417099
649.798462	1124.107300	9616.350586	7563.831055	75.830658
650.131104	1049.015137	9666.412109	7354.483398	73.171387
650.463623	1071.770264	9641.381836	7495.565430	74.960167
650.796143	1064.943726	9689.167969	7381.789551	73.245377
651.128662	1042.188477	9641.381836	7434.126465	74.331833
651.461060	1055.841675	9680.065430	7443.228516	74.063324
651.793396	1035.361938	9766.535156	7475.085938	73.755547
652.125732	1046.739624	9693.718750	7379.514160	73.236839
652.458008	1019.433350	9698.269531	7504.667480	74.724701
652.790222	1074.045776	9796.117188	7607.065918	74.902161
653.122437	1080.872437	9680.065430	7329.452637	72.664726
653.454529	1062.668213	9627.728516	7308.972656	72.927734
653.786621	1010.331238	9707.372070	7213.400879	71.323914
654.118713	1069.494751	9516.227539	7329.452637	74.111000
654.450623	1062.668213	9504.850586	7192.921387	72.614548
654.782654	1062.668213	9536.708008	7263.462402	73.173996
655.114502	1071.770264	9472.993164	6988.124512	70.422539
655.446350	1130.933838	9309.155273	7111.002441	73.121864
655.778198	1062.668213	9350.115234	7076.869629	72.570007
656.109863	1094.525513	9106.633789	7006.328613	73.785858
656.441650	1021.708862	9158.971680	7202.023438	75.950783
656.773254	1021.708862	9067.950195	6958.542480	73.783936
657.104919	1110.454102	9172.624023	7147.410645	74.880043
657.436462	1101.352051	9252.267578	6965.369141	71.943047
657.767944	1012.606750	9238.614258	7074.594238	73.692947
658.099548	1096.801025	9443.411133	7254.360352	73.773178
658.430908	1067.219238	9798.392578	7379.514160	72.296066
658.762268	1030.810913	9793.841797	7495.565430	73.773041
659.093628	1064.943726	10062.352539	7527.422852	71.825996
659.424927	1094.525513	10335.415039	7864.199707	73.257820
659.756226	1049.015137	10726.804688	8098.578613	72.842705
660.087341	992.127075	10995.316406	8335.232422	73.407639
660.418518	1105.903076	11077.235352	8430.804688	73.459610
660.749573	1144.586914	10704.049805	8223.732422	74.053802
661.080627	1124.107300	10810.999023	8109.956055	72.116516
661.411621	1067.219238	10681.294922	7966.598145	71.763306
661.742554	1124.107300	10344.517578	7855.097656	73.000984
662.073547	1135.484863	10021.393555	7538.800293	72.061462
662.404297	1096.801025	10028.219727	7520.596191	71.923569
662.735229	1080.872437	9645.932617	7550.178223	75.531349
663.065979	1055.841675	9577.666992	7272.564453	72.950600
663.396667	1028.535400	9281.849609	7079.145020	73.311264
663.727417	1099.076538	9067.950195	6826.562500	71.873215
664.057922	1071.770264	9052.021484	6792.429688	71.685204
664.388611	1071.770264	8869.980469	6719.612793	72.424858
664.719116	1078.596802	8922.317383	6560.326660	69.886856
665.049622	1062.668213	8535.478516	6528.469238	73.142502
665.380005	1076.321289	8576.437500	6758.296875	75.758499
665.710388	1049.015137	8644.703125	6526.193848	72.109055
666.040771	1053.566162	8626.499023	6469.305664	71.514427
666.371033	1042.188477	8569.611328	6535.295898	72.974609
666.701294	1046.739624	8360.263672	6469.305664	74.144363
667.031555	1017.157776	8462.662109	6407.866699	72.402199
667.361633	1108.178589	8587.815430	6510.265137	72.223915
667.691772	1099.076538	8464.937500	6428.346191	72.350937
668.021790	1067.219238	8453.559570	6482.958984	73.321014
668.351807	1003.504700	8494.519531	6407.866699	72.144592
668.681763	1037.637451	8360.263672	6371.458008	72.840263
669.011719	1083.147949	8371.640625	6619.490234	75.960045
669.341614	1028.535400	8451.284180	6564.877441	74.586136
669.671387	1044.463989	8567.335938	6608.112305	73.956444
670.001221	1055.841675	8535.478516	6533.020020	73.227867
670.330933	1039.912964	8317.028320	6580.806152	76.141342
670.660583	983.024963	8357.988281	6407.866699	73.557541
670.990173	1023.984375	8235.109375	6617.214355	77.563904
671.319763	1026.259888	8435.355469	6416.968750	72.757988
671.649292	1085.423462	8180.497070	6573.979492	77.357285
671.978821	1064.943726	8244.211914	6335.049805	73.407288
672.308289	1080.872437	8230.558594	6241.753418	72.183319
672.637695	1037.637451	8273.793945	6116.600098	70.188683
672.966980	1064.943726	8096.303223	6250.855469	73.754044
673.296326	1062.668213	8146.364258	6284.988281	73.723099
673.625610	1092.250000	7943.843262	6189.416504	74.393883
673.954773	1137.760376	8098.578613	6150.732910	72.016998
674.283936	1060.392700	7946.118652	6030.129883	72.174484
674.613037	1089.974487	7948.394043	6032.405762	72.063705
674.942078	1067.219238	7798.209961	6025.579102	73.664635
675.271118	1044.463989	7882.404297	6080.191406	73.643921
675.600098	1124.107300	7682.158203	5823.057617	71.651627
675.928955	1046.739624	7884.679688	5998.272949	72.412643
676.257813	1087.698975	7600.239258	5955.038086	74.737946
676.586670	1119.556274	7864.199707	6125.702148	74.224030
676.915466	1142.311401	7709.464355	5829.884277	71.379074
677.244141	1110.454102	7793.658691	5968.690918	72.693222
677.572876	1067.219238	7686.709473	5802.578125	71.536606
677.901489	1030.810913	7743.597168	5968.690918	73.559319
678.230042	1071.770264	7770.903320	6091.569336	74.932068
678.558594	1117.280762	7759.525879	5930.007324	72.456322
678.887085	1049.015137	7850.546875	5968.690918	72.331879
679.215515	1035.361938	7841.444824	5900.425293	71.481110
679.543945	1003.504700	8039.415039	5991.446289	70.892624
679.872253	1083.147949	8189.599121	6168.937012	71.565804
680.200562	1101.352051	8362.539063	6250.855469	70.918205
680.528809	1076.321289	8114.507324	6250.855469	73.520851
680.856995	1058.117188	8619.672852	6553.500000	72.675293
681.185120	1103.627563	8521.825195	6348.703125	70.705528
681.513306	1055.841675	8569.611328	6537.571289	72.955788
681.841309	1087.698975	8565.060547	6587.632813	73.554474
682.169373	1108.178589	8403.498047	6403.315430	72.582657
682.497314	1074.045776	8207.803711	6528.469238	76.459328
682.825134	1051.290649	8196.425781	6378.284668	74.554138
683.153076	983.024963	8339.784180	6453.376953	74.358177
683.480896	1080.872437	8178.221680	6273.610840	73.164474
683.808655	1049.015137	8187.323730	6105.222168	70.832001
684.136414	1044.463989	8082.649902	6164.385742	72.744904
684.464050	1135.484863	7786.832031	5945.936035	72.322960
684.791626	1112.729614	7780.005859	5768.445313	69.829353
685.119263	1085.423462	7543.351563	5984.619629	75.863281
685.446838	1083.147949	7468.259277	5716.108398	72.558807
685.774292	1039.912964	7431.851074	5725.210449	73.300110
686.101685	1003.504700	7527.422852	5700.179688	71.991631
686.429077	1078.596802	7502.392090	5629.638672	70.846619
686.756348	1069.494751	7293.043945	5625.087402	73.199272
687.083679	1033.086426	7233.880859	5506.760254	72.146782
687.410950	1080.872437	7497.840820	5572.750488	70.000000
687.738159	1151.413574	7327.176758	5734.312500	74.207817
688.065308	1126.382813	7570.657715	5711.557129	71.151131
688.392395	1115.005249	7527.422852	5711.557129	71.682045
688.719421	1089.974487	7531.973633	5798.026855	73.083717
689.046448	1085.423462	7459.157227	5656.944824	71.724388
689.373413	1060.392700	7475.085938	5754.791992	73.181976
689.700317	1055.841675	7324.901367	5584.127930	72.232300
690.027100	1003.504700	7302.146484	5545.444336	72.109825
690.353943	1064.943726	7172.441406	5524.964355	73.025337
690.680725	1008.055725	7006.328613	5299.687988	71.547798
691.007446	1051.290649	6979.022461	5358.851563	72.667946
691.334106	1026.259888	6812.909180	5283.759277	73.574516
691.660645	1149.138062	6662.725098	5074.411621	71.192734
691.987244	1001.229126	6662.725098	5254.177734	75.120583
692.313721	1044.463989	6551.224609	5058.482910	72.892563
692.640259	1096.801025	6694.582031	5081.237793	71.178856
692.966675	1137.760376	6658.173828	4924.227051	68.590271
693.293030	1089.974487	6535.295898	5076.687012	73.213539
693.619324	1037.637451	6548.948730	4953.808594	71.056976
693.945618	1099.076538	6405.590820	4981.115234	73.156097
694.271851	1046.739624	6419.244141	4915.125000	72.003387
694.598083	1117.280762	6382.835938	4944.706543	72.687981
694.924194	1051.290649	6341.876465	4760.389648	70.107529
695.250244	1051.290649	6280.437500	4801.349121	71.714539
695.576294	1001.229126	6289.539551	4753.562988	70.955254
695.902283	1060.392700	6216.722656	4851.410156	73.521622
696.228210	1039.912964	6376.009277	4855.961426	71.513863
696.554138	1058.117188	6339.601074	4931.053711	73.330460
696.879944	1101.352051	6360.080566	4951.533203	73.215057
697.205750	1128.658325	6451.101563	4928.777832	71.398026
697.531433	1033.086426	6517.091797	4912.849609	70.746887
697.857178	1080.872437	6710.510742	5067.584961	70.816498
698.182739	1115.005249	6771.949707	5320.167480	74.336281
698.508423	1078.596802	7233.880859	5461.250000	71.201477
698.833984	1030.810913	7274.839844	5697.904297	74.744904
699.159485	1099.076538	7616.167969	5900.425293	73.673180
699.484924	1087.698975	8057.619141	6141.630859	72.510612
699.810303	1046.739624	8064.445801	6114.324219	72.211411
700.135681	1046.739624	8062.170410	6066.538574	71.553680
700.460999	1051.290649	8028.037598	6016.477051	71.167641
700.786255	1037.637451	7682.158203	5886.772461	72.979454
701.111450	1105.903076	7645.750000	5620.536621	69.032715
701.436646	1067.219238	7363.585449	5586.403809	71.774490
701.761719	1085.423462	7067.767578	5308.790039	70.597183
702.086792	1108.178589	6676.377930	5281.483887	74.948921
702.411865	1105.903076	6735.541504	5172.258789	72.231201
702.736816	1026.259888	6371.458008	4956.084473	73.520653
703.061646	1171.893188	6196.243164	4803.624512	72.282608
703.386536	1037.637451	6118.875488	4585.174316	69.816383
703.711365	1019.433350	5916.354004	4626.133789	73.652412
704.036194	1074.045776	6023.303711	4594.276367	71.126434
704.360901	1124.107300	5818.506836	4555.592773	73.097427
704.685547	1058.117188	5752.516602	4341.693848	69.946686
705.010132	1035.361938	5725.210449	4339.417969	70.451233
705.334717	1035.361938	5520.413574	4334.867188	73.566719
705.659302	1119.556274	5586.403809	4339.417969	72.083534
705.983765	1099.076538	5615.985352	4473.673828	74.710327
706.308228	1033.086426	5638.740723	4248.397461	69.812256
706.632568	1019.433350	5411.188477	4321.213867	75.181351
706.956909	1060.392700	5436.219238	4337.142578	74.882996
707.281189	1071.770264	5486.280762	4200.611328	70.876282
707.605408	1051.290649	5565.923828	4316.663086	72.328636
707.929626	1162.791138	5600.056641	4348.520020	71.794868
708.253784	1064.943726	5524.964355	4316.663086	72.908165
708.577820	1058.117188	5625.087402	4375.826660	72.645744
708.901855	1055.841675	5470.352051	4230.193359	71.907219
709.225830	1037.637451	5586.403809	4446.367676	74.937462
709.549805	1099.076538	5575.025879	4419.061523	74.173874
709.873718	1071.770264	5429.392578	4441.816406	77.336815
710.197510	1055.841675	5770.720703	4416.785645	71.283775
710.521362	1051.290649	5595.505859	4387.204102	73.410110
710.845093	1064.943726	5679.699707	4391.755371	72.090736
711.168701	998.953613	5775.271973	4526.010742	73.844681
711.492432	1074.045776	5914.078613	4528.286621	71.368126
711.816040	1083.147949	6116.600098	4423.612305	66.365273
712.139587	1069.494751	6023.303711	4660.266602	72.485069
712.463074	1019.433350	6073.365234	4739.909668	73.615486
712.786499	1087.698975	6061.987305	4630.685059	71.225990
713.109924	1076.321289	5898.149902	4657.991211	74.280327
713.433350	1019.433350	5943.660156	4566.970215	72.042519
713.756592	1135.484863	5811.680176	4594.276367	73.965935
714.079834	996.678101	5836.710938	4496.429199	72.308418
714.403015	1033.086426	5704.730469	4328.040527	70.530930
714.726196	1162.791138	5695.628418	4296.183105	69.126503
715.049255	1119.556274	5636.464844	4403.132813	72.695221
715.372375	1074.045776	5593.229980	4421.336914	74.068481
715.695435	1115.005249	5577.301270	4232.468750	69.862320
716.018311	1096.801025	5643.291504	4405.408203	72.772774
716.341248	1053.566162	5634.189453	4293.907715	70.740189
716.664063	1099.076538	5556.821777	4414.510254	74.374680
716.987000	1035.361938	5600.056641	4339.417969	72.382851
717.309692	1028.535400	5458.974609	4221.091309	72.059578
717.632385	1012.606750	5631.914063	4282.530273	70.788185
717.955078	1121.831787	5411.188477	4159.651855	70.822281
718.277649	1092.250000	5379.331055	4125.519043	70.753716
718.600220	1103.627563	5192.738281	4066.355713	72.454086
718.922791	1012.606750	5210.942871	3961.681641	70.243904
719.245300	1046.739624	5001.594727	3813.772949	69.965477
719.567688	1039.912964	5081.237793	3800.119629	68.299545
719.890015	1035.361938	4833.206055	3736.405273	71.120438
720.212341	1044.463989	4853.686035	3788.742188	72.043007
720.534607	1092.250000	4735.358887	3829.701416	75.140533
720.856873	1001.229126	4842.308105	3670.415039	69.490524
721.179016	1051.290649	4783.144531	3679.517090	70.426834
721.501160	1062.668213	4703.501465	3508.853027	67.187500
721.823242	1105.903076	4626.133789	3604.425049	70.976089
722.145264	1044.463989	4592.000977	3470.169189	68.377159
722.467224	1112.729614	4523.735352	3574.843262	72.181458
722.789185	1112.729614	4546.490723	3490.648926	69.251160
723.111023	1096.801025	4489.602539	3476.995850	70.154259
723.432861	1067.219238	4635.235840	3483.822266	67.729591
723.754578	1028.535400	4439.541016	3488.373291	72.114738
724.076294	1117.280762	4432.714355	3588.496338	74.536720
724.397949	1071.770264	4460.020996	3495.199951	71.524506
724.719666	1055.841675	4478.225098	3479.271240	70.811172
725.041260	1051.290649	4380.377441	3508.853027	73.820915
725.362732	1042.188477	4421.336914	3474.720215	71.986534
725.684265	1033.086426	4566.970215	3581.669678	72.118477
726.005676	1035.361938	4437.265625	3472.444824	71.638802
726.327087	1058.117188	4596.552246	3488.373291	68.681664
726.648438	1037.637451	4512.357910	3524.781738	71.578255
726.969666	994.402588	4471.398438	3563.465576	73.887436
727.290894	1099.076538	4416.785645	3492.924316	72.153633
727.612061	1110.454102	4557.868164	3588.496338	71.881187
727.933228	1112.729614	4648.889160	3561.189941	69.240662
728.254395	1089.974487	4562.419434	3656.761963	73.918747
728.575378	1030.810913	4860.512207	3791.017578	72.073677
728.896301	1108.178589	4837.757324	3813.772949	72.544235
729.217285	1087.698975	4803.624512	3838.803711	74.035515
729.538147	1101.352051	4819.553223	3654.486328	68.665848
729.858948	1064.943726	4926.502441	3608.976074	65.880966
730.179810	1037.637451	4906.022949	3599.874023	66.235298
730.500549	1074.045776	4721.705566	3629.455566	70.056145
730.821228	1058.117188	4721.705566	3599.874023	69.378883
731.141846	1108.178589	4687.572754	3727.302979	73.172287
731.462402	1096.801025	4764.940430	3634.006836	69.168739
731.782898	1062.668213	4824.104004	3631.731201	68.300064
732.103455	1094.525513	4926.502441	3857.007813	72.090263
732.423889	1085.423462	4871.890137	3765.986816	70.793266
732.744263	1064.943726	4896.920898	3818.323975	71.852737
733.064636	1076.321289	4919.675781	3781.915527	70.396690
733.384888	1021.708862	4842.308105	3699.996826	70.101257
733.705200	1080.872437	4803.624512	3847.905762	74.327629
734.025330	992.127075	4874.165527	3695.445801	69.636581
734.345520	1083.147949	4719.430176	3720.476563	72.528160
734.665527	1069.494751	4817.277344	3784.191162	72.434731
734.985596	1069.494751	4601.103027	3636.282227	72.680412
735.305542	1071.770264	4592.000977	3588.496338	71.493217
735.625549	1146.862427	4596.552246	3581.669678	70.580460
735.945435	1108.178589	4416.785645	3517.955078	72.833565
736.265259	1014.882263	4428.163574	3461.067139	71.666664
736.585083	1064.943726	4487.327148	3470.169189	70.279259
736.904785	1119.556274	4373.550781	3306.331787	67.202797
737.224426	1096.801025	4369.000000	3458.791504	72.183586
737.544128	1128.658325	4400.857422	3417.832275	69.958267
737.863708	1076.321289	4257.499512	3292.678711	69.670959
738.183289	1051.290649	4462.296387	3356.393066	67.578384
738.502808	1062.668213	4462.296387	3347.291016	67.202141
738.822205	1021.708862	4419.061523	3395.077148	69.859344
739.141541	1062.668213	4384.928711	3438.312012	71.506851
739.460938	1033.086426	4621.582520	3522.506104	69.372231
739.780212	1089.974487	4548.766113	3622.629150	73.223694
740.099426	1115.005249	4578.347656	3581.669678	71.222084
740.418640	1069.494751	4562.419434	3565.741211	71.465797
740.737793	989.851563	4494.153809	3479.271240	71.038956
741.056885	1021.708862	4380.377441	3438.312012	71.951225
741.375977	1035.361938	4444.092285	3383.699463	68.891846
741.694946	1030.810913	4330.315918	3399.628174	71.793114
742.013855	1115.005249	4357.622559	3367.770752	69.473686
742.332703	1087.698975	4259.774902	3385.974854	72.453369
742.651550	1023.984375	4200.611328	3388.250488	74.426933
742.970398	1049.015137	4123.243652	3197.106689	69.874168
743.289124	1085.423462	4291.632324	3335.913574	70.191628
743.607788	1067.219238	4268.876953	3233.515137	67.661697
743.926453	1062.668213	4173.305176	3222.137451	69.422089
744.245056	1051.290649	4018.569824	3135.667725	70.245392
744.563599	1021.708862	3963.957275	3194.831299	73.859245
744.882141	1074.045776	3959.406250	3128.841064	71.214516
745.200500	1028.535400	3954.855225	3042.371338	68.818039
745.518860	1083.147949	4027.671875	3128.841064	69.474495
745.837219	1115.005249	3897.967041	3065.126465	70.073586
746.155518	1133.209351	4009.467773	3108.361328	68.670883
746.473755	1058.117188	3850.181152	3044.646729	71.149139
746.791992	1005.780212	3929.824463	3101.534912	71.673149
747.110107	1019.433350	3913.895752	3046.922363	70.047173
747.428162	1078.596802	3979.885986	3033.269287	67.372551
747.746216	1039.912964	3761.435791	3085.606201	75.167221
748.064148	1126.382813	3825.150391	2974.105713	68.465431
748.382080	1076.321289	3816.048340	3074.228516	72.923584
748.700073	1028.535400	3902.518066	3033.269287	69.754555
749.017822	1151.413574	3975.334961	3053.749023	67.365028
749.335632	1069.494751	4004.916504	3081.055176	68.527130
749.653320	1055.841675	4009.467773	3106.085938	69.414482
749.971008	1083.147949	3943.477539	3056.024414	68.973747
750.288696	1064.943726	4032.222900	3046.922363	66.794472
750.606262	1010.331238	3859.283203	2992.309814	69.568687
750.923828	1033.086426	3938.926514	3083.330566	70.555984
751.241272	1064.943726	3925.273438	3112.912354	71.599045
751.558716	1037.637451	3902.518066	3078.779541	71.247025
751.876038	1053.566162	3750.058350	2962.728027	70.801682
752.193481	1087.698975	3813.772949	3051.473389	72.036728
752.510681	1112.729614	3854.732178	3033.269287	70.041504
752.827942	1060.392700	3779.640137	3081.055176	74.309616
753.145081	1039.912964	3813.772949	3017.340576	71.287941
753.462219	1046.739624	3763.711426	2962.728027	70.519264
753.779297	1042.188477	3877.487549	2969.554688	67.977531
754.096375	1078.596802	3904.793701	3081.055176	70.853470
754.413330	1046.739624	3822.875000	2974.105713	69.426231
754.730286	1108.178589	3684.068115	3015.064941	74.028259
755.047119	1010.331238	3791.017578	2833.023438	65.548286
755.363892	1058.117188	3768.262451	3019.616211	72.376160
755.680725	989.851563	3791.017578	2885.360352	67.668564
755.997498	1135.484863	3704.547852	2851.227539	66.784767
756.314148	1112.729614	3734.129639	2926.319824	69.184036
756.630737	1026.259888	3690.894775	2785.237549	66.011963
756.947327	1062.668213	3595.322754	2885.360352	71.967659
757.263855	1074.045776	3727.302979	2901.289063	68.867928
757.580261	1089.974487	3565.741211	2794.339600	68.841911
757.896729	1101.352051	3674.966064	2889.911377	69.496017
758.213074	1017.157776	3661.312988	2901.289063	71.256454
758.529419	1069.494751	3702.272461	2826.196777	66.724281
758.845642	1069.494751	3784.191162	2985.483398	70.578377
759.161865	1051.290649	3850.181152	2996.860840	69.512192
759.478149	1126.382813	3922.997803	2974.105713	66.069977
759.794189	1083.147949	3795.568604	2974.105713	69.714767
760.110229	1069.494751	3793.293213	3067.402100	73.350044
760.426270	1094.525513	3838.803711	3028.718262	70.480927
760.742249	1078.596802	3788.742188	2960.452637	69.437447
761.058105	1042.188477	3763.711426	2990.034424	71.571907
761.374023	1096.801025	3834.252441	3030.993652	70.656693
761.689819	1019.433350	3791.017578	2953.625977	69.786537
762.005554	1094.525513	3861.558838	3060.575439	71.052635
762.321289	1003.504700	3822.875000	3133.392090	75.544792
762.636902	1155.964600	3913.895752	3042.371338	68.399338
762.952515	1117.280762	3973.059326	3035.544678	67.171310
763.268127	1101.352051	3963.957275	3158.422852	71.860092
763.583618	1087.698975	4057.253662	3217.586426	71.724136
763.899048	1044.463989	4655.715332	3504.302002	68.115944
764.214478	937.514587	5035.727539	3893.416016	72.126595
764.529785	1030.810913	5395.259766	4175.580566	72.054222
764.845093	1071.770264	5493.107422	4218.815430	71.178589
765.160400	1064.943726	5463.525391	4284.805664	73.202278
765.475586	1110.454102	5367.953613	4127.794922	70.871193
765.790771	1092.250000	5167.707520	3820.599365	66.945839
766.105835	1087.698975	4969.737305	3820.599365	70.398590
766.420837	1099.076538	4692.124023	3745.507324	73.654213
766.735840	1078.596802	4642.062500	3497.475586	67.879951
767.050842	1046.739624	4359.897949	3365.495361	69.986267
767.365662	989.851563	4339.417969	3208.484375	66.236420
767.680542	1085.423462	4066.355713	3115.187988	68.091606
767.995300	1124.107300	4086.835449	3119.739014	67.357910
768.309998	1135.484863	4000.365479	3067.402100	67.434479
768.624817	1083.147949	3922.997803	2924.044189	64.823715
768.939392	1046.739624	3784.191162	2885.360352	67.165413
769.254028	1112.729614	3795.568604	2946.799316	68.363022
769.568481	1062.668213	3795.568604	2930.870850	68.359703
769.882935	1023.984375	3659.037354	2987.758789	74.525047
770.197388	1064.943726	3779.640137	2869.431641	66.471077
770.511841	1058.117188	3517.955078	2894.462402	74.653099
770.826172	1053.566162	3618.078125	2828.472412	69.210297
771.140442	1067.219238	3383.699463	2801.166016	74.852646
771.454651	1101.352051	3545.261475	2801.166016	69.553070
771.768860	1167.342163	3360.944336	2844.401123	76.452286
772.082886	1039.912964	3354.117676	2737.451416	73.352997
772.397034	1087.698975	3529.332764	2650.981689	64.026093
772.711060	1119.556274	3372.321777	2723.798340	71.212112
773.025024	1042.188477	3306.331787	2616.848877	69.547737
773.338928	1055.841675	3390.525879	2612.297852	66.666672
773.652771	1103.627563	3449.689453	2730.625000	69.350143
773.966614	1092.250000	3240.341553	2657.808350	72.881363
774.280457	1008.055725	3374.597412	2544.032227	64.903847
774.594116	1035.361938	3283.576416	2621.399902	70.546562
774.907776	1053.566162	3306.331787	2553.134277	66.565651
775.221375	1085.423462	3222.137451	2557.685303	68.903091
775.534912	1039.912964	3281.301025	2548.583252	67.309639
775.848450	1101.352051	3281.301025	2487.144287	63.569939
776.161926	1089.974487	3244.892578	2466.664551	63.885960
776.475342	1023.984375	3092.432861	2539.481201	73.267326
776.788696	1115.005249	3137.943115	2514.450439	69.178848
777.101990	1055.841675	3169.800537	2478.042236	67.276642
777.415283	1076.321289	3235.790527	2623.675537	71.654381
777.728516	1103.627563	2987.758789	2496.246338	73.913048
778.041626	1126.382813	3078.779541	2414.327637	65.967369
778.354736	1010.331238	3078.779541	2509.899414	72.497253
778.667725	1028.535400	3106.085938	2466.664551	69.222343
778.980774	1042.188477	3065.126465	2528.103516	73.453316
779.293640	1030.810913	3069.677490	2580.440674	76.004471
779.606567	1021.708862	2999.136475	2393.847900	69.390099
779.919434	1101.352051	3149.320801	2496.246338	68.111115
780.232239	1089.974487	3085.606201	2453.011475	68.301025
780.544983	1135.484863	3081.055176	2425.705078	66.315781
780.857666	1080.872437	3101.534912	2423.429688	66.441437
781.170227	1003.504700	3101.534912	2371.092773	65.184387
781.482849	1017.157776	3046.922363	2453.011475	70.739914
781.795410	1058.117188	3060.575439	2464.388916	70.227272
782.107910	1019.433350	2976.381104	2387.021240	69.883720
782.420288	1060.392700	2967.279053	2364.266113	68.377090
782.732666	1099.076538	2844.401123	2453.011475	77.574966
783.044983	1121.831787	2924.044189	2316.480225	66.287880
783.357300	1119.556274	2837.574463	2275.520752	67.284767
783.669495	1096.801025	2899.013428	2236.836914	63.257576
783.981689	1023.984375	2899.013428	2302.827148	68.203888
784.293762	1078.596802	2942.248291	2332.408936	67.277176
784.605835	1069.494751	2837.574463	2252.765625	66.924065
784.917908	1155.964600	2871.707275	2284.622803	65.782486
785.229858	1067.219238	2930.870850	2291.449463	65.689865
785.541748	1087.698975	2823.921387	2323.306641	71.166443
785.853577	1071.770264	2796.614990	2191.326416	64.907646
786.165405	1085.423462	2798.890625	2300.551514	70.916328
786.477173	1037.637451	2860.329590	2230.010498	65.418236
786.788879	1044.463989	2771.584229	2307.378174	73.122543
787.100525	1023.984375	2762.482178	2134.438477	63.874348
787.412109	1055.841675	2746.553711	2214.081787	68.506058
787.723694	1083.147949	2778.410889	2218.632813	66.979866
788.035156	1151.413574	2798.890625	2261.867676	67.403313
788.346558	1012.606750	2737.451416	2277.796387	73.350929
788.658081	1030.810913	2801.166016	2325.582275	73.136253
788.969360	1103.627563	2949.074951	2323.306641	66.091240
789.280640	1092.250000	3028.718262	2418.878662	68.507637
789.591919	1083.147949	3101.534912	2471.215576	68.771133
789.903076	1028.535400	3053.749023	2398.398926	67.640450
790.214172	1012.606750	3010.513916	2398.398926	69.362190
790.525269	1094.525513	2926.319824	2400.674561	71.304352
790.836365	1087.698975	2937.697266	2348.337402	68.142677
791.147339	1096.801025	3037.820313	2302.827148	62.133648
791.458191	971.647400	2887.635986	2339.235352	71.377663
791.769104	1055.841675	2844.401123	2216.357178	64.885490
792.079895	1051.290649	2855.778564	2191.326416	63.177799
792.390686	1069.494751	2821.645752	2184.500000	63.636368
792.701416	1080.872437	2714.696289	2218.632813	69.637886
793.012085	1085.423462	2691.941162	2141.265137	65.722382
793.322693	1026.259888	2655.532715	2061.621826	63.547485
793.633240	1058.117188	2591.818115	2189.051025	73.738876
793.943787	1046.739624	2616.848877	2189.051025	72.753624
794.254272	1080.872437	2616.848877	2088.927979	65.629623
794.564636	1083.147949	2519.001465	1997.907227	63.708397
794.875000	1064.943726	2519.001465	2093.479248	70.735535
795.185303	1101.352051	2582.716064	2143.540527	70.353302
795.495544	953.443237	2610.022461	2054.795166	66.483505
795.805786	1049.015137	2582.716064	2098.030273	68.397636
796.115906	1042.188477	2685.114502	2066.172852	62.326870
796.426025	1096.801025	2548.583252	2159.469238	73.197495
796.736023	1112.729614	2721.522949	2204.979736	67.892509
797.045959	1046.739624	2748.829102	2227.734863	69.385025
797.355896	1101.352051	2801.166016	2191.326416	64.123154
797.665833	1060.392700	2757.931152	2173.122314	65.549599
797.975708	1074.045776	2728.349365	2193.602051	67.675385
798.285461	1060.392700	2664.634766	2161.744873	68.652496
798.595154	1058.117188	2767.033203	2173.122314	65.246338
798.904846	1069.494751	2696.492188	2220.908203	70.769226
799.214478	1069.494751	2714.696289	2207.255127	69.156288
799.524109	1133.209351	2607.746826	2111.683350	66.358032
799.833557	1023.984375	2503.072998	2127.612061	74.615387
800.143005	1080.872437	2541.756836	2116.234375	70.872269
800.452393	1026.259888	2646.430664	1995.631714	59.831459
800.761780	1071.770264	2468.940186	2002.458252	66.612366
801.071106	1092.250000	2487.144287	2027.489014	67.047302
801.380371	1121.831787	2534.930176	2057.070801	66.183571
801.689575	1058.117188	2523.552490	2029.764526	66.304352
801.998718	1062.668213	2380.194824	1991.080688	70.466316
802.307800	1105.903076	2539.481201	2066.172852	66.984123
802.616882	1071.770264	2475.766602	2059.346436	70.340370
802.925903	1071.770264	2505.348389	2036.591064	67.301582
803.234863	1092.250000	2471.215576	1977.427612	64.191422
803.543701	1064.943726	2475.766602	2027.489014	68.225807
803.852539	1074.045776	2557.685303	1975.152100	60.736202
804.161316	1076.321289	2427.980713	1997.907227	68.181816
804.470032	1046.739624	2459.837891	2093.479248	74.074089
804.778809	1053.566162	2425.705078	1979.703125	67.495857
805.087341	1069.494751	2455.286865	1972.876587	65.188843
805.395935	1117.280762	2459.837891	2029.764526	67.966103
805.704468	1151.413574	2400.674561	1941.019287	63.205826
806.012939	1046.739624	2473.491211	2029.764526	68.899513
806.321350	1099.076538	2441.633789	2020.662476	68.644073
806.629761	1037.637451	2475.766602	2032.040039	69.145569
806.938049	1019.433350	2430.256104	2052.519775	73.225815
807.246277	1069.494751	2553.134277	2082.101563	68.251541
807.554504	1023.984375	2466.664551	2011.560425	68.454262
807.862671	1014.882263	2491.695313	2079.825928	72.110931
808.170715	1080.872437	2516.726074	2018.386963	65.293182
808.478821	1092.250000	2557.685303	1993.356201	61.490685
808.786804	1042.188477	2448.460449	2009.284912	68.770226
809.094727	1035.361938	2430.256104	1986.529663	68.189240
809.402649	1128.658325	2316.480225	2018.386963	74.904213
809.710510	1005.780212	2412.052002	1945.570313	66.828484
810.018311	1069.494751	2382.470215	2009.284912	71.577133
810.326050	1112.729614	2339.235352	1956.947876	68.831169
810.633667	1023.984375	2446.184814	1884.131226	60.480003
810.941345	1119.556274	2330.133301	1902.335449	64.661659
811.248901	1105.903076	2336.959961	1863.651489	61.552673
811.556396	1096.801025	2334.684326	1918.264038	66.360298
811.863892	1128.658325	2339.235352	1966.049927	69.172928
812.171326	1080.872437	2293.724854	1954.672363	72.045036
812.478699	1023.984375	2321.031250	1854.549438	64.035088
812.786011	1078.596802	2223.183838	1854.549438	67.793243
813.093262	1137.760376	2225.459229	1865.927002	66.945610
813.400391	1101.352051	2307.378174	1754.426514	54.150940
813.707642	1044.463989	2259.592041	1961.498901	75.468170
814.014709	1055.841675	2289.173828	1904.610962	68.819199
814.321716	1026.259888	2220.908203	1893.233276	72.571434
814.628723	1060.392700	2211.806152	1922.815063	74.901192
814.935669	994.402588	2232.285889	1909.161987	73.897064
815.242554	1083.147949	2259.592041	1784.008301	59.574471
815.549438	1010.331238	2234.561523	1809.039063	65.241638
815.856201	1058.117188	2275.520752	1881.855713	67.663551
816.162964	1067.219238	2377.919189	1784.008301	54.687504
816.469604	1030.810913	2214.081787	1786.283813	63.846149
816.776184	1101.352051	2243.663574	1849.998413	65.537842
817.082825	1074.045776	2261.867676	1815.865601	62.452110
817.389343	1130.933838	2282.347412	1781.732788	56.521736
817.695801	1062.668213	2318.755615	1829.518677	61.050724
818.002197	1076.321289	2239.112549	1838.620850	65.557732
818.308533	987.576050	2377.919189	1920.539551	67.103111
818.614868	1074.045776	2275.520752	1870.478149	66.287888
818.921143	1051.290649	2318.755615	1877.304688	65.170563
819.227356	1044.463989	2339.235352	1865.927002	63.444637
819.533447	1014.882263	2309.653564	1877.304688	66.608093
819.839539	1003.504700	2462.113525	1950.121338	64.898590
820.145569	1035.361938	2402.949951	2016.111450	71.713814
820.451538	1062.668213	2598.644775	2102.581299	67.703705
820.757568	1046.739624	2732.900391	2159.469238	65.991905
821.063416	1049.015137	2833.023438	2250.489990	67.346931
821.369263	1096.801025	3003.687500	2416.603027	69.212402
821.675049	1037.637451	3124.290039	2503.072998	70.229012
821.980713	1094.525513	3274.474365	2512.175049	65.031326
822.286438	1103.627563	3547.536865	2833.023438	70.763512
822.592102	1060.392700	4412.234863	3456.516113	71.486763
822.897583	1010.331238	6583.081543	5094.891113	73.295219
823.203125	1064.943726	9411.553711	6842.491211	69.220284
823.508545	1071.770264	11343.471680	8715.245117	74.412941
823.813965	1062.668213	12048.882813	8726.622070	69.759735
824.119263	1128.658325	10826.927734	7984.802734	70.694511
824.424622	1087.698975	9454.789063	6878.899414	69.214035
824.729858	1060.392700	7984.802734	5745.689941	67.663490
825.035095	1105.903076	6967.644531	5149.503418	68.982918
825.340149	1080.872437	6102.946777	4521.459961	68.509293
825.645264	1103.627563	5431.667969	4225.642090	72.134598
825.950256	1087.698975	5017.523438	3875.211914	70.932251
826.255310	1026.259888	4739.909668	3649.935303	70.649506
826.560242	1010.331238	4357.622559	3365.495361	70.360298
826.865112	1060.392700	4171.029785	3228.964111	69.714699
827.169922	1017.157776	4109.590332	3140.218750	68.653427
827.474670	1087.698975	4189.233887	3274.474365	70.506233
827.779419	1060.392700	4703.501465	3654.486328	71.205498
828.084045	1051.290649	5311.065430	4002.641113	69.284195
828.388672	1055.841675	5854.915039	4373.550781	69.132286
828.693176	1096.801025	5679.699707	4275.703613	69.364456
828.997681	1092.250000	5154.054688	3963.957275	70.700279
829.302124	1055.841675	4539.664063	3372.321777	66.492485
829.606567	1039.912964	4093.661865	3092.432861	67.213120
829.910828	1085.423462	3706.823486	2944.523926	70.920143
830.215149	1124.107300	3365.495361	2789.788574	74.314720
830.519348	1053.566162	3238.066162	2530.379150	67.604164
830.823547	1080.872437	2958.177002	2462.113525	73.575760
831.127686	1060.392700	2883.084961	2305.102539	68.289635
831.431763	1130.933838	2664.634766	2143.540527	66.023735
831.735779	1033.086426	2580.440674	2032.040039	64.558815
832.039734	1119.556274	2443.909424	2091.203613	73.367691
832.343628	1037.637451	2302.827148	1952.396851	72.302155
832.647461	1030.810913	2423.429688	1854.549438	59.150326
832.951233	1078.596802	2377.919189	2050.244141	74.781082
833.255127	1094.525513	2339.235352	2002.458252	72.943321
833.558777	1099.076538	2530.379150	2009.284912	63.593006
833.862366	1028.535400	2680.563477	2123.060791	66.253441
834.165955	1023.984375	2776.135498	2377.919189	77.272720
834.469482	1115.005249	3315.433838	2682.839111	71.251289
834.773010	1115.005249	3825.150391	2842.125488	63.727962
835.076416	1110.454102	3936.650879	2930.870850	64.412247
835.379822	1117.280762	4118.692871	3112.912354	66.489754
835.683105	1092.250000	3761.435791	2807.992676	64.279625
835.986389	1119.556274	3413.281250	2657.808350	67.063492
836.289612	1060.392700	3244.892578	2368.817139	59.895832
836.592773	1092.250000	2949.074951	2346.062012	67.524513
836.895874	1115.005249	2817.094727	2223.183838	65.106949
837.198914	1187.821899	2650.981689	2182.224365	67.962669
837.501892	1094.525513	2555.409912	2120.785400	70.249222
837.804871	1101.352051	2496.246338	2107.132324	72.104408
838.107666	1033.086426	2402.949951	1854.549438	59.966778
838.410583	1044.463989	2202.704102	1956.947876	78.781929
838.713379	1042.188477	2195.877686	1802.212524	65.877708
839.016052	1035.361938	2093.479248	1768.079712	69.247307
839.318787	960.269775	2066.172852	1679.334351	65.020576
839.621338	1069.494751	1991.080688	1615.619751	59.259258
839.923889	1023.984375	1913.713013	1745.324463	81.074165
840.226440	1087.698975	2038.866699	1683.885376	62.679420
840.528931	1035.361938	2059.346436	1677.058838	62.666660
840.831299	1069.494751	2168.571289	1793.110352	65.838509
841.133606	1069.494751	2214.081787	1843.171875	67.594437
841.435913	1074.045776	2289.173828	1900.059814	67.977531
841.738220	1083.147949	2198.153076	1904.610962	73.673477
842.040405	1026.259888	2209.530762	1774.906250	63.269230
842.342529	1053.566162	2025.213501	1681.609863	64.637001
842.644592	1080.872437	2007.009399	1690.711914	65.847656
842.946594	1008.055725	2013.835938	1665.681274	65.384621
843.248596	1012.606750	2027.489014	1699.814087	67.713013
843.550598	1028.535400	1947.845825	1652.028076	67.821777
843.852478	1064.943726	1979.703125	1561.007324	54.228859
844.154236	1092.250000	1854.549438	1504.119263	54.029854
844.455994	1028.535400	1799.937012	1490.466064	59.881992
844.757690	1115.005249	1795.385864	1551.905151	64.214043
845.059326	1096.801025	1836.345337	1517.772339	56.923069
845.360962	1080.872437	1722.569214	1476.812988	61.702126
845.662476	1083.147949	1738.497925	1449.506714	55.902767
845.963989	1130.933838	1681.609863	1429.027100	54.132240
846.265381	1119.556274	1722.569214	1454.057739	55.471691
846.566772	1060.392700	1640.650513	1485.915039	73.333321
846.868042	1012.606750	1622.446289	1338.006226	53.358212
847.169373	1039.912964	1695.262939	1460.884399	64.236122
847.470581	1074.045776	1613.344238	1460.884399	71.729973
847.771729	1096.801025	1711.191650	1442.680176	56.296295
848.072815	1115.005249	1690.711914	1408.547363	50.988140
848.373901	1058.117188	1601.966675	1429.027100	68.200836
848.674866	1126.382813	1604.242188	1392.618774	55.714291
848.975891	1058.117188	1672.507813	1419.924927	58.888878
849.276794	1074.045776	1654.303589	1488.190552	71.372543
849.577637	1046.739624	1570.109375	1390.343262	65.652176
849.878357	1060.392700	1617.895264	1397.169800	60.408169
850.179077	1080.872437	1611.068726	1322.077637	45.493565
850.479736	989.851563	1574.660400	1392.618774	68.871605
850.780396	1074.045776	1658.854614	1351.659302	47.470818
851.080994	983.024963	1515.496826	1360.761475	70.940186
851.381470	989.851563	1492.741699	1328.904175	67.420815
851.681946	1046.739624	1649.752563	1438.129150	64.905663
851.982361	987.576050	1601.966675	1292.495850	49.629631
852.282715	1080.872437	1626.997314	1351.659302	49.583324
852.583008	1053.566162	1654.303589	1319.802124	44.318192
852.883240	1069.494751	1631.548462	1287.944824	38.866405
853.183411	1051.290649	1508.670288	1322.077637	59.203987
853.483521	1051.290649	1551.905151	1349.383789	59.545444
853.783630	1076.321289	1554.180664	1358.485962	59.047638
854.083679	1080.872437	1522.323364	1440.404663	81.443306
854.383667	1078.596802	1504.119263	1419.924927	80.213890
854.683533	1089.974487	1604.242188	1460.884399	72.123901
854.983337	1096.801025	1565.558350	1399.445313	64.563103
855.283203	1049.015137	1590.588989	1376.690063	60.504200
855.582886	1062.668213	1556.456177	1442.680176	76.958534
855.882629	1089.974487	1481.364014	1367.588013	70.930237
856.182312	1094.525513	1506.394775	1415.373901	77.900543
856.481873	1046.739624	1576.935913	1367.588013	60.515018
856.781372	1105.903076	1661.130127	1356.210449	45.081985
857.080872	971.647400	1538.252075	1367.588013	69.879517
857.380310	1058.117188	1595.140137	1378.965576	59.745750
857.679688	1099.076538	1567.833862	1349.383789	53.398045
857.979004	1074.045776	1551.905151	1335.730713	54.761913
858.278259	989.851563	1492.741699	1306.148926	62.895916
858.577454	1035.361938	1479.088501	1360.761475	73.333344
858.876648	1080.872437	1576.935913	1363.036987	56.880733
859.175720	1064.943726	1517.772339	1322.077637	56.783936
859.474792	1019.433350	1535.976563	1324.353149	59.030842
859.773743	1042.188477	1540.527588	1369.863525	65.753426
860.072693	1055.841675	1458.608887	1338.006226	70.056488
860.371521	1105.903076	1549.629639	1353.934937	55.897457
860.670349	1080.872437	1574.660400	1315.250977	47.465424
860.969116	1046.739624	1572.384888	1333.455200	54.545452
861.267883	1094.525513	1510.945801	1285.669312	45.901653
861.566589	1074.045776	1526.874512	1344.832764	59.798985
861.865112	1105.903076	1415.373901	1385.792114	90.441170
862.163635	1092.250000	1510.945801	1381.241089	69.021729
862.462158	1030.810913	1522.323364	1333.455200	61.574085
862.760620	1042.188477	1606.517700	1299.322388	45.564522
863.059021	1035.361938	1526.874512	1281.118164	49.999989
863.357361	1110.454102	1463.159912	1287.944824	50.322598
863.655640	1039.912964	1581.486938	1208.301514	31.092438
863.953857	1124.107300	1469.986450	1410.822876	82.894730
864.251953	1067.219238	1631.548462	1338.006226	47.983868
864.550110	1092.250000	1467.710938	1185.546387	24.848494
864.848206	1067.219238	1488.190552	1340.281738	64.864868
865.146179	1108.178589	1574.660400	1356.210449	53.170746
865.444092	1044.463989	1542.803101	1342.557251	59.817352
865.741943	1042.188477	1451.782227	1312.975464	66.111115
866.039795	1014.882263	1426.751587	1281.118164	64.640869
866.337646	1064.943726	1522.323364	1342.557251	60.696522
866.635376	1083.147949	1515.496826	1240.158813	36.315781
866.933044	1019.433350	1535.976563	1356.210449	65.198242
867.230652	1140.035889	1510.945801	1333.455200	52.147247
867.528198	1067.219238	1531.425537	1308.424438	51.960777
867.825745	1089.974487	1495.017212	1306.148926	53.370773
868.123230	1087.698975	1522.323364	1374.414551	65.968590
868.420593	1089.974487	1513.221313	1306.148926	51.075264
868.717896	1003.504700	1554.180664	1349.383789	62.809914
869.015198	1010.331238	1538.252075	1376.690063	69.396545
869.312439	1069.494751	1529.150024	1265.189575	42.574257
869.609619	1105.903076	1474.537476	1349.383789	66.049377
869.906738	1099.076538	1565.558350	1365.312500	57.073170
870.203796	1099.076538	1554.180664	1301.597900	44.500008
870.500854	1078.596802	1588.313477	1338.006226	50.892864
870.797791	1089.974487	1563.282837	1322.077637	49.038464
871.094666	1128.658325	1531.425537	1442.680176	77.966087
871.391602	1051.290649	1458.608887	1283.393677	56.983215
871.688293	1094.525513	1538.252075	1319.802124	50.769241
871.985107	1108.178589	1454.057739	1408.547363	86.842117
872.281738	1140.035889	1472.261963	1303.873413	49.315071
872.578369	1014.882263	1485.915039	1381.241089	77.777779
872.874939	1083.147949	1456.333252	1253.812012	45.731720
873.171509	1085.423462	1545.078613	1388.067749	65.841599
873.467957	1051.290649	1497.292725	1383.516602	74.489777
873.764343	1103.627563	1495.017212	1397.169800	75.000000
874.060669	1037.637451	1538.252075	1335.730713	59.545456
874.356995	1049.015137	1522.323364	1338.006226	61.057693
874.653198	992.127075	1501.843750	1324.353149	65.178574
874.949463	1128.658325	1526.874512	1340.281738	53.142845
875.245544	1103.627563	1520.047852	1265.189575	38.797825
875.541626	1035.361938	1517.772339	1299.322388	54.716991
875.837646	1094.525513	1490.466064	1262.914063	42.528744
876.133606	1089.974487	1599.691162	1224.230225	26.339287
876.429565	1080.872437	1533.701050	1440.404663	79.396973
876.725403	1101.352051	1515.496826	1372.139038	65.384621
877.021179	1049.015137	1520.047852	1340.281738	61.835747
877.316956	1062.668213	1485.915039	1324.353149	61.827972
877.612610	1069.494751	1529.150024	1376.690063	66.831673
877.908203	1151.413574	1483.639526	1322.077637	51.369877
878.203857	1037.637451	1535.976563	1301.597900	52.968037
878.499390	1060.392700	1481.364014	1390.343262	78.378395
878.794800	1042.188477	1513.221313	1392.618774	74.396149
879.090271	1026.259888	1561.007324	1328.904175	56.595745
879.385559	1037.637451	1626.997314	1342.557251	51.737457
879.680847	1046.739624	1595.140137	1422.200562	68.464729
879.976196	1076.321289	1636.099487	1449.506714	66.666656
880.271301	1094.525513	1608.793213	1497.292725	78.318588
880.566467	1080.872437	1736.222412	1508.670288	65.277771
880.861572	1062.668213	1849.998413	1545.078613	61.271675
881.156555	1067.219238	1954.672363	1713.467163	72.820511
881.451477	1017.157776	2236.836914	1929.641602	74.813431
881.746460	1078.596802	2978.656738	2309.653564	64.790421
882.041321	1080.872437	3652.210938	2944.523926	72.477875
882.336121	1083.147949	4519.184082	3474.720215	69.602654
882.630798	1067.219238	5158.605469	3870.660889	68.520584
882.925537	1039.912964	5361.126953	3838.803711	64.770935
883.220215	1103.627563	5151.779297	3699.996826	64.137146
883.514771	1060.392700	4464.571777	3431.485352	69.652405
883.809326	1105.903076	4189.233887	3199.382324	67.896683
884.103760	1049.015137	3866.109863	3044.646729	70.840057
884.398132	1044.463989	3572.567627	2780.686523	68.676880
884.692505	1055.841675	3401.903564	2664.634766	68.574196
884.986816	1092.250000	3206.208740	2523.552490	67.707207
885.281067	1051.290649	3065.126465	2368.817139	65.423729
885.575256	1158.240112	2814.819336	2207.255127	63.324169
885.869385	1019.433350	2662.359375	2216.357178	72.853180
886.163452	1062.668213	2434.807373	1938.743774	63.847427
886.457458	1076.321289	2200.428711	1795.385864	63.967602
886.751465	1069.494751	2082.101563	1763.528564	68.539322
887.045410	1142.311401	2002.458252	1722.569214	67.460320
887.339233	1155.964600	1870.478149	1617.895264	64.649673
887.632996	1062.668213	1872.753662	1531.425537	57.865170
887.926758	1089.974487	1765.804199	1586.037964	73.400658
888.220398	1130.933838	1731.671387	1490.466064	59.848469
888.514099	1080.872437	1670.232300	1429.027100	59.073357
888.807678	1105.903076	1595.140137	1417.649414	63.720917
889.101196	1055.841675	1606.517700	1401.720825	62.809917
889.394653	1078.596802	1606.517700	1454.057739	71.120682
889.688049	1087.698975	1563.282837	1376.690063	60.765537
889.981384	1039.912964	1531.425537	1363.036987	65.740746
890.274719	1119.556274	1504.119263	1308.424438	49.112411
890.567932	1085.423462	1545.078613	1365.312500	60.891090
>>>>>End Processed Spectral Data<<<<<
