Jaz Data File
++++++++++++++++++++++++++++++++++++
Date: Wed Feb 07 06:49:28 2024
User: jaz
Dark Spectrum Present: Yes
Reference Spectrum Present: Yes
Processed Spectrum Present: Yes
Spectrometers: JAZA3692
Integration Time (usec): 40000 (JAZA3692)
Spectra Averaged: 1 (JAZA3692)
Boxcar Smoothing: 0 (JAZA3692)
Correct for Electrical Dark: No (JAZA3692)
Strobe/Lamp Enabled: Yes (JAZA3692)
Correct for Detector Non-linearity: No (JAZA3692)
Correct for Stray Light: No (JAZA3692)
Number of Pixels in Processed Spectrum: 2048
>>>>>Begin Processed Spectral Data<<<<<
W	D	R	S	P
190.244385	0.000000	0.000000	0.000000	0.000000
190.627136	0.000000	0.000000	0.000000	0.000000
191.009842	971.647400	973.922913	944.341125	-1200.005371
191.392532	1005.780212	971.647400	930.687988	220.000107
191.775177	1010.331238	1008.055725	1010.331238	-0.000000
192.157791	998.953613	969.371887	944.341125	184.615616
192.540390	1026.259888	987.576050	989.851563	94.117668
192.922943	1017.157776	1030.810913	1053.566162	266.666809
193.305481	1058.117188	939.790100	1010.331238	40.384624
193.687958	1105.903076	1035.361938	1028.535400	109.677383
194.070419	1085.423462	1010.331238	1067.219238	24.242489
194.452866	1103.627563	1171.893188	1069.494751	-50.000000
194.835251	1012.606750	998.953613	1003.504700	66.666367
195.217621	1055.841675	1064.943726	1001.229126	-600.002686
195.599960	1071.770264	1035.361938	1014.882263	156.249985
195.982254	1076.321289	1089.974487	1026.259888	-366.664276
196.364517	1028.535400	1039.912964	1044.463989	140.000000
196.746750	1033.086426	1076.321289	971.647400	-142.105286
197.128952	1021.708862	1035.361938	964.820801	-416.668457
197.511139	1051.290649	1074.045776	1001.229126	-220.001068
197.893280	983.024963	1087.698975	1010.331238	26.086967
198.275391	1042.188477	1035.361938	980.749451	900.002686
198.657471	1089.974487	1037.637451	973.922913	221.738907
199.039520	1046.739624	1069.494751	1030.810913	-70.000534
199.421539	1017.157776	1064.943726	1008.055725	-19.047546
199.803513	1083.147949	973.922913	967.096313	106.250031
200.185471	1008.055725	1012.606750	1012.606750	100.000000
200.567383	1033.086426	1071.770264	1030.810913	-5.882334
200.949265	1030.810913	1005.780212	985.300537	181.818222
201.331131	1012.606750	1083.147949	1019.433350	9.677464
201.712967	1026.259888	1044.463989	1026.259888	0.000000
202.094742	1012.606750	1035.361938	919.310425	-410.000244
202.476517	1058.117188	1046.739624	1094.525513	-320.001068
202.858231	1039.912964	1005.780212	1014.882263	73.333382
203.239944	996.678101	1021.708862	994.402588	-9.090865
203.621582	998.953613	1021.708862	1012.606750	59.999947
204.003235	1076.321289	1033.086426	964.820801	257.894867
204.384827	1049.015137	1033.086426	998.953613	314.284851
204.766388	1096.801025	985.300537	1049.015137	42.857113
205.147934	992.127075	1042.188477	987.576050	-9.090887
205.529449	1026.259888	1035.361938	978.473938	-525.002014
205.910904	1028.535400	1001.229126	960.269775	249.999771
206.292343	1001.229126	1005.780212	960.269775	-899.990601
206.673767	1021.708862	1003.504700	989.851563	175.000076
207.055115	1044.463989	1094.525513	942.065613	-204.545059
207.436462	1023.984375	1005.780212	1037.637451	-74.999748
207.817780	1028.535400	1051.290649	1044.463989	69.999626
208.199051	1037.637451	1055.841675	1033.086426	-24.999832
208.580307	1053.566162	1026.259888	1121.831787	-249.999771
208.961517	983.024963	1012.606750	1010.331238	92.307724
209.342712	1026.259888	1058.117188	1023.984375	-7.142830
209.723846	1001.229126	1030.810913	1060.392700	200.000000
210.104965	1078.596802	1055.841675	1021.708862	250.000534
210.486069	998.953613	1094.525513	1019.433350	21.428617
210.867111	1008.055725	1069.494751	1094.525513	140.740814
211.248123	992.127075	1055.841675	1012.606750	32.142830
211.629120	1003.504700	1019.433350	1046.739624	271.428680
212.010071	1026.259888	1053.566162	989.851563	-133.333191
212.390991	1001.229126	1099.076538	971.647400	-30.232508
212.771881	1012.606750	1026.259888	994.402588	-133.333191
213.152756	1012.606750	1044.463989	1003.504700	-28.571373
213.533569	969.371887	1044.463989	1010.331238	54.545483
213.914368	1003.504700	1051.290649	983.024963	-42.857235
214.295135	1051.290649	1099.076538	930.687988	-252.381332
214.675858	1033.086426	980.749451	983.024963	95.652191
215.056549	1019.433350	964.820801	989.851563	54.166649
215.437225	996.678101	1046.739624	944.341125	-104.545311
215.817841	937.514587	1019.433350	1014.882263	94.444389
216.198441	921.585938	1074.045776	987.576050	43.283604
216.579025	964.820801	1049.015137	1008.055725	51.351345
216.959549	1019.433350	1042.188477	1026.259888	30.000000
217.340057	1033.086426	987.576050	973.922913	130.000061
217.720535	996.678101	1021.708862	932.963501	-254.545181
218.100967	957.994263	1069.494751	1012.606750	48.979595
218.481369	1035.361938	1069.494751	1003.504700	-93.333176
218.861740	1133.209351	1042.188477	996.678101	149.999939
219.242065	1010.331238	1112.729614	1003.504700	-6.666647
219.622391	1051.290649	1089.974487	964.820801	-223.529648
220.002670	1060.392700	1115.005249	992.127075	-124.999886
220.382919	1001.229126	1153.689087	992.127075	-5.970125
220.763123	1096.801025	1039.912964	992.127075	183.999847
221.143295	1028.535400	1096.801025	930.687988	-143.333359
221.523453	1060.392700	1099.076538	1008.055725	-135.294159
221.903549	1008.055725	1101.352051	996.678101	-12.195148
222.283630	1051.290649	1026.259888	1008.055725	172.727158
222.663696	1010.331238	1046.739624	983.024963	-74.999962
223.043701	989.851563	1039.912964	1023.984375	68.181892
223.423676	967.096313	1044.463989	1019.433350	67.647163
223.803635	1051.290649	1067.219238	987.576050	-400.001526
224.183548	1010.331238	1135.484863	969.371887	-32.727257
224.563431	1049.015137	1062.668213	1026.259888	-166.667557
224.943283	1071.770264	1035.361938	1014.882263	156.249985
225.323105	1010.331238	1078.596802	1026.259888	23.333361
225.702881	994.402588	973.922913	921.585938	355.555695
226.082642	1014.882263	1046.739624	1055.841675	128.571259
226.462357	1026.259888	1028.535400	1074.045776	2100.005371
226.842041	1026.259888	1083.147949	985.300537	-71.999908
227.221695	1035.361938	1089.974487	1028.535400	-12.499944
227.601318	1010.331238	1087.698975	962.545288	-61.764698
227.980911	969.371887	1105.903076	1019.433350	36.666687
228.360474	996.678101	1078.596802	1019.433350	27.777843
228.739990	1042.188477	1085.423462	983.024963	-136.841751
229.119476	998.953613	1183.270874	944.341125	-29.629612
229.498932	1044.463989	1178.719727	967.096313	-57.627090
229.878372	1060.392700	1096.801025	987.576050	-200.000000
230.257736	969.371887	1294.771362	973.922913	1.398596
230.637115	978.473938	1217.403687	1051.290649	30.476202
231.016449	930.687988	1267.465088	1035.361938	31.081078
231.395737	976.198425	1176.444214	948.892151	-13.636379
231.774994	1037.637451	1215.128052	1080.872437	24.359028
232.154221	987.576050	1190.097412	998.953613	5.617957
232.533417	1008.055725	1242.434326	1001.229126	-2.912637
232.912582	1037.637451	1192.372925	994.402588	-27.941145
233.291702	1033.086426	1180.995239	1003.504700	-19.999975
233.670792	989.851563	1153.689087	1103.627563	69.444412
234.049866	1026.259888	1124.107300	1035.361938	9.302291
234.428894	1014.882263	1105.903076	985.300537	-32.499958
234.807892	992.127075	1187.821899	996.678101	2.325573
235.186874	1008.055725	1155.964600	957.994263	-33.846153
235.565781	1044.463989	1262.914063	1053.566162	4.166706
235.944687	985.300537	1240.158813	983.024963	-0.892878
236.323547	992.127075	1160.515625	944.341125	-28.378384
236.702377	1026.259888	1215.128052	962.545288	-33.734959
237.081177	1062.668213	1224.230225	1026.259888	-22.535202
237.459946	1028.535400	1187.821899	1010.331238	-11.428566
237.838669	1003.504700	1269.740601	1058.117188	20.512819
238.217361	1035.361938	1176.444214	1055.841675	14.516166
238.596039	1017.157776	1224.230225	1008.055725	-4.395587
238.974670	1053.566162	1176.444214	1008.055725	-37.037075
239.353271	1028.535400	1190.097412	1053.566162	15.492975
239.731842	1128.658325	1265.189575	998.953613	-95.000015
240.110367	1058.117188	1285.669312	989.851563	-29.999994
240.488876	1023.984375	1290.220337	1033.086426	3.418791
240.867340	1035.361938	1283.393677	980.749451	-22.018347
241.245789	955.718750	1335.730713	1058.117188	26.946110
241.624176	930.687988	1374.414551	1017.157776	19.487179
242.002548	1026.259888	1353.934937	983.024963	-13.194451
242.380890	1026.259888	1415.373901	994.402588	-8.187138
242.759186	948.892151	1501.843750	1044.463989	17.283943
243.137451	1049.015137	1501.843750	962.545288	-19.095491
243.515686	1044.463989	1581.486938	969.371887	-13.983034
243.893890	998.953613	1686.160889	935.239075	-9.271517
244.272049	1094.525513	1561.007324	1012.606750	-17.560976
244.650192	1014.882263	1474.537476	1003.504700	-2.475239
245.028290	1112.729614	1483.639526	1042.188477	-19.018402
245.406357	951.167725	1501.843750	1044.463989	16.942133
245.784393	985.300537	1451.782227	1039.912964	11.707303
246.162384	1026.259888	1481.364014	996.678101	-6.500004
246.540359	1087.698975	1504.119263	1017.157776	-16.939905
246.918289	1037.637451	1649.752563	1044.463989	1.115238
247.296204	1033.086426	1713.467163	1051.290649	2.675594
247.674057	992.127075	1954.672363	1026.259888	3.546099
248.051895	955.718750	2175.397949	1028.535400	5.970148
248.429703	1012.606750	2120.785400	1067.219238	4.928130
248.807465	985.300537	2104.856689	1058.117188	6.504064
249.185196	1067.219238	2034.315552	967.096313	-10.352942
249.562897	1033.086426	1827.243164	1046.739624	1.719207
249.940567	998.953613	1774.906250	1049.015137	6.451621
250.318192	1076.321289	1681.609863	1001.229126	-12.406011
250.695801	1085.423462	1674.783325	1053.566162	-5.405407
251.073349	1014.882263	1558.731689	985.300537	-5.439323
251.450882	1044.463989	1611.068726	996.678101	-8.433725
251.828400	1053.566162	1492.741699	1035.361938	-4.145091
252.205872	1051.290649	1540.527588	1083.147949	6.511630
252.583313	1067.219238	1638.375000	998.953613	-11.952190
252.960693	1014.882263	1729.395752	1023.984375	1.273889
253.338074	1005.780212	1733.946899	971.647400	-4.687500
253.715408	1023.984375	1820.416626	1003.504700	-2.571427
254.092682	1074.045776	1679.334351	1030.810913	-7.142851
254.469955	1051.290649	1592.864502	1012.606750	-7.142867
254.847198	1001.229126	1601.966675	948.892151	-8.712120
255.224365	1035.361938	1517.772339	1078.596802	8.962257
255.601563	1133.209351	1483.639526	980.749451	-43.506500
255.978683	928.412476	1595.140137	948.892151	3.071670
256.355743	1062.668213	1567.833862	1012.606750	-9.909910
256.732819	1049.015137	1547.354126	992.127075	-11.415535
257.109894	996.678101	1510.945801	1003.504700	1.327441
257.486877	957.994263	1565.558350	989.851563	5.243447
257.863831	976.198425	1636.099487	1064.943726	13.448274
258.240753	1060.392700	1704.365112	1021.708862	-6.007064
258.617645	989.851563	1638.375000	1023.984375	5.263158
258.994507	996.678101	1731.671387	1019.433350	3.095981
259.371307	1053.566162	1724.844727	1033.086426	-3.050855
259.748108	1001.229126	1915.988525	1019.433350	1.990056
260.124878	1008.055725	2100.305664	1039.912964	2.916662
260.501617	1001.229126	2336.959961	1055.841675	4.088589
260.878296	1074.045776	2564.511963	985.300537	-5.954194
261.254944	1074.045776	2650.981689	1030.810913	-2.741701
261.631561	976.198425	2519.001465	989.851563	0.884957
262.008179	1023.984375	2323.306641	1003.504700	-1.576181
262.384735	1028.535400	2095.754639	1044.463989	1.492532
262.761261	987.576050	1952.396851	1028.535400	4.245281
263.137695	1033.086426	1865.927002	987.576050	-5.464476
263.514191	1067.219238	1843.171875	987.576050	-10.263924
263.890594	1083.147949	1831.794189	1010.331238	-9.726451
264.267029	1030.810913	1831.794189	1017.157776	-1.704547
264.643341	973.922913	1925.090576	996.678101	2.392343
265.019653	1023.984375	1845.447388	1042.188477	2.216058
265.395935	1044.463989	1692.987427	1042.188477	-0.350876
265.772217	1085.423462	1777.181763	996.678101	-12.828955
266.148407	989.851563	1829.518677	1096.801025	12.737126
266.524597	1033.086426	1806.763550	1069.494751	4.705881
266.900726	1026.259888	1888.682251	1014.882263	-1.319264
267.276855	1008.055725	1906.886475	1053.566162	5.063293
267.652924	1110.454102	2079.825928	1055.841675	-5.633796
268.028992	1019.433350	2020.662476	1042.188477	2.272719
268.404999	983.024963	2050.244141	1030.810913	4.477613
268.781006	1044.463989	2077.550537	1001.229126	-4.185019
269.156921	1067.219238	2104.856689	1110.454102	4.166664
269.532837	996.678101	2034.315552	1008.055725	1.096493
269.908661	989.851563	2072.999512	1074.045776	7.773104
270.284546	1051.290649	1993.356201	1055.841675	0.483090
270.660339	1033.086426	2025.213501	1008.055725	-2.522933
271.036133	1003.504700	2168.571289	1001.229126	-0.195317
271.411835	1026.259888	2143.540527	1060.392700	3.054990
271.787537	967.096313	2305.102539	1010.331238	3.231295
272.163239	1014.882263	2402.949951	1092.250000	5.573773
272.538849	973.922913	2484.868652	1083.147949	7.228918
272.914459	1019.433350	2564.511963	1062.668213	2.798231
273.290070	1067.219238	2282.347412	1005.780212	-5.056177
273.665588	973.922913	2191.326416	1037.637451	5.233642
274.041046	1019.433350	2280.071777	1019.433350	0.000000
274.416565	971.647400	2211.806152	1067.219238	7.706420
274.791962	996.678101	2302.827148	1071.770264	5.749126
275.167389	1064.943726	2157.193604	1012.606750	-4.791667
275.542755	1014.882263	2198.153076	1030.810913	1.346154
275.918060	1017.157776	2175.397949	987.576050	-2.554023
276.293365	1035.361938	2161.744873	1094.525513	5.252528
276.668640	1103.627563	2202.704102	1037.637451	-6.004142
277.043854	987.576050	2366.541748	1076.321289	6.435638
277.419037	1037.637451	2311.929199	1078.596802	3.214284
277.794189	1021.708862	2252.765625	976.198425	-3.696859
278.169312	1017.157776	2348.337402	1042.188477	1.880340
278.544373	1028.535400	2323.306641	998.953613	-2.284711
278.919464	1010.331238	2348.337402	998.953613	-0.850342
279.294464	960.269775	2311.929199	1021.708862	4.545456
279.669464	1026.259888	2259.592041	1071.770264	3.690034
280.044403	989.851563	2202.704102	1021.708862	2.626642
280.419312	1046.739624	2293.724854	1023.984375	-1.824821
280.794189	1014.882263	2400.674561	1039.912964	1.806238
281.169037	1074.045776	2348.337402	1030.810913	-3.392855
281.543854	1037.637451	2407.500977	1076.321289	2.823919
281.918671	1017.157776	2434.807373	1010.331238	-0.481539
282.293365	992.127075	2557.685303	1078.596802	5.523252
282.668091	1021.708862	2632.777588	1076.321289	3.389826
283.042786	1028.535400	2767.033203	1055.841675	1.570682
283.417419	1021.708862	2676.012451	1030.810913	0.550204
283.792053	1142.311401	2707.869873	1078.596802	-4.069768
284.166595	1023.984375	2632.777588	1051.290649	1.697314
284.541138	1060.392700	2580.440674	1044.463989	-1.047908
284.915619	1069.494751	2484.868652	1030.810913	-2.733118
285.290100	980.749451	2589.542725	1049.015137	4.243285
285.664520	1064.943726	2739.727051	1026.259888	-2.309782
286.038940	1140.035889	2830.747803	987.576050	-9.017493
286.413300	942.065613	2958.177002	1037.637451	4.740405
286.787628	1035.361938	2871.707275	985.300537	-2.726143
287.161896	1046.739624	2905.840088	964.820801	-4.406369
287.536194	1037.637451	2974.105713	1071.770264	1.762632
287.910400	1005.780212	2885.360352	983.024963	-1.210656
288.284607	1005.780212	2716.971924	1003.504700	-0.132978
288.658752	1003.504700	2516.726074	1062.668213	3.909772
289.032867	976.198425	2569.062988	1042.188477	4.142854
289.406921	985.300537	2641.879639	1030.810913	2.747250
289.781006	1039.912964	2705.594238	1060.392700	1.229511
290.154999	1126.382813	2710.145264	1023.984375	-6.465518
290.529022	1008.055725	2719.247314	996.678101	-0.664895
290.902954	989.851563	2930.870850	1019.433350	1.524034
291.276825	1064.943726	2965.003662	1023.984375	-2.155687
291.650757	1014.882263	3060.575439	960.269775	-2.669632
292.024597	1071.770264	3037.820313	1096.801025	1.273150
292.398407	996.678101	2978.656738	1126.382813	6.544203
292.772156	1023.984375	2903.564453	1051.290649	1.452786
293.145905	1017.157776	2819.370361	962.545288	-3.030302
293.519592	1001.229126	2691.941162	1064.943726	3.768507
293.893280	937.514587	2687.390137	1069.494751	7.542260
294.266907	967.096313	2801.166016	1130.933838	8.933004
294.640533	1030.810913	2871.707275	1119.556274	4.820769
295.014069	978.473938	3069.677490	1023.984375	2.176280
295.387604	955.718750	3249.443604	1030.810913	3.273809
295.761078	973.922913	3151.596191	1049.015137	3.448278
296.134552	1014.882263	3062.851074	1055.841675	2.000002
296.507996	1001.229126	3172.075928	1062.668213	2.830190
296.881378	1010.331238	3178.902588	1085.423462	3.462751
297.254730	1010.331238	3383.699463	1049.015137	1.629916
297.628021	962.545288	3545.261475	1046.739624	3.259914
298.001282	937.514587	3684.068115	1037.637451	3.645400
298.374573	1046.739624	3579.394287	1042.188477	-0.179699
298.747803	1037.637451	3458.791504	1076.321289	1.597744
299.121002	1060.392700	3401.903564	1051.290649	-0.388726
299.494141	973.922913	3185.729004	1074.045776	4.526747
299.867188	1010.331238	3074.228516	1089.974487	3.858877
300.240265	983.024963	3281.301025	1051.290649	2.970299
300.613312	1005.780212	3076.504150	1037.637451	1.538459
300.986328	985.300537	2990.034424	1023.984375	1.929625
301.359314	1023.984375	2889.911377	1026.259888	0.121951
301.732239	1026.259888	2965.003662	1058.117188	1.643193
302.105103	1039.912964	2999.136475	1035.361938	-0.232287
302.477997	1026.259888	2896.738037	1019.433350	-0.364962
302.850830	1053.566162	3021.891602	1046.739624	-0.346820
303.223602	1017.157776	2801.166016	1108.178589	5.102040
303.596375	994.402588	2917.217773	1046.739624	2.721896
303.969116	1005.780212	2710.145264	1089.974487	4.939920
304.341766	978.473938	2805.717041	1121.831787	7.845582
304.714478	998.953613	2839.849854	1067.219238	3.708282
305.087067	1039.912964	2748.829102	1096.801025	3.328897
305.459656	1010.331238	2848.952148	1101.352051	4.950494
305.832214	1021.708862	2710.145264	1167.342163	8.625336
306.204681	1058.117188	2794.339600	1165.066650	6.159894
306.577148	980.749451	2723.798340	1192.372925	12.140995
306.949646	1003.504700	2864.880615	1206.026001	10.880193
307.322021	1021.708862	2812.543701	1149.138062	7.115631
307.694397	978.473938	2801.166016	1178.719727	10.986265
308.066742	1010.331238	2830.747803	1167.342163	8.625000
308.439026	948.892151	2903.564453	1253.812012	15.599538
308.811279	1067.219238	3015.064941	1276.567139	10.747663
309.183502	967.096313	3033.269287	1360.761475	19.052866
309.555695	985.300537	3065.126465	1335.730713	16.849014
309.927887	962.545288	3081.055176	1237.883301	12.996778
310.299988	1012.606750	3078.779541	1317.526489	14.757708
310.672058	1080.872437	3231.239502	1442.680176	16.825394
311.044128	1094.525513	3224.413086	1492.741699	18.696581
311.416168	1087.698975	3265.372314	1376.690063	13.270636
311.788147	951.167725	3106.085938	1460.884399	23.653645
312.160065	992.127075	3215.310791	1497.292725	22.722624
312.531982	1042.188477	3206.208740	1447.231201	18.717140
312.903870	1019.433350	3147.045166	1447.231201	20.106951
313.275696	1037.637451	3062.851074	1479.088501	21.797752
313.647491	1060.392700	3035.544678	1460.884399	20.276501
314.019318	1051.290649	3092.432861	1488.190552	21.404676
314.391022	946.616638	2969.554688	1383.516602	21.597300
314.762726	967.096313	3181.177979	1538.252075	25.796511
315.134369	1030.810913	3231.239502	1472.261963	20.062048
315.505981	980.749451	3304.056152	1515.496826	23.016651
315.877594	1046.739624	3358.668701	1563.282837	22.342518
316.249146	1019.433350	3242.617188	1531.425537	23.029682
316.620636	1014.882263	3071.953125	1490.466064	23.119467
316.992157	1019.433350	3135.667725	1408.547363	18.387094
317.363586	1028.535400	2955.901611	1417.649414	20.188898
317.735016	1049.015137	2792.063965	1374.414551	18.668406
318.106354	1028.535400	2958.177002	1360.761475	17.216984
318.477722	1051.290649	2951.350586	1381.241089	17.365265
318.849060	1008.055725	2996.860840	1476.812988	23.569794
319.220306	1026.259888	2978.656738	1422.200562	20.279722
319.591522	976.198425	3110.636963	1449.506714	22.174839
319.962738	987.576050	3142.494141	1481.364014	22.914467
320.333923	1028.535400	3096.983887	1497.292725	22.662268
320.705017	1051.290649	3081.055176	1458.608887	20.067266
321.076111	1053.566162	3037.820313	1497.292725	22.362385
321.447144	1026.259888	3017.340576	1429.027100	20.228573
321.818176	976.198425	2835.298828	1460.884399	26.070995
322.189178	994.402588	2953.625977	1403.996338	20.905924
322.560120	1023.984375	2880.809326	1490.466064	25.122545
322.931030	944.341125	2996.860840	1447.231201	24.501108
323.301910	983.024963	3040.095703	1390.343262	19.800888
323.672729	1012.606750	3119.739014	1551.905151	25.593950
324.043549	989.851563	3269.923340	1504.119263	22.554892
324.414337	1010.331238	3486.097900	1524.598877	20.772057
324.785095	1058.117188	3554.363525	1485.915039	17.137646
325.155792	948.892151	3672.690674	1563.282837	22.556393
325.526428	1010.331238	3661.312988	1608.793213	22.575108
325.897034	1080.872437	3447.414063	1522.323364	18.653843
326.267670	1012.606750	3436.036377	1524.598877	21.126759
326.638184	962.545288	3451.965088	1483.639526	20.932356
327.008728	1028.535400	3631.731201	1472.261963	17.045454
327.379211	1067.219238	3429.209961	1517.772339	19.075142
327.749634	980.749451	3547.536865	1426.751587	17.375889
328.120026	1060.392700	3392.801514	1508.670288	19.219513
328.490417	996.678101	3438.312012	1476.812988	19.664492
328.860748	992.127075	3379.148438	1463.159912	19.733080
329.231079	996.678101	3317.709229	1410.822876	17.843136
329.601318	1042.188477	3383.699463	1472.261963	18.367348
329.971558	971.647400	3304.056152	1454.057739	20.682924
330.341736	1023.984375	3290.403076	1408.547363	16.967871
330.711914	1014.882263	3317.709229	1506.394775	21.343876
331.082062	948.892151	3351.842041	1358.485962	17.045458
331.452148	998.953613	3299.505127	1438.129150	19.090012
331.822174	1080.872437	3351.842041	1483.639526	17.735468
332.192200	998.953613	3354.117676	1394.894287	16.811596
332.562134	1028.535400	3465.618164	1488.190552	18.860876
332.932129	992.127075	3581.669678	1520.047852	20.386642
333.302063	976.198425	3615.802490	1458.608887	18.275866
333.671906	1067.219238	3811.497314	1554.180664	17.744610
334.041718	1033.086426	3827.426025	1533.701050	17.915310
334.411499	983.024963	3740.956299	1522.323364	19.554453
334.781281	1042.188477	3779.640137	1481.364014	16.043226
335.151001	1078.596802	3843.354736	1504.119263	15.390949
335.520721	1028.535400	3581.669678	1522.323364	19.340462
335.890350	1008.055725	3513.404053	1542.803101	21.344233
336.259979	1028.535400	3663.588379	1495.017212	17.702938
336.629547	1019.433350	3659.037354	1474.537476	17.241379
336.999084	1017.157776	3784.191162	1449.506714	15.624999
337.368622	944.341125	3722.751953	1524.598877	20.884520
337.738098	978.473938	3754.609375	1542.803101	20.327868
338.107513	987.576050	3816.048340	1531.425537	19.227676
338.476898	1058.117188	3743.231689	1465.435425	15.169493
338.846252	932.963501	3795.568604	1435.853638	17.567570
339.215576	1001.229126	3754.609375	1351.659302	12.727271
339.584869	1074.045776	3834.252441	1508.670288	15.746086
339.954132	1033.086426	3745.507324	1531.425537	18.372484
340.323334	1039.912964	3747.782715	1529.150024	18.067230
340.692505	1046.739624	3624.904541	1604.242188	21.624006
341.061646	967.096313	3520.230713	1429.027100	18.092695
341.430786	1026.259888	3706.823486	1529.150024	18.760612
341.799896	992.127075	3661.312988	1510.945801	19.437338
342.168915	1053.566162	3784.191162	1431.302612	13.833333
342.537903	1080.872437	3957.130615	1522.323364	15.348098
342.906830	983.024963	3973.059326	1563.282837	19.406395
343.275757	985.300537	4004.916504	1542.803101	18.462698
343.644684	978.473938	4109.590332	1469.986450	15.697676
344.013550	1030.810913	4139.172363	1599.691162	18.301613
344.382355	973.922913	4227.917480	1583.762451	18.741259
344.751129	960.269775	4357.622559	1597.415649	18.754187
345.119873	1035.361938	4516.908691	1626.997314	16.993464
345.488586	1008.055725	4687.572754	1677.058838	18.181818
345.857269	1028.535400	4896.920898	1647.477051	15.999999
346.225891	1014.882263	4974.288574	1652.028076	16.091953
346.594482	1044.463989	4876.440918	1720.293701	17.636580
346.963043	1049.015137	4940.155762	1697.538574	16.666666
347.331543	983.024963	4539.664063	1654.303589	18.873959
347.700043	1017.157776	4646.613281	1690.711914	18.557993
348.068512	1005.780212	4455.469727	1592.864502	17.018467
348.436951	1039.912964	4218.815430	1490.466064	14.173228
348.805328	1053.566162	4264.326172	1558.731689	15.733519
349.173645	1089.974487	4314.387207	1629.272949	16.725479
349.541931	1078.596802	4232.468750	1601.966675	16.594519
349.910217	1083.147949	4323.489746	1617.895264	16.502806
350.278473	1076.321289	4466.847168	1640.650513	16.644299
350.646667	1049.015137	4523.735352	1688.436401	18.402094
351.014801	996.678101	4514.633301	1592.864502	16.946959
351.382935	1035.361938	4619.307129	1690.711914	18.285713
351.751007	1001.229126	4489.602539	1674.783325	19.308546
352.119049	1094.525513	4573.796875	1720.293701	17.985609
352.487091	1053.566162	4519.184082	1640.650513	16.940250
352.855072	1115.005249	4632.960449	1545.078613	12.225096
353.222992	1001.229126	4737.634277	1677.058838	18.087698
353.590881	955.718750	4785.420410	1733.946899	20.320856
353.958740	996.678101	4976.563965	1761.253052	19.210978
354.326599	1087.698975	5008.421387	1806.763550	18.340105
354.694397	1026.259888	5122.197266	1745.324463	17.555555
355.062134	992.127075	5295.136719	1811.314575	19.037546
355.429840	1046.739624	5297.412598	1879.580200	19.593147
355.797516	948.892151	5402.086426	1897.784302	21.308123
356.165192	1071.770264	5399.811035	1879.580200	18.664562
356.532776	1026.259888	5681.975586	1838.620850	17.448681
356.900360	992.127075	5777.547363	1988.805176	20.827389
357.267883	1010.331238	5977.792969	1931.917114	18.552450
357.635376	1119.556274	6180.314453	1979.703125	16.996403
358.002808	1008.055725	6542.122070	1972.876587	17.434212
358.370270	1046.739624	6769.674316	2143.540527	19.165009
358.737640	1026.259888	6815.184570	2170.846924	19.772015
359.105011	1019.433350	6526.193848	2022.937988	18.223139
359.472321	1030.810913	6271.335449	2129.887451	20.972645
359.839569	1051.290649	6241.753418	2027.489014	18.807539
360.206787	1069.494751	6214.447266	2034.315552	18.752764
360.574005	964.820801	6435.172852	2032.040039	19.509151
360.941193	1021.708862	6888.001465	2152.642578	19.278509
361.308319	994.402588	7156.512695	2225.459229	19.977842
361.675415	983.024963	7732.219727	2307.378174	19.622389
362.042450	1049.015137	8323.855469	2503.072998	19.987488
362.409424	1014.882263	8644.703125	2610.022461	20.906652
362.776428	1010.331238	8606.019531	2605.471436	21.000599
363.143402	980.749451	8287.446289	2637.328613	22.672066
363.510284	994.402588	8014.384277	2509.899414	21.588331
363.877136	1042.188477	7217.952148	2355.164063	21.260134
364.243988	1064.943726	6578.530762	2245.938965	21.419727
364.610779	969.371887	6378.284668	2261.867676	23.895668
364.977539	1021.708862	6262.233398	2239.112549	23.230570
365.344269	1074.045776	6112.048828	2125.336426	20.867210
365.710938	969.371887	6166.661133	2068.448486	21.147114
366.077576	946.616638	5911.803223	2095.754639	23.143902
366.444183	973.922913	5768.445313	2057.070801	22.591362
366.810760	1033.086426	5761.618652	2166.295898	23.965353
367.177277	1046.739624	5918.629395	2204.979736	23.773939
367.543823	1003.504700	5891.323242	2179.948975	24.068905
367.910248	1019.433350	5898.149902	2138.989502	22.947758
368.276642	976.198425	5893.598633	2195.877686	24.803333
368.643036	1001.229126	5659.220215	2220.908203	26.184658
369.009399	1023.984375	5575.025879	2118.509766	24.049997
369.375671	994.402588	5818.506836	2086.652588	22.641508
369.741974	983.024963	5741.139160	2132.163086	24.151127
370.108215	1037.637451	5693.353027	2093.479248	22.678398
370.474396	983.024963	5770.720703	2218.632813	25.807987
370.840546	1039.912964	5859.465820	2129.887451	22.615677
371.206665	930.687988	5893.598633	2223.183838	26.043102
371.572784	994.402588	5823.057617	2273.245361	26.484449
371.938843	1092.250000	6218.998535	2311.929199	23.790503
372.304840	1028.535400	6027.854492	2255.041016	24.533453
372.670807	1105.903076	5875.394531	2241.387939	23.807253
373.036713	957.994263	6021.027832	2430.256104	29.078650
373.402649	969.371887	5752.516602	2336.959961	28.591822
373.768524	955.718750	5795.751465	2311.929199	28.020687
374.134308	985.300537	5909.527344	2332.408936	27.356750
374.500122	1014.882263	6057.436523	2234.561523	24.187727
374.865875	998.953613	6180.314453	2361.990479	26.306541
375.231567	1096.801025	6100.671387	2380.194824	25.648024
375.597260	1003.504700	6153.008301	2455.286865	28.192665
375.962891	1012.606750	6376.009277	2468.940186	27.153166
376.328461	971.647400	6649.071777	2530.379150	27.454908
376.694031	1035.361938	6735.541504	2591.818115	27.305387
377.059540	1026.259888	6983.573242	2746.553711	28.877007
377.425049	1026.259888	7365.860840	2833.023438	28.499641
377.790497	1035.361938	7591.137207	2860.329590	27.837557
378.155945	1003.504700	7739.046387	3012.789551	29.831081
378.521301	1037.637451	7625.270020	3033.269287	30.293612
378.886597	1099.076538	7493.290039	2903.564453	28.220640
379.251892	1051.290649	7181.543457	2858.054199	29.472904
379.617157	1026.259888	6958.542480	2910.391113	31.760645
379.982422	1039.912964	6769.674316	2803.441650	30.778397
380.347595	1026.259888	6619.490234	2773.859863	31.244913
380.712738	1028.535400	6660.449219	2848.952148	32.323235
381.077820	1008.055725	6710.510742	2855.778564	32.402237
381.442902	1060.392700	6626.316406	2839.849854	31.970562
381.807953	994.402588	6662.725098	2810.268311	32.035328
382.172974	1012.606750	6956.267090	2944.523926	32.503830
382.537933	1028.535400	6585.357422	2880.809326	33.333332
382.902832	955.718750	6637.694336	2949.074951	35.082096
383.267700	1142.311401	6853.868652	3026.442627	32.988049
383.632538	980.749451	7006.328613	3108.361328	35.309666
383.997345	1044.463989	7083.696289	3153.871826	34.928406
384.362152	1021.708862	7279.391113	3260.821289	35.781815
384.726898	1044.463989	7197.472168	3379.148438	37.943790
385.091553	1044.463989	7429.575195	3342.739990	35.994297
385.456238	1023.984375	7334.003418	3276.750000	35.701408
385.820862	976.198425	7420.473145	3461.067139	38.559322
386.185425	955.718750	7504.667480	3506.577637	38.950661
386.549988	998.953613	7459.157227	3638.557861	40.859459
386.914490	976.198425	7770.903320	3649.935303	39.350300
387.278961	1019.433350	7636.647949	3734.129639	41.024757
387.643372	878.351013	8000.730957	3631.731201	38.658146
388.007782	998.953613	7859.648926	3841.079102	41.426201
388.372101	992.127075	7843.720215	3929.824463	42.876118
388.736450	985.300537	7775.454590	3902.518066	42.962463
389.100739	980.749451	7734.495117	3970.783691	44.272236
389.464966	1019.433350	7629.821289	4009.467773	45.232361
389.829163	1046.739624	7825.516113	3829.701416	41.054047
390.193329	1055.841675	7588.861816	4032.222900	45.559044
390.557495	1028.535400	7909.710449	4045.875977	43.849205
390.921570	1076.321289	7850.546875	4161.927734	45.549213
391.285614	1023.984375	8068.996582	4494.153809	49.257111
391.649597	1021.708862	8405.773438	4637.511230	48.967644
392.013550	989.851563	8951.898438	4965.186523	49.928555
392.377502	1012.606750	9054.296875	5006.145996	49.660450
392.741455	973.922913	9017.888672	5090.339844	51.173973
393.105316	1067.219238	9038.368164	5149.503418	51.213245
393.469086	951.167725	8904.113281	5272.381836	54.334763
393.832886	1064.943726	8578.713867	5056.207031	53.119316
394.196655	1017.157776	9006.511719	5103.993164	51.153515
394.560333	980.749451	8997.409180	5301.963379	53.902924
394.924042	1051.290649	9086.154297	5488.556152	55.225151
395.287659	1053.566162	9052.021484	5604.607910	56.899014
395.651245	1042.188477	9020.164063	5443.045898	55.162582
396.014771	951.167725	8744.826172	5474.902832	58.043800
396.378296	1060.392700	8437.630859	5352.024902	58.173969
396.741791	946.616638	8278.344727	5308.790039	59.497208
397.105255	989.851563	8082.649902	5472.627441	63.201794
397.468628	1042.188477	7998.455566	5395.259766	62.577690
397.832001	1019.433350	7966.598145	5413.463867	63.249256
398.195313	992.127075	8253.313477	5456.698730	61.485432
398.558624	1030.810913	7927.914551	5524.964355	65.160011
398.921844	1067.219238	8094.027344	5809.404785	67.487053
399.285095	1042.188477	8207.803711	5629.638672	64.020325
399.648254	1089.974487	8191.875000	5793.476074	66.228775
400.011383	976.198425	8162.292969	5911.803223	68.682716
400.374451	955.718750	8194.150391	5864.017090	67.808868
400.737549	1030.810913	8280.620117	5886.772461	66.980545
401.100586	976.198425	8121.333984	5943.660156	69.522285
401.463562	994.402588	8155.466797	5920.905273	68.795677
401.826508	896.555176	8458.110352	6255.406738	70.869698
402.189392	1005.780212	8062.170410	6025.579102	71.138344
402.552246	1026.259888	8330.681641	6011.925781	68.255447
402.915070	1010.331238	8373.916992	6348.703125	72.496910
403.277893	1010.331238	8380.743164	6501.163086	74.498306
403.640656	1014.882263	8662.907227	6696.857910	74.293373
404.003326	1062.668213	9029.266602	6853.868652	72.693512
404.366028	1046.739624	9038.368164	7172.441406	76.651482
404.728699	994.402588	9240.889648	7313.523926	76.628036
405.091248	951.167725	9561.738281	7411.371094	75.026428
405.453857	926.136963	9445.686523	7604.790527	78.392090
405.816345	967.096313	9520.779297	7531.973633	76.749138
406.178833	1019.433350	9432.034180	7609.341797	78.333778
406.541260	1005.780212	9468.442383	7711.740234	79.241730
406.903687	985.300537	9309.155273	7418.197754	77.282677
407.266052	1051.290649	9236.338867	7468.259277	78.398666
407.628387	989.851563	9049.746094	7165.615234	76.623383
407.990662	1035.361938	8981.480469	7406.820313	80.183281
408.352905	1023.984375	8999.684570	7359.034180	79.429390
408.715118	962.545288	8924.592773	7274.839844	79.279793
409.077332	994.402588	8933.694336	7186.094727	77.987968
409.439484	932.963501	8772.132813	7318.074707	81.451378
409.801575	1046.739624	9174.899414	7500.116699	79.395302
410.163605	1028.535400	9304.604492	7475.085938	77.893867
410.525635	1012.606750	9427.482422	7750.423828	80.070305
410.887604	987.576050	9520.779297	7962.047363	81.733330
411.249573	1037.637451	9743.780273	7989.353516	79.848404
411.611481	1089.974487	9507.125977	8043.965820	82.616920
411.973328	1010.331238	9559.462891	7934.741211	80.995476
412.335144	1078.596802	9650.483398	8064.445801	81.497215
412.696930	1099.076538	9300.053711	7873.301758	82.602654
413.058685	1083.147949	9231.788086	7716.291016	81.401840
413.420410	1051.290649	9363.768555	7780.005859	80.947166
413.782104	1087.698975	9427.482422	7984.802734	82.701233
414.143707	980.749451	9434.309570	7891.506348	81.749657
414.505310	1092.250000	9407.002930	7695.811523	79.419815
414.866852	1019.433350	9736.953125	8080.374512	80.997139
415.228394	1003.504700	9661.861328	8180.497070	82.890930
415.589874	1033.086426	10003.189453	8248.762695	80.441391
415.951324	937.514587	10157.924805	8205.528320	78.825272
416.312683	1080.872437	10415.058594	8560.508789	80.131638
416.674072	985.300537	10469.670898	8803.990234	82.437622
417.035370	978.473938	10924.775391	8999.684570	80.645157
417.396667	1003.504700	10961.183594	9343.288086	83.752281
417.757935	1064.943726	10970.286133	9420.656250	84.355614
418.119141	1055.841675	11334.369141	9702.820313	84.126625
418.480286	1049.015137	11703.003906	9855.280273	82.656982
418.841400	1058.117188	12522.191406	10574.344727	83.009125
419.202484	1021.708862	12820.284180	10640.334961	81.523621
419.563568	1033.086426	13027.356445	10993.041016	83.039284
419.924591	1014.882263	13803.309570	11862.290039	84.822060
420.285553	1030.810913	14037.687500	11650.666016	81.648003
420.646484	1042.188477	14913.763672	12601.833984	83.333328
421.007355	1051.290649	15462.164063	12945.437500	82.535919
421.368225	1026.259888	16101.584961	13666.778320	83.849060
421.729065	1089.974487	16479.322266	13750.972656	82.271179
422.089874	987.576050	17364.500000	14217.454102	80.783653
422.450592	983.024963	17084.609375	14149.188477	81.769363
422.811279	996.678101	16911.669922	14267.515625	83.385765
423.171936	976.198425	16624.955078	13880.676758	82.463280
423.532593	969.371887	16363.270508	13755.523438	83.059868
423.893127	939.790100	16736.455078	13933.013672	82.252953
424.253723	1010.331238	16975.384766	14149.188477	82.297607
424.614197	1003.504700	16904.843750	14272.066406	83.443047
424.974670	1001.229126	17860.562500	14649.802734	80.955589
425.335052	1037.637451	17762.714844	14768.129883	82.095238
425.695496	1055.841675	16866.160156	14233.382813	83.347725
426.055817	1076.321289	17130.121094	14308.474609	82.423813
426.416168	967.096313	16818.375000	14196.974609	83.462532
426.776398	930.687988	16001.461914	13348.205078	82.394691
427.136627	1055.841675	15282.397461	12779.325195	82.405632
427.496826	1053.566162	15086.703125	12399.312500	80.849678
427.856995	1060.392700	14579.261719	12046.607422	81.265785
428.217102	905.657288	14019.483398	11857.739258	83.515533
428.577179	985.300537	13898.880859	11775.820313	83.559471
428.937195	1055.841675	13616.716797	11664.319336	84.456520
429.297180	987.576050	13204.847656	10972.561523	81.728439
429.657135	969.371887	13293.592773	11122.746094	82.385529
430.017059	887.453125	13091.071289	11282.032227	85.176208
430.376984	1026.259888	13015.978516	11018.071289	83.336494
430.736786	1017.157776	12997.774414	10956.632813	82.962967
431.096588	1014.882263	12745.192383	10790.519531	83.336563
431.456360	989.851563	12899.927734	10876.989258	83.014900
431.816071	957.994263	12488.058594	10492.426758	82.691925
432.175781	1026.259888	12676.926758	10845.131836	84.277336
432.535400	944.341125	12747.467773	10640.334961	82.147675
432.895020	1005.780212	12640.517578	10613.029297	82.573837
433.254578	1012.606750	12833.937500	11024.898438	84.696823
433.614105	1108.178589	12959.090820	10972.561523	83.237328
433.973602	1008.055725	13345.929688	11143.225586	82.146812
434.333038	1096.801025	13480.185547	11081.786133	80.632118
434.692444	1028.535400	13648.574219	11234.246094	80.869095
435.051819	1062.668213	13755.523438	11429.941406	81.678024
435.411133	1001.229126	13762.349609	11343.471680	81.044937
435.770416	1008.055725	12706.507813	10952.082031	85.002922
436.129669	1019.433350	13646.297852	11461.797852	82.699585
436.488861	1055.841675	13582.583984	11034.000000	79.654854
436.848083	951.167725	13154.786133	11084.061523	83.031883
437.207184	985.300537	13409.644531	11186.459961	82.106224
437.566254	1051.290649	13618.992188	11384.430664	82.219810
437.925293	962.545288	13618.992188	11398.083984	82.452354
438.284363	989.851563	13593.960938	11427.665039	82.812782
438.643311	1046.739624	13871.575195	11832.708008	84.102196
439.002258	978.473938	13905.708008	11764.442383	83.436012
439.361145	1005.780212	14258.413086	11900.973633	82.211540
439.719971	1055.841675	15034.366211	12497.160156	81.849258
440.078827	998.953613	15066.223633	12592.732422	82.416702
440.437592	962.545288	15662.410156	13122.928711	82.724457
440.796295	1067.219238	15687.440430	13309.521484	83.735420
441.155029	1105.903076	16645.435547	13864.748047	82.105721
441.513672	1044.463989	17287.130859	14440.455078	82.474083
441.872253	1069.494751	16870.710938	14322.127930	83.870972
442.230865	1003.504700	16558.964844	13901.156250	82.913986
442.589386	1028.535400	16499.800781	13780.553711	82.423889
442.947876	1062.668213	16085.656250	13578.032227	83.308090
443.306335	1023.984375	15837.625000	13416.470703	83.655914
443.664764	980.749451	15243.713867	12781.600586	82.737717
444.023102	1026.259888	15676.062500	13050.111328	82.075180
444.381500	1039.912964	15284.672852	12893.100586	83.210861
444.739777	1023.984375	15735.226563	13220.775391	82.907959
445.098022	1003.504700	15892.237305	12906.753906	79.948036
445.456238	1094.525513	15849.001953	13097.897461	81.354103
445.814423	1003.504700	16201.708008	13450.603516	81.898491
446.172577	989.851563	17237.070313	14460.934570	82.913162
446.530701	935.239075	17180.181641	14513.271484	83.583138
446.888733	1035.361938	17885.593750	15107.182617	83.511131
447.246765	998.953613	18686.576172	15569.113281	82.374893
447.604736	1010.331238	18008.470703	14982.029297	82.195457
447.962677	1014.882263	18183.687500	14927.416016	81.033798
448.320587	1005.780212	18363.453125	15286.949219	82.275826
448.678436	1049.015137	18151.830078	14768.129883	80.215538
449.036255	1005.780212	17771.818359	14720.343750	81.799660
449.394043	1003.504700	16533.933594	14219.729492	85.098907
449.751770	1028.535400	17109.640625	14151.463867	81.604645
450.109467	1003.504700	16483.873047	14046.790039	84.256943
450.467163	1044.463989	16372.372070	13700.911133	82.571259
450.824768	1010.331238	16017.390625	13402.817383	82.577713
451.182343	1035.361938	16267.698242	13348.205078	80.833580
451.539886	1033.086426	15546.358398	12815.733398	81.185326
451.897369	1035.361938	15771.634766	12963.641602	80.945023
452.254822	942.065613	15396.173828	12813.458008	82.131615
452.612274	985.300537	16006.013672	13245.806641	81.623993
452.969635	1035.361938	15689.715820	13097.897461	82.313660
453.326965	980.749451	15764.808594	13293.592773	83.284592
453.684326	1019.433350	15425.755859	12961.366211	82.893692
454.041534	967.096313	15271.020508	12713.334961	82.118996
454.398773	983.024963	15034.366211	12283.261719	80.421051
454.755951	1021.708862	14340.332031	12028.403320	82.641380
455.113098	1042.188477	14087.749023	11684.798828	81.580322
455.470215	1019.433350	14294.821289	11900.973633	81.967773
455.827240	1046.739624	14085.473633	11887.320313	83.141357
456.184265	980.749451	13801.033203	11887.320313	85.072777
456.541260	1046.739624	14060.443359	11764.442383	82.357056
456.898193	1039.912964	14140.085938	11723.483398	81.552895
457.255096	987.576050	14360.811523	11998.821289	82.337929
457.611969	1014.882263	14078.647461	11846.361328	82.912384
457.968781	1005.780212	13919.360352	11803.125977	83.612335
458.325531	1078.596802	14208.351563	12149.005859	84.315430
458.682312	1080.872437	15170.897461	12554.047852	81.427643
459.039001	1039.912964	15614.624023	13088.795898	82.669792
459.395630	1014.882263	16395.126953	13753.248047	82.822906
459.752289	1064.943726	17840.083984	14727.170898	81.443298
460.108856	998.953613	18936.884766	16069.727539	84.016228
460.465363	1023.984375	19926.736328	16370.096680	81.184540
460.821899	980.749451	19778.826172	16599.923828	83.089218
461.178345	1035.361938	19248.630859	16026.493164	82.308838
461.534760	1003.504700	19164.435547	15905.890625	82.057388
461.891144	1017.157776	17958.410156	14811.365234	81.423775
462.247467	1030.810913	17052.751953	14463.209961	83.837524
462.603760	1074.045776	16872.986328	13953.493164	81.520958
462.960052	1021.708862	16085.656250	13423.296875	82.326286
463.316254	1008.055725	15343.836914	13091.071289	84.285713
463.672424	1012.606750	15186.826172	12765.671875	82.918610
464.028564	996.678101	14640.701172	12310.567383	82.921944
464.384644	923.861450	14861.426758	12287.812500	81.534691
464.740723	987.576050	15020.712891	12592.732422	82.698235
465.096741	996.678101	14931.967773	12285.537109	81.009148
465.452698	1005.780212	14850.048828	12237.750977	81.130836
465.808655	1014.882263	15086.703125	12488.058594	81.532990
466.164520	932.963501	14636.149414	12103.495117	81.517769
466.520355	1044.463989	15742.052734	13070.591797	81.823814
466.876190	1014.882263	15742.052734	12963.641602	81.134117
467.231964	969.371887	15614.624023	12806.630859	80.826599
467.587677	1105.903076	16049.248047	13311.796875	81.681137
467.943390	976.198425	16326.861328	13482.460938	81.470505
468.299011	1001.229126	15671.511719	13056.938477	82.177757
468.654633	1046.739624	15391.623047	12845.314453	82.249359
469.010223	1051.290649	15471.265625	13204.847656	84.282791
469.365723	1012.606750	15095.804688	12538.119141	81.838745
469.721191	1019.433350	15318.805664	12927.233398	83.274986
470.076660	980.749451	14638.425781	12048.882813	81.039650
470.432068	987.576050	14952.447266	12590.457031	83.086205
470.787445	973.922913	14738.547852	12387.935547	82.922798
471.142792	973.922913	14952.447266	12265.056641	80.774864
471.498016	1008.055725	15013.886719	12535.843750	82.307060
471.853271	1003.504700	15129.937500	12178.586914	79.107605
472.208496	1060.392700	14802.262695	12519.915039	83.391289
472.563660	998.953613	15143.590820	12510.813477	81.386742
472.918762	1117.280762	15389.347656	12952.264648	82.924110
473.273865	1042.188477	15598.695313	13070.591797	82.632484
473.628876	1060.392700	15946.849609	13694.083984	84.867012
473.983917	1012.606750	16167.575195	13411.919922	81.816818
474.338837	1083.147949	16049.248047	13284.490234	81.526527
474.693787	987.576050	16224.462891	13270.836914	80.615295
475.048645	1101.352051	15926.370117	13029.631836	80.460472
475.403503	1069.494751	16169.850586	13425.572266	81.826401
475.758270	980.749451	16495.250000	13641.747070	81.607513
476.113037	1110.454102	16547.587891	13550.726563	80.586670
476.467773	976.198425	16408.781250	13796.482422	83.072838
476.822418	1058.117188	17676.246094	14406.322266	80.323151
477.177063	1062.668213	17132.396484	14313.025391	82.455391
477.531647	980.749451	17414.560547	14602.016602	82.885628
477.886200	1008.055725	18201.890625	15195.927734	82.517212
478.240723	1005.780212	18295.187500	15307.428711	82.719131
478.595184	985.300537	19080.242188	15250.540039	78.835510
478.949585	1037.637451	18961.914063	15425.755859	80.271675
479.303986	1051.290649	19321.447266	15910.441406	81.330177
479.658325	1042.188477	19337.375000	16160.749023	82.636818
480.012634	1035.361938	19423.845703	16076.554688	81.796806
480.366913	996.678101	20224.828125	16431.535156	80.272186
480.721130	1046.739624	20661.728516	16690.945313	79.756386
481.075317	1069.494751	21223.783203	17328.091797	80.670654
481.429474	1115.005249	22045.246094	18249.677734	81.865623
481.783569	989.851563	23123.841797	19093.894531	81.792946
482.137604	1071.770264	24163.755859	19837.990234	81.267242
482.491669	1030.810913	26459.755859	21749.427734	81.476509
482.845612	1030.810913	29160.798828	24054.531250	81.847603
483.199554	1074.045776	33149.785156	27306.250000	81.782074
483.553436	998.953613	38524.566406	32207.720703	83.166573
483.907318	1003.504700	45344.304688	37746.339844	82.864616
484.261139	983.024963	51326.648438	43259.925781	83.976677
484.614899	1026.259888	54510.101563	46131.632813	84.334579
484.968628	973.922913	54027.691406	45455.804688	83.843018
485.322357	1039.912964	50866.992188	42700.148438	83.609627
485.675964	971.647400	47758.628906	39357.406250	82.043671
486.029572	1023.984375	43282.679688	35991.914063	82.747299
486.383148	1010.331238	40351.808594	33625.371094	82.902428
486.736694	1049.015137	38822.660156	31825.433594	81.475906
487.090149	1012.606750	38583.730469	31443.146484	80.994484
487.443604	1028.535400	39628.195313	32699.234375	82.049164
487.796997	1035.361938	41382.621094	34287.546875	82.414978
488.150360	1023.984375	42925.425781	35791.667969	82.974907
488.503693	1030.810913	43594.425781	35907.718750	81.940659
488.856964	1023.984375	42408.882813	35004.335938	82.108093
489.210175	983.024963	40272.167969	33008.703125	81.512787
489.563416	983.024963	38008.023438	31195.115234	81.599159
489.916565	1037.637451	35844.003906	29056.125000	80.498169
490.269653	1062.668213	33297.695313	27454.158203	81.872086
490.622772	1001.229126	32132.628906	26757.849609	82.735184
490.975769	1060.392700	32842.589844	27051.390625	81.778481
491.328735	1010.331238	33934.839844	27872.853516	81.588226
491.681732	978.473938	36201.261719	29320.085938	80.463844
492.034607	1003.504700	37976.167969	31226.972656	81.745445
492.387482	973.922913	39063.867188	31841.363281	81.038284
492.740326	1001.229126	37571.125000	31110.919922	82.334641
493.093079	985.300537	36239.945313	29763.812500	81.630409
493.445862	1028.535400	32954.093750	26757.849609	80.591591
493.798523	932.963501	30325.865234	25039.830078	82.015945
494.151215	1039.912964	28327.958984	22909.943359	80.145096
494.503815	964.820801	26236.753906	21462.712891	81.109314
494.856384	1023.984375	24600.656250	20238.482422	81.497925
495.208923	1067.219238	23574.394531	19189.466797	80.517647
495.561432	930.687988	22859.882813	18945.986328	82.152122
495.913879	1051.290649	22625.503906	18497.708984	80.866997
496.266296	1021.708862	22684.666016	18738.914063	81.785721
496.618683	1023.984375	22680.115234	18643.341797	81.359673
496.970978	980.749451	23408.283203	19155.333984	81.036926
497.323273	992.127075	24020.398438	19307.794922	79.535576
497.675507	994.402588	24147.826172	19260.007813	78.889435
498.027710	983.024963	23888.417969	19501.212891	80.846413
498.379852	1046.739624	23572.119141	19221.324219	80.684921
498.731995	985.300537	23344.568359	18955.087891	80.368408
499.084076	948.892151	22862.158203	18932.333984	82.066460
499.436096	971.647400	22666.462891	18536.392578	80.962868
499.788086	1008.055725	22391.125000	18281.533203	80.781097
500.140106	1051.290649	21822.244141	17544.265625	79.404030
500.491943	1023.984375	20848.322266	17289.406250	82.047745
500.843842	1021.708862	21160.068359	17278.029297	80.723160
501.195679	944.341125	20466.033203	16829.751953	81.373131
501.547455	976.198425	20277.166016	16527.107422	80.570625
501.899231	1051.290649	20197.523438	16518.005859	80.782028
502.250885	1028.535400	19947.214844	16206.258789	80.226128
502.602600	1051.290649	19785.654297	15951.400391	79.533577
502.954193	1033.086426	19669.601563	16028.768555	80.463974
503.305786	1014.882263	19894.878906	16356.443359	81.258286
503.657379	1042.188477	19983.623047	16254.044922	80.309952
504.008820	1037.637451	19753.796875	16392.851563	82.042542
504.360291	1087.698975	20277.166016	16415.607422	79.876678
504.711700	1049.015137	20147.460938	16675.015625	81.818176
505.063080	1071.770264	20190.695313	16609.025391	81.266357
505.414368	1055.841675	20272.615234	16306.381836	79.360565
505.765656	1089.974487	20070.093750	16354.167969	80.422012
506.116943	989.851563	20126.982422	16081.105469	78.858498
506.468109	1060.392700	20024.583984	16238.116211	80.033592
506.819305	1023.984375	19694.632813	16140.269531	80.962830
507.170410	1030.810913	19929.011719	16178.953125	80.156532
507.521484	964.820801	19719.664063	16031.043945	80.332436
507.872559	1033.086426	19860.746094	16401.953125	81.629196
508.223480	978.473938	19835.714844	16231.290039	80.885727
508.574493	1085.423462	20527.472656	16679.568359	80.208336
508.925385	1083.147949	20538.851563	16727.353516	80.409355
509.276245	1053.566162	20773.228516	17009.517578	80.913918
509.627045	1033.086426	21519.599609	17369.050781	79.740089
509.977814	1028.535400	21519.599609	17532.888672	80.544151
510.328613	1092.250000	21722.121094	17537.439453	79.715424
510.679260	1008.055725	21576.488281	17567.021484	80.506699
511.029999	1008.055725	21788.111328	17703.552734	80.343849
511.380585	1014.882263	22104.408203	17869.664063	79.920151
511.731140	1019.433350	22202.255859	18079.013672	80.534973
512.081726	1017.157776	22482.146484	18393.035156	80.949852
512.432129	1085.423462	22673.289063	18163.207031	79.108253
512.782654	996.678101	22486.697266	18488.607422	81.395599
513.133057	951.167725	23032.822266	18668.373047	80.234955
513.483398	1060.392700	22814.371094	18254.228516	79.037659
513.833801	1008.055725	22716.523438	18861.791016	82.243187
514.183960	1028.535400	22448.013672	18051.707031	79.475189
514.534302	998.953613	22070.275391	18019.849609	80.777542
514.884460	1012.606750	22083.929688	18017.574219	80.701942
515.234619	992.127075	22045.246094	17808.226563	79.874626
515.584717	1014.882263	21797.212891	17871.939453	81.112450
515.934753	1128.658325	21990.632813	17758.164063	79.712044
516.284851	1008.055725	22450.289063	17917.451172	78.860237
516.634766	1055.841675	22218.185547	18354.351563	81.741936
516.984741	957.994263	22566.339844	17994.818359	78.843719
517.334595	1062.668213	23658.589844	18782.148438	78.418930
517.684448	1008.055725	24029.500000	19614.990234	80.824356
518.034363	998.953613	24994.320313	20365.912109	80.711243
518.384094	962.545288	26125.253906	21148.689453	80.222458
518.733826	978.473938	27258.462891	21922.367188	79.695213
519.083496	1005.780212	27786.384766	22268.246094	79.395020
519.433167	983.024963	28391.673828	22682.390625	79.169777
519.782776	980.749451	28018.488281	22516.279297	79.649895
520.132324	1055.841675	27406.373047	22002.009766	79.490494
520.481873	996.678101	27067.320313	21665.234375	79.279045
520.831299	973.922913	26332.326172	21319.353516	80.231514
521.180786	928.412476	25538.169922	20475.136719	79.426727
521.530151	1033.086426	25333.373047	20675.382813	80.831543
521.879517	1019.433350	24898.748047	20031.410156	79.616928
522.228882	978.473938	24682.574219	19878.949219	79.735046
522.578064	978.473938	24318.490234	19947.214844	81.271324
522.927307	1044.463989	24666.644531	19856.195313	79.635880
523.276489	976.198425	24539.216797	19749.244141	79.671654
523.625610	978.473938	24946.535156	19917.632813	79.018318
523.974792	1064.943726	25497.210938	20158.837891	78.150314
524.323792	1001.229126	25706.558594	20975.750000	80.851059
524.672852	994.402588	26275.439453	20982.578125	79.063904
525.021790	978.473938	27524.699219	21769.908203	78.321625
525.370728	1035.361938	28537.306641	23076.056641	80.142311
525.719604	985.300537	29777.464844	23963.509766	79.807159
526.068420	1108.178589	31479.554688	25319.720703	79.718292
526.417297	992.127075	32901.753906	26696.410156	80.553383
526.765991	944.341125	33887.054688	27342.658203	80.134003
527.114746	1060.392700	35222.785156	28091.304688	79.124771
527.463379	1055.841675	36053.351563	29260.921875	80.591675
527.812012	1001.229126	38438.097656	31163.257813	80.567719
528.160706	1053.566162	41387.171875	33650.402344	80.818054
528.509155	985.300537	46315.949219	37650.765625	80.884491
528.857727	1039.912964	50969.390625	41981.082031	81.997993
529.206177	1005.780212	54070.925781	44993.871094	82.894508
529.554565	1012.606750	54073.199219	45005.250000	82.910202
529.902893	998.953613	52443.929688	43473.824219	82.563690
530.251221	1017.157776	50188.886719	40688.585938	80.679344
530.599548	1017.157776	45942.765625	37484.652344	81.173073
530.947876	1062.668213	42509.003906	34160.117188	79.856155
531.296021	1076.321289	39357.406250	31317.992188	78.998993
531.644165	1035.361938	36788.343750	29497.576172	79.607948
531.992249	1042.188477	35086.253906	28141.365234	79.600288
532.340454	1083.147949	34189.699219	27488.291016	79.758057
532.688354	1017.157776	34521.925781	27360.861328	78.626724
533.036438	1014.882263	35602.796875	28489.519531	79.434212
533.384338	1039.912964	37878.320313	30187.058594	79.121628
533.732239	1037.637451	39521.246094	32066.638672	80.629135
534.080139	1039.912964	39537.175781	32030.230469	80.500061
534.427917	978.473938	39336.929688	31946.037109	80.732033
534.775757	976.198425	37361.777344	29829.802734	79.299561
535.123474	998.953613	35639.207031	28878.634766	80.483482
535.471191	955.718750	33807.414063	26974.023438	79.199272
535.818848	1003.504700	32505.814453	26025.130859	79.427910
536.166382	1055.841675	31814.056641	24969.289063	77.746536
536.513977	1017.157776	31666.148438	25269.658203	79.129852
536.861511	1001.229126	31868.667969	25861.292969	80.538147
537.208984	1030.810913	32446.650391	25731.589844	78.625237
537.556396	1126.382813	31916.455078	25360.679688	78.708153
537.903809	1023.984375	31263.380859	25048.933594	79.449165
538.251160	1012.606750	30733.183594	24323.041016	78.431969
538.598389	1046.739624	29076.605469	23376.425781	79.663910
538.945740	973.922913	28252.867188	22527.656250	79.012344
539.292969	1023.984375	27486.015625	22127.164063	79.748901
539.640137	1026.259888	27957.048828	22238.664063	78.766365
539.987244	980.749451	27761.353516	22222.736328	79.318550
540.334351	932.963501	28810.369141	22702.871094	78.091583
540.681458	1021.708862	30639.886719	24336.695313	78.718506
541.028442	1039.912964	33350.031250	26644.072266	79.245018
541.375366	1055.841675	36401.507813	29308.707031	79.933037
541.722290	1039.912964	39264.113281	31443.146484	79.539230
542.069153	1055.841675	41400.824219	32929.062500	79.001694
542.416016	996.678101	40779.609375	32783.429688	79.900482
542.762756	1019.433350	40019.585938	31952.863281	79.316177
543.109558	1019.433350	38931.886719	30922.052734	78.872818
543.456299	1026.259888	36640.437500	29677.341797	80.448532
543.802917	1119.556274	35011.164063	28191.427734	79.877800
544.149536	985.300537	33793.757813	26550.777344	77.923431
544.496094	1023.984375	31297.513672	25035.279297	79.314491
544.842651	1071.770264	30237.121094	23792.845703	77.904343
545.189148	987.576050	28630.603516	22857.607422	79.115906
545.535583	1096.801025	27784.109375	22309.205078	79.484985
545.882019	1035.361938	26901.207031	21492.294922	79.088593
546.228333	1071.770264	26491.613281	21556.007813	80.583649
546.574707	1014.882263	26751.023438	21323.906250	78.912468
546.920898	942.065613	26657.726563	21216.955078	78.842575
547.267212	1023.984375	26755.574219	21594.693359	79.943405
547.613342	1049.015137	26541.673828	21278.394531	79.353745
547.959473	1035.361938	26193.519531	20791.433594	78.527496
548.305664	1008.055725	25442.597656	20359.083984	79.195381
548.651611	1035.361938	24455.021484	19414.744141	78.478432
548.997742	1028.535400	23385.527344	18563.699219	78.432571
549.343689	1064.943726	22402.501953	17815.052734	78.500587
549.689575	1049.015137	21763.080078	17196.111328	77.952332
550.035522	1049.015137	20896.107422	16522.556641	77.963768
550.381287	1001.229126	20322.675781	16233.565430	78.836411
550.727173	1026.259888	19974.521484	15869.482422	78.335541
551.072876	1062.668213	19280.488281	15421.204102	78.815887
551.418640	1021.708862	19439.773438	15655.583008	79.453918
551.764282	932.963501	19207.671875	15462.164063	79.504410
552.109863	973.922913	19280.488281	15189.101563	77.650719
552.455505	969.371887	19421.570313	15703.369141	79.849548
552.801025	1083.147949	20122.429688	15598.695313	76.239990
553.146545	1026.259888	20270.339844	15828.522461	76.918526
553.491943	948.892151	20111.052734	15940.023438	78.232986
553.837341	935.239075	20309.023438	16153.921875	78.552963
554.182800	957.994263	19999.552734	15901.339844	78.477531
554.528015	983.024963	19578.580078	15626.000977	78.744492
554.873352	1089.974487	19385.162109	15173.172852	76.977608
555.218628	1076.321289	19194.017578	15025.263672	76.990707
555.563721	1060.392700	18736.638672	14927.416016	78.450050
555.908875	1089.974487	18420.341797	14565.608398	77.757347
556.254028	1033.086426	17931.103516	14356.260742	78.844597
556.599121	1017.157776	17849.185547	14301.648438	78.923889
556.944031	985.300537	17860.562500	13896.605469	76.510246
557.289063	1033.086426	17730.857422	14217.454102	78.958839
557.633972	964.820801	17719.480469	13983.075195	77.699303
557.978882	1069.494751	17601.154297	13953.493164	77.935295
558.323792	973.922913	17553.367188	13730.492188	76.942085
558.668518	1012.606750	17373.601563	13680.430664	77.426979
559.013306	987.576050	17098.263672	13596.236328	78.262711
559.358032	1010.331238	17109.640625	13446.052734	77.243820
559.702637	969.371887	17095.988281	13789.656250	79.497673
560.047363	1019.433350	17102.814453	13450.603516	77.292023
560.391846	917.034912	17191.560547	13268.561523	75.894852
560.736450	1030.810913	17118.742188	13566.655273	77.920799
561.080933	1021.708862	16977.660156	13657.675781	79.192818
561.425354	1021.708862	17328.091797	13721.390625	77.881660
561.769775	1049.015137	17312.162109	13882.952148	78.914238
562.114136	989.851563	17692.173828	13835.166016	76.907356
562.458496	1030.810913	17416.835938	13789.656250	77.864189
562.802673	1026.259888	17412.285156	13703.186523	77.364258
563.146912	1108.178589	17093.712891	13867.023438	79.814941
563.491150	1053.566162	17059.580078	13719.115234	79.129936
563.835266	1101.352051	16948.078125	13416.470703	77.713959
564.179443	1058.117188	17239.345703	13598.512695	77.499649
564.523438	1103.627563	17091.437500	13498.389648	77.526329
564.867493	980.749451	17114.191406	13436.950195	77.207336
565.211426	1042.188477	17678.521484	13698.634766	76.077141
565.555359	983.024963	17692.173828	14137.810547	78.728043
565.899231	976.198425	18320.218750	14344.882813	77.079506
566.243042	983.024963	18700.230469	14415.423828	75.815559
566.586914	1060.392700	18768.496094	15073.049805	79.131325
566.930603	1023.984375	19339.650391	15125.386719	76.990936
567.274292	969.371887	19325.998047	15230.060547	77.686867
567.617981	998.953613	18879.996094	15327.908203	80.134895
567.961609	1014.882263	19139.406250	14884.181641	76.522285
568.305237	1012.606750	18536.392578	14558.782227	77.301651
568.648682	1044.463989	18340.697266	14383.567383	77.121437
568.992188	1064.943726	17919.726563	14344.882813	78.790329
569.335632	978.473938	17937.929688	13876.125977	76.049919
569.679016	971.647400	17994.818359	14128.708984	77.289131
570.022461	1058.117188	17733.132813	13903.431641	77.033295
570.365662	978.473938	17981.166016	14156.014648	77.502678
570.708984	987.576050	17746.787109	14096.851563	78.221313
571.052185	971.647400	18099.492188	14042.239258	76.311943
571.395386	1019.433350	18449.921875	14381.291016	76.657967
571.738525	1021.708862	18738.914063	14597.465820	76.624710
572.081604	1044.463989	19025.628906	15191.376953	78.676292
572.424683	957.994263	19378.335938	15318.805664	77.961700
572.767578	1046.739624	19817.509766	15148.141602	75.124260
573.110596	1046.739624	19407.916016	15257.367188	77.394981
573.453552	1053.566162	19733.316406	15382.520508	76.708488
573.796387	1019.433350	19287.314453	15148.141602	77.341805
574.139282	1051.290649	18823.107422	14799.987305	77.362358
574.481995	1101.352051	18606.933594	14647.527344	77.382034
574.824768	1003.504700	18488.607422	14349.434570	76.327431
575.167480	1028.535400	18643.341797	14483.689453	76.385475
575.510132	998.953613	18522.740234	14563.333008	77.405525
575.852722	1008.055725	18372.554688	14495.067383	77.670036
576.195251	1023.984375	18468.126953	14424.526367	76.819725
576.537842	1060.392700	18079.013672	14388.118164	78.312607
576.880188	960.269775	17767.265625	13944.391602	77.254272
577.222717	1017.157776	17673.970703	13703.186523	76.161201
577.565063	1035.361938	17168.804688	13487.011719	77.179123
577.907410	996.678101	16872.986328	13081.968750	76.121544
578.249756	951.167725	16279.076172	12943.162109	78.236336
578.591919	980.749451	16035.594727	12697.406250	77.826485
578.934204	994.402588	15771.634766	12369.731445	76.978752
579.276306	1001.229126	15484.918945	12139.903320	76.904945
579.618469	998.953613	15143.590820	11800.850586	76.367439
579.960571	1026.259888	15214.131836	11875.943359	76.471535
580.302551	971.647400	14713.517578	11375.328125	75.707893
580.644531	942.065613	14836.395508	11525.512695	76.170982
580.986511	1030.810913	14563.333008	11518.686523	77.501266
581.328369	1060.392700	14451.833008	11150.051758	75.344093
581.670227	1023.984375	14410.873047	11093.164063	75.216728
582.012024	1017.157776	14306.199219	11247.899414	76.986305
582.353821	1008.055725	14240.208984	11252.450195	77.420464
582.695496	951.167725	14176.494141	11131.847656	76.978668
583.037231	962.545288	14121.881836	10886.091797	75.410690
583.378845	1030.810913	14183.321289	10993.041016	75.743942
583.720398	1005.780212	13846.543945	10936.153320	77.334755
584.062012	994.402588	13942.116211	10813.274414	75.834793
584.403442	985.300537	13917.084961	10892.917969	76.614464
584.744934	1008.055725	13853.371094	10779.141602	76.067307
585.086365	1058.117188	13757.798828	11031.724609	78.534309
585.427734	1012.606750	13748.696289	10676.743164	75.879936
585.768982	1094.525513	13810.135742	10613.029297	74.856842
586.110291	1023.984375	13591.685547	10799.622070	77.783813
586.451599	1021.708862	13703.186523	10672.192383	76.099045
586.792725	1060.392700	13728.216797	10567.518555	75.049400
587.133850	1023.984375	13766.900391	10544.763672	74.714287
587.474915	1037.637451	13628.093750	10708.600586	76.811859
587.815979	992.127075	13646.297852	10795.070313	77.468079
588.157043	937.514587	13705.461914	10790.519531	77.169846
588.497925	978.473938	13894.330078	10679.019531	75.105713
588.838867	1067.219238	13568.930664	10872.438477	78.431015
589.179749	989.851563	13976.249023	10783.693359	75.416153
589.520569	1042.188477	13732.767578	10997.591797	78.447197
589.861450	1021.708862	14237.933594	11118.194336	76.394623
590.202087	957.994263	14044.514648	11043.102539	77.064857
590.542847	955.718750	14504.169922	11243.348633	75.932144
590.883484	1021.708862	14133.259766	11059.031250	76.553284
591.224121	1099.076538	14397.219727	11063.582031	74.931557
591.564636	1021.708862	14085.473633	11052.204102	76.781044
591.905151	1035.361938	14039.962891	11018.071289	76.762901
592.245667	1019.433350	13867.023438	10810.999023	76.213249
592.585999	1033.086426	13928.462891	10738.182617	75.260269
592.926453	1080.872437	13746.420898	10496.977539	74.344238
593.266724	1044.463989	13719.115234	10715.427734	76.301613
593.607056	955.718750	13707.737305	10522.007813	75.017845
593.947388	980.749451	13898.880859	10699.499023	75.233398
594.287476	1003.504700	14074.095703	10708.600586	74.251396
594.627686	1067.219238	14406.322266	11086.336914	75.110870
594.967773	1064.943726	14235.658203	11099.990234	76.192123
595.307861	1030.810913	14349.434570	11179.633789	76.200241
595.647888	1030.810913	14388.118164	11197.837891	76.115845
595.987854	962.545288	14731.721680	11450.420898	76.169228
596.327820	1033.086426	14972.926758	11525.512695	75.269341
596.667725	1069.494751	15480.368164	11912.351563	75.240799
597.007568	1096.801025	15842.175781	12431.169922	76.867287
597.347351	1037.637451	15912.716797	12595.007813	77.696190
597.687073	960.269775	16834.302734	12902.203125	75.229362
598.026794	1119.556274	16295.004883	12554.047852	75.348625
598.366455	1019.433350	15691.991211	12620.038086	79.063278
598.706116	998.953613	15669.236328	11987.443359	74.903053
599.045654	1121.831787	14975.202148	11825.881836	77.266754
599.385193	1028.535400	14322.127930	10977.112305	74.837387
599.724731	1083.147949	14010.381836	11029.449219	76.940674
600.064087	960.269775	13609.889648	10911.122070	78.665230
600.403564	1080.872437	13289.041016	10681.294922	78.639336
600.742920	1017.157776	13282.214844	10260.323242	75.361778
601.082153	1019.433350	13243.531250	10235.292969	75.390915
601.421387	1089.974487	13184.367188	9941.750000	73.189087
601.760620	973.922913	12961.366211	10194.333008	76.917236
602.099854	1051.290649	13034.183594	10171.578125	76.110901
602.438843	1008.055725	13145.683594	10189.782227	75.646797
602.778015	1130.933838	13473.358398	10205.710938	73.525078
603.117065	994.402588	13805.584961	10806.448242	76.589699
603.456055	1064.943726	14126.433594	11008.969727	76.132401
603.794983	1033.086426	14367.638672	11202.388672	76.262794
604.133850	1055.841675	15048.019531	11502.757813	74.662544
604.472778	1094.525513	15348.387695	11916.902344	75.925926
604.811584	1099.076538	15901.339844	12517.639648	77.140656
605.150330	1017.157776	16470.218750	12510.813477	74.377853
605.489075	994.402588	16515.730469	12802.080078	76.073891
605.827698	998.953613	16563.515625	12360.628906	72.997078
606.166382	1010.331238	16112.962891	12531.292969	76.284462
606.504883	1035.361938	15646.481445	12087.566406	75.642418
606.843445	967.096313	15063.947266	11675.697266	75.964493
607.181946	978.473938	14679.384766	11134.123047	74.123901
607.520386	980.749451	14192.422852	10988.490234	75.749229
607.858826	996.678101	13828.339844	10754.111328	76.041855
608.197083	967.096313	13905.708008	10578.896484	74.287720
608.535461	1021.708862	13275.388672	10401.405273	76.545959
608.873718	1033.086426	13669.053711	10547.039063	75.292641
609.211914	973.922913	14046.790039	10785.968750	75.056572
609.550171	983.024963	14451.833008	10952.082031	74.015884
609.888245	992.127075	14631.598633	11191.011719	74.774780
610.226318	987.576050	14956.998047	11468.625000	75.028511
610.564392	1021.708862	14897.834961	11561.920898	75.959328
610.902344	1021.708862	14622.497070	11561.920898	77.497070
611.240295	1049.015137	14636.149414	11393.532227	76.134651
611.578247	1064.943726	14258.413086	11036.276367	75.577789
611.916138	1042.188477	13910.258789	10988.490234	77.294434
612.253845	1051.290649	13443.777344	10585.722656	76.937195
612.591675	1058.117188	13416.470703	10351.343750	75.197937
612.929382	957.994263	12934.060547	10144.271484	76.705299
613.267090	1046.739624	12488.058594	9948.577148	77.804298
613.604736	1028.535400	12372.006836	9538.983398	75.025078
613.942261	1017.157776	12112.597656	9564.013672	77.030350
614.279785	1039.912964	11860.014648	9520.779297	78.380653
614.617310	1005.780212	12042.055664	9152.144531	73.814438
614.954712	953.443237	11885.044922	9174.899414	75.208160
615.292175	1026.259888	11737.136719	9158.971680	75.929466
615.629517	948.892151	11630.186523	9143.042969	76.714958
615.966797	1001.229126	11527.788086	9188.552734	77.777779
616.304138	1028.535400	11693.901367	9172.624023	76.360146
616.641296	987.576050	11602.880859	9297.778320	78.285103
616.978516	996.678101	11516.411133	8895.010742	75.081108
617.315552	1005.780212	11798.575195	9163.522461	75.585075
617.652771	1062.668213	11573.298828	9106.633789	76.531715
617.989685	921.585938	11616.534180	9115.736328	76.617020
618.326721	1021.708862	11552.819336	9072.500977	76.447701
618.663696	987.576050	11834.983398	9213.583984	75.833862
619.000549	1060.392700	11637.013672	9036.092773	75.408775
619.337463	1012.606750	11807.677734	8851.776367	72.618042
619.674194	946.616638	11466.349609	8920.041992	75.794937
620.010986	1001.229126	11600.605469	9052.021484	75.955345
620.347778	957.994263	11459.522461	8961.000977	76.208023
620.684387	1071.770264	11509.583984	8640.152344	72.509262
621.020996	1096.801025	11350.297852	8785.786133	74.988907
621.357605	1037.637451	11329.818359	8799.438477	75.414543
621.694214	1062.668213	11236.521484	8769.857422	75.754868
622.030579	1074.045776	10881.540039	8571.886719	76.450119
622.367065	998.953613	11088.613281	8571.886719	75.056374
622.703430	912.483826	11081.786133	8628.774414	75.878265
623.039795	1064.943726	11034.000000	8423.977539	73.818756
623.376160	1035.361938	10913.397461	8558.233398	76.157570
623.712402	1042.188477	11024.898438	8512.723633	74.834740
624.048645	1003.504700	11022.623047	8615.122070	75.970932
624.384766	939.790100	10933.877930	8417.151367	74.817848
624.720886	1014.882263	11220.592773	8530.927734	73.645485
625.057007	1046.739624	11140.950195	8603.744141	74.864738
625.392944	983.024963	11095.439453	8551.407227	74.842491
625.729004	1039.912964	11034.000000	8517.274414	74.817856
626.064941	1033.086426	11325.266602	8913.214844	76.564232
626.400818	1037.637451	11498.207031	8986.031250	75.984329
626.736633	994.402588	11855.462891	9097.532227	74.607170
627.072449	1005.780212	11951.035156	9304.604492	75.821205
627.408264	1026.259888	12112.597656	9402.452148	75.554184
627.743896	987.576050	12048.882813	9375.145508	75.828018
628.079590	973.922913	12069.362305	9477.543945	76.640686
628.415161	957.994263	12035.229492	9281.849609	75.143799
628.750793	1012.606750	11803.125977	8992.858398	73.956139
629.086365	1049.015137	11607.431641	8922.317383	74.568970
629.421753	1055.841675	11475.451172	8608.294922	72.483070
629.757263	973.922913	11261.552734	8851.776367	76.575981
630.092651	1053.566162	10892.917969	8601.468750	76.711380
630.427917	1017.157776	10949.805664	8348.885742	73.814438
630.763184	1051.290649	10649.437500	8421.702148	76.789948
631.098511	1083.147949	10704.049805	8194.150391	73.912010
631.433716	1042.188477	10478.773438	8196.425781	75.813835
631.768799	978.473938	10617.580078	8114.507324	74.032104
632.103943	955.718750	10476.498047	7930.189941	73.255257
632.438965	1030.810913	10244.394531	7855.097656	74.067665
632.773987	1053.566162	10330.864258	7618.443848	70.762825
633.109070	1044.463989	10333.139648	7848.271484	73.248413
633.443848	969.371887	10146.546875	7700.362305	73.344910
633.778870	1058.117188	10203.435547	7932.465332	75.167946
634.113708	1058.117188	10194.333008	7934.741211	75.267746
634.448425	1039.912964	10264.874023	7741.321777	72.644302
634.783264	1001.229126	10155.649414	7807.312012	74.347504
635.117859	1021.708862	10110.138672	7832.342773	74.937408
635.452576	994.402588	10096.485352	7923.363281	76.125000
635.787170	962.545288	10130.618164	7732.219727	73.839661
636.121704	985.300537	9994.086914	7465.983887	71.937370
636.456177	1014.882263	9859.832031	7641.198730	74.916382
636.790588	1042.188477	9843.903320	7575.208984	74.224403
637.125122	1014.882263	9577.666992	7336.279297	73.824074
637.459412	1028.535400	9525.330078	7445.503906	75.522224
637.793762	985.300537	9320.533203	7343.105469	76.276276
638.128052	1008.055725	9450.238281	7074.594238	71.859833
638.462280	1071.770264	9445.686523	7056.390137	71.467400
638.796509	1064.943726	9313.707031	7258.911133	75.089645
639.130615	996.678101	9161.247070	6972.195801	73.188400
639.464722	1012.606750	9138.491211	6919.858887	72.696724
639.798767	1046.739624	9152.144531	6990.399902	73.329590
640.132751	1030.810913	8701.591797	6790.154297	75.081581
640.466736	1037.637451	8819.918945	6953.991699	76.023399
640.800598	953.443237	8667.458984	6931.236328	77.492622
641.134521	978.473938	8669.734375	6806.082520	75.769226
641.468262	1008.055725	8635.601563	6737.816895	75.119331
641.802063	1035.361938	8717.520508	6790.154297	74.911140
642.135803	1012.606750	8615.122070	6776.500977	75.815620
642.469421	1042.188477	8519.549805	6674.102539	75.319542
642.803101	1019.433350	8471.763672	6680.929199	75.969475
643.136658	971.647400	8444.458008	6521.642578	74.269180
643.470215	1035.361938	8376.192383	6567.152832	75.356476
643.803711	1026.259888	8540.029297	6407.866699	71.623260
644.137085	1046.739624	8387.569336	6612.663574	75.821457
644.470581	1058.117188	8403.498047	6335.049805	71.840149
644.803833	980.749451	8398.947266	6617.214355	75.981590
645.137207	957.994263	8237.385742	6621.765625	77.805565
645.470459	1005.780212	8335.232422	6316.845703	72.461967
645.803589	983.024963	8173.670898	6328.223145	74.335442
646.136780	928.412476	8376.192383	6624.041016	76.474182
646.469849	971.647400	8373.916992	6469.305664	74.269897
646.802979	998.953613	8376.192383	6380.560547	72.948799
647.135986	980.749451	8553.682617	6462.479004	72.385818
647.468994	1083.147949	8446.733398	6453.376953	72.929543
647.801941	1037.637451	8362.539063	6494.336426	74.495193
648.134766	1023.984375	8357.988281	6439.723633	73.844238
648.467651	1042.188477	8403.498047	6498.887207	74.126740
648.800354	964.820801	8298.824219	6387.386719	73.937325
649.133179	1021.708862	8344.334961	6432.897461	73.896828
649.465881	1035.361938	8348.885742	6594.459473	76.011208
649.798462	1012.606750	8442.182617	6446.550293	73.139351
650.131104	1083.147949	8251.038086	6416.968750	74.412704
650.463623	1069.494751	8323.855469	6446.550293	74.121704
650.796143	1092.250000	8467.212891	6401.040039	71.983955
651.128662	1033.086426	8385.293945	6510.265137	74.497063
651.461060	1042.188477	8287.446289	6501.163086	75.345482
651.793396	1003.504700	8301.099609	6644.520508	77.299660
652.125732	976.198425	8371.640625	6494.336426	74.615387
652.458008	1033.086426	8428.529297	6350.978516	71.907692
652.790222	1019.433350	8419.426758	6457.928223	73.493248
653.122437	1030.810913	8269.242188	6353.253906	73.530334
653.454529	1051.290649	8401.222656	6296.366211	71.362236
653.786621	1012.606750	8291.998047	6230.375977	71.678650
654.118713	951.167725	8191.875000	6373.733887	74.890015
654.450623	983.024963	8198.701172	6357.805176	74.487549
654.782654	1010.331238	8139.538086	6259.957520	73.635490
655.114502	1012.606750	8100.854004	6180.314453	72.905296
655.446350	1012.606750	7843.720215	6091.569336	74.350433
655.778198	1023.984375	7959.771973	6046.058594	72.408134
656.109863	1101.352051	8071.272461	6102.946777	71.759712
656.441650	1051.290649	8034.863770	6348.703125	75.855331
656.773254	1092.250000	7814.138672	6039.232422	73.595123
657.104919	1012.606750	8175.946289	6068.813965	70.584496
657.436462	1046.739624	8105.405273	6132.528320	72.050285
657.767944	998.953613	7989.353516	6218.998535	74.674484
658.099548	1023.984375	8228.283203	6255.406738	72.615288
658.430908	1064.943726	8326.130859	6385.111328	73.268562
658.762268	1046.739624	8417.151367	6569.428711	74.930534
659.093628	1012.606750	8549.131836	6653.623047	74.849037
659.424927	907.932800	8892.735352	6837.939941	74.266174
659.756226	967.096313	9320.533203	7070.042969	73.059113
660.087341	1030.810913	9304.604492	7263.462402	75.330032
660.418518	1033.086426	9334.186523	7286.217773	75.328949
660.749573	1087.698975	9213.583984	7217.952148	75.441055
661.080627	992.127075	9229.512695	7122.379883	74.419884
661.411621	1044.463989	9020.164063	6951.715820	74.065620
661.742554	1005.780212	8890.459961	6881.174805	74.516594
662.073547	1035.361938	8540.029297	6649.071777	74.802917
662.404297	1051.290649	8542.304688	6567.152832	73.633049
662.735229	1051.290649	8230.558594	6373.733887	74.136292
663.065979	994.402588	8089.476563	6389.662598	76.042328
663.396667	1053.566162	7984.802734	6182.589844	73.998680
663.727417	1017.157776	7841.444824	5970.966797	72.590866
664.057922	978.473938	7643.474609	5895.874512	73.779442
664.388611	1035.361938	7557.004395	5820.782227	73.377533
664.719116	1017.157776	7591.137207	5925.456055	74.662514
665.049622	1001.229126	7450.055176	5809.404785	74.558929
665.380005	1019.433350	7488.738770	5579.577148	70.488914
665.710388	1021.708862	7374.962891	5579.577148	71.740692
666.040771	1001.229126	7379.514160	5600.056641	72.101318
666.371033	1010.331238	7406.820313	5718.383789	73.603699
666.701294	1021.708862	7256.635742	5720.659180	75.364960
667.031555	1008.055725	7131.482422	5634.189453	75.548119
667.361633	1010.331238	7188.370117	5627.362793	74.732964
667.691772	1030.810913	7074.594238	5652.393555	76.468369
668.021790	1053.566162	7095.073730	5643.291504	75.969872
668.351807	1080.872437	7286.217773	5545.444336	71.947197
668.681763	1005.780212	7204.298828	5527.240234	72.944206
669.011719	1110.454102	7281.666504	5732.037109	74.889381
669.341614	1042.188477	7240.707031	5620.536621	73.861977
669.671387	1067.219238	7327.176758	5677.424316	73.645950
670.001221	1039.912964	7329.452637	5615.985352	72.756874
670.330933	1064.943726	7402.269043	5811.680176	74.901260
670.660583	971.647400	7361.309570	5666.046875	73.468666
670.990173	967.096313	7334.003418	5652.393555	73.588280
671.319763	985.300537	7190.645508	5536.342285	73.340683
671.649292	1089.974487	7238.431641	5554.546387	72.612885
671.978821	1008.055725	7042.736816	5465.800781	73.868774
672.308289	932.963501	6976.746582	5479.454102	75.225906
672.637695	1055.841675	6812.909180	5452.147949	76.363640
672.966980	1019.433350	7004.053223	5313.341309	71.749054
673.296326	1030.810913	6858.419922	5226.871094	72.003120
673.625610	996.678101	6885.726074	5520.413574	76.816071
673.954773	983.024963	6849.317383	5222.320313	72.265327
674.283936	998.953613	6969.920410	5420.290527	74.047256
674.613037	1030.810913	6883.450195	5481.729492	76.049767
674.942078	989.851563	6960.818359	5347.474121	72.980186
675.271118	1005.780212	6685.479980	5133.574707	72.676277
675.600098	964.820801	6705.959961	5156.330078	73.008324
675.928955	1028.535400	6726.439453	5117.646484	71.765175
676.257813	951.167725	6756.021484	5208.666992	73.343781
676.586670	969.371887	6680.929199	5222.320313	74.462151
676.915466	962.545288	6803.807129	5256.453125	73.509933
677.244141	985.300537	6756.021484	5272.381836	74.290222
677.572876	1085.423462	6815.184570	5220.044922	72.160454
677.901489	1017.157776	6665.000488	5208.666992	74.214340
678.230042	1005.780212	6717.337402	5238.249023	74.103584
678.558594	1012.606750	6603.561523	5201.840332	74.928764
678.887085	1060.392700	6703.684082	5320.167480	75.483871
679.215515	1019.433350	6906.205566	5210.942871	71.202171
679.543945	1124.107300	6944.889648	5347.474121	72.556686
679.872253	1010.331238	6837.939941	5377.055664	74.931671
680.200562	1014.882263	7017.706055	5490.831543	74.564064
680.528809	951.167725	7170.166016	5458.974609	72.484451
680.856995	1005.780212	7265.737793	5784.374023	76.335884
681.185120	1064.943726	7393.166992	5745.689941	73.966202
681.513306	1076.321289	7500.116699	5720.659180	72.298973
681.841309	1049.015137	7208.850098	5631.914063	74.399704
682.169373	1042.188477	7283.941895	5527.240234	71.855637
682.497314	1108.178589	7195.196777	5545.444336	72.897202
682.825134	971.647400	7390.891602	5670.597656	73.200989
683.153076	1023.984375	6965.369141	5549.995117	76.177711
683.480896	967.096313	7042.736816	5402.086426	72.996254
683.808655	994.402588	6922.134277	5222.320313	71.324387
684.136414	985.300537	6851.593262	5443.045898	75.989136
684.464050	1028.535400	6701.408691	5217.769043	73.846771
684.791626	992.127075	6660.449219	5224.595703	74.668808
685.119263	946.616638	6430.621582	4987.941406	73.692947
685.446838	1026.259888	6533.020020	5003.870117	72.231407
685.774292	994.402588	6448.826172	4983.390625	73.133080
686.101685	1014.882263	6346.427734	5015.248047	75.032013
686.429077	998.953613	6407.866699	4844.583984	71.098022
686.756348	978.473938	6168.937012	4894.645020	75.449364
687.083679	1021.708862	6335.049805	4883.267578	72.676659
687.410950	994.402588	6314.570313	4869.614746	72.840034
687.738159	967.096313	6410.142090	4960.635254	73.369568
688.065308	1017.157776	6298.641602	4880.992188	73.158119
688.392395	998.953613	6432.897461	5122.197266	75.879395
688.719421	944.341125	6453.376953	4976.563965	73.192902
689.046448	1001.229126	6278.162109	5092.615723	77.533417
689.373413	983.024963	6412.417480	4987.941406	73.763618
689.700317	989.851563	6319.121094	4958.359863	74.466270
690.027100	1046.739624	6259.957520	4906.022949	74.028809
690.353943	1028.535400	6080.191406	4828.655273	75.225227
690.680725	1067.219238	6178.039063	4655.715332	70.213707
691.007446	996.678101	6030.129883	4607.929688	71.745033
691.334106	960.269775	5961.864258	4444.092285	69.654236
691.660645	1005.780212	5832.159668	4594.276367	74.351723
691.987244	1146.862427	5898.149902	4557.868164	71.791191
692.313721	994.402588	5713.832520	4514.633301	74.590172
692.640259	1030.810913	5563.648438	4364.448730	73.544174
692.966675	1099.076538	5677.424316	4503.255859	74.353882
693.293030	967.096313	5513.586914	4475.949219	77.177170
693.619324	978.473938	5625.087402	4241.570801	70.225273
693.945618	1010.331238	5620.536621	4371.275391	72.902260
694.271851	978.473938	5586.403809	4298.458984	72.049385
694.598083	1003.504700	5497.658203	4341.693848	74.278488
694.924194	1003.504700	5372.504395	4257.499512	74.479179
695.250244	1033.086426	5304.238770	4237.019531	75.013321
695.576294	1049.015137	5356.576172	4211.988770	73.428413
695.902283	1083.147949	5688.802246	4350.795898	70.948616
696.228210	1010.331238	5372.504395	4266.601563	74.647888
696.554138	1026.259888	5556.821777	4412.234863	74.736313
696.879944	1049.015137	5627.362793	4268.876953	70.328033
697.205750	989.851563	5629.638672	4416.785645	73.859726
697.531433	976.198425	5729.761230	4416.785645	72.379120
697.857178	996.678101	5843.537598	4471.398438	71.690140
698.182739	1005.780212	6009.650391	4735.358887	74.533882
698.508423	992.127075	6041.507813	4833.206055	76.070297
698.833984	1012.606750	6410.142090	4978.839355	73.482292
699.159485	1014.882263	6635.418457	5238.249023	75.141708
699.484924	1028.535400	6787.878418	5286.034668	73.923347
699.810303	1012.606750	6942.613770	5381.606934	73.676140
700.135681	989.851563	6958.542480	5279.208496	71.864281
700.460999	1019.433350	6963.093750	5326.994141	72.473198
700.786255	1030.810913	6610.387695	5085.789063	72.675369
701.111450	1001.229126	6451.101563	5024.350098	73.820465
701.436646	1035.361938	6232.651367	4924.227051	74.824875
701.761719	1014.882263	6109.773438	4844.583984	75.167488
702.086792	989.851563	5959.588867	4571.521484	72.069603
702.411865	1105.903076	5809.404785	4516.908691	72.520554
702.736816	1053.566162	5524.964355	4334.867188	73.384224
703.061646	978.473938	5356.576172	4280.254395	75.415794
703.386536	967.096313	5292.861328	4148.274414	73.540245
703.711365	1067.219238	5101.717773	4130.070313	75.916527
704.036194	1003.504700	5158.605469	4080.008789	74.041626
704.360901	1060.392700	5110.819824	4095.937500	74.943817
704.685547	989.851563	4933.329102	4014.018799	76.687828
705.010132	1014.882263	4967.461914	3875.211914	72.366150
705.334717	1030.810913	4815.001953	3820.599365	73.722191
705.659302	960.269775	4883.267578	3795.568604	72.273781
705.983765	1060.392700	4867.338867	3731.854004	70.173340
706.308228	1026.259888	4837.757324	3884.313965	74.985069
706.632568	1019.433350	4867.338867	3895.691650	74.748672
706.956909	1021.708862	4746.736328	3715.925537	72.327438
707.281189	978.473938	4778.593750	3795.568604	74.131737
707.605408	1035.361938	4737.634277	3813.772949	75.046104
707.929626	1033.086426	4780.869141	3756.884766	72.677597
708.253784	1003.504700	4792.246582	3820.599365	74.354355
708.577820	1058.117188	4835.481934	3636.282227	68.253006
708.901855	1058.117188	4830.930664	3770.538086	71.893852
709.225830	1033.086426	4871.890137	3797.844238	72.021339
709.549805	1053.566162	4851.410156	3777.364502	71.719597
709.873718	994.402588	4885.542969	3761.435791	71.111115
710.197510	930.687988	4981.115234	3895.691650	73.202248
710.521362	996.678101	4924.227051	3745.507324	69.988411
710.845093	987.576050	4851.410156	3938.926514	76.383987
711.168701	996.678101	5058.482910	3870.660889	70.756302
711.492432	1026.259888	5083.513672	3922.997803	71.396515
711.816040	1030.810913	5008.421387	3948.028564	73.340965
712.139587	1055.841675	5311.065430	4025.396240	69.786102
712.463074	1003.504700	5235.973145	4111.866211	73.440872
712.786499	1003.504700	5270.105957	4089.110840	72.320007
713.109924	980.749451	5138.125977	4068.631104	74.274765
713.433350	1030.810913	5017.523438	4048.151611	75.684937
713.756592	989.851563	4906.022949	3973.059326	76.176643
714.079834	1085.423462	4919.675781	3936.650879	74.362022
714.403015	1035.361938	4965.186523	3852.456787	71.684998
714.726196	1019.433350	4915.125000	3829.701416	72.137848
715.049255	969.371887	4924.227051	3970.783691	75.891823
715.372375	1049.015137	4883.267578	3765.986816	70.860535
715.695435	1021.708862	4801.349121	3811.497314	73.810959
716.018311	1001.229126	4906.022949	3743.231689	70.221436
716.341248	1014.882263	4801.349121	3793.293213	73.377403
716.664063	957.994263	4749.011719	3693.170166	72.148857
716.987000	1026.259888	4935.604492	3813.772949	71.303848
717.309692	983.024963	4774.042480	3752.333740	73.049225
717.632385	1001.229126	4730.807617	3825.150391	75.716904
717.955078	996.678101	4667.093262	3652.210938	72.349655
718.277649	1117.280762	4637.511230	3670.415039	72.527473
718.600220	1044.463989	4450.918457	3652.210938	76.553116
718.922791	951.167725	4485.051270	3527.057129	72.891182
719.245300	1076.321289	4455.469727	3499.750977	71.717171
719.567688	951.167725	4339.417969	3451.965088	73.807930
719.890015	983.024963	4305.285156	3358.668701	71.506851
720.212341	1062.668213	4255.224121	3363.219727	72.059868
720.534607	1103.627563	4141.447754	3345.015625	73.782776
720.856873	987.576050	4264.326172	3365.495361	72.569450
721.179016	1010.331238	3998.090088	3299.505127	76.618431
721.501160	985.300537	3973.059326	3331.362549	78.522469
721.823242	998.953613	3945.753174	3238.066162	75.984558
722.145264	1035.361938	3941.202148	3281.301025	77.290512
722.467224	969.371887	4114.141602	3085.606201	67.293777
722.789185	996.678101	4059.529053	3101.534912	68.722145
723.111023	946.616638	3959.406250	3131.116699	72.507553
723.432861	1060.392700	3925.273438	3206.208740	74.900703
723.754578	1003.504700	3857.007813	3176.626953	76.156296
724.076294	1003.504700	3834.252441	3035.544678	71.784569
724.397949	973.922913	3877.487549	3115.187988	73.746078
724.719666	983.024963	3793.293213	3033.269287	72.955467
725.041260	1017.157776	3882.038574	3092.432861	72.438446
725.362732	1053.566162	3900.242676	3069.677490	70.823341
725.684265	998.953613	3918.446777	3076.504150	71.161346
726.005676	1035.361938	3866.109863	3076.504150	72.106110
726.327087	967.096313	4016.294189	3242.617188	74.626877
726.648438	1017.157776	3938.926514	3137.943115	72.585670
726.969666	980.749451	4089.110840	3222.137451	72.108345
727.290894	980.749451	3925.273438	3178.902588	74.652237
727.612061	1074.045776	3918.446777	3135.667725	72.480011
727.933228	1028.535400	4048.151611	3169.800537	70.911827
728.254395	1019.433350	4171.029785	3335.913574	73.501801
728.575378	955.718750	4109.590332	3349.566650	75.901886
728.896301	1060.392700	4091.386475	3194.831299	70.420418
729.217285	1014.882263	4082.284424	3285.852051	74.035606
729.538147	998.953613	4175.580566	3285.852051	71.991409
729.858948	1071.770264	4141.447754	3181.177979	68.717567
730.179810	1058.117188	4111.866211	3140.218750	68.181816
730.500549	1021.708862	4168.753906	3249.443604	70.788147
730.821228	969.371887	4125.519043	3215.310791	71.160782
731.141846	1058.117188	4050.427002	3322.260254	75.665398
731.462402	937.514587	4175.580566	3304.056152	73.085030
731.782898	1042.188477	4193.784668	3269.923340	70.685921
732.103455	1058.117188	4200.611328	3315.433838	71.832008
732.423889	1074.045776	4259.774902	3345.015625	71.285713
732.744263	992.127075	4312.111816	3253.994629	68.128853
733.064636	960.269775	4177.855957	3354.117676	74.398872
733.384888	987.576050	4239.295410	3365.495361	73.128067
733.705200	980.749451	4321.213867	3256.270264	68.119896
734.025330	1078.596802	4241.570801	3374.597412	72.589920
734.345520	1105.903076	4216.540039	3301.780762	70.592545
734.665527	1039.912964	4252.948242	3283.576416	69.830032
734.985596	1021.708862	4111.866211	3294.954102	73.564056
735.305542	1076.321289	4086.835449	3165.249512	69.387756
735.625549	1035.361938	3968.508301	3190.280273	73.467812
735.945435	1026.259888	3907.069336	3188.004639	75.039482
736.265259	1153.689087	3948.028564	3231.239502	74.348534
736.585083	1017.157776	3973.059326	3028.718262	68.052353
736.904785	1069.494751	3761.435791	2955.901611	70.076088
737.224426	1105.903076	3829.701416	3147.045166	74.937340
737.544128	1039.912964	3759.160400	3092.432861	75.481178
737.863708	1005.780212	3868.385254	2910.391113	66.534180
738.183289	1035.361938	3706.823486	2999.136475	73.509369
738.502808	1012.606750	3897.967041	3001.411865	68.927444
738.822205	1017.157776	3772.813477	3137.943115	76.961189
739.141541	1010.331238	3811.497314	3194.831299	77.985382
739.460938	1033.086426	3902.518066	3099.259277	72.006348
739.780212	985.300537	4043.600586	3049.197754	67.485115
740.099426	992.127075	3970.783691	3112.912354	71.199379
740.418640	1017.157776	3952.579590	3160.698486	73.023262
740.737793	1003.504700	3927.548828	3024.167236	69.105064
741.056885	1003.504700	3838.803711	2990.034424	70.064209
741.375977	987.576050	3752.333740	3010.513916	73.168716
741.694946	1030.810913	3779.640137	2930.870850	69.122520
742.013855	1037.637451	3804.670898	3005.962891	71.134865
742.332703	1046.739624	3677.241699	2848.952148	68.512115
742.651550	957.994263	3618.078125	2985.483398	76.218987
742.970398	919.310425	3752.333740	2912.666504	70.361443
743.289124	1019.433350	3556.638916	2862.605225	72.645744
743.607788	957.994263	3704.547852	2901.289063	70.753937
743.926453	1026.259888	3479.271240	2910.391113	76.808914
744.245056	1049.015137	3699.996826	2858.054199	68.240349
744.563599	1026.259888	3536.159424	2903.564453	74.796005
744.882141	1033.086426	3486.097900	2814.819336	72.634514
745.200500	1023.984375	3486.097900	2839.849854	73.752304
745.518860	1069.494751	3426.934326	2760.206787	71.718155
745.837219	1019.433350	3565.741211	2862.605225	72.386055
746.155518	1010.331238	3436.036377	2785.237549	73.170738
746.473755	1008.055725	3395.077148	2757.931152	73.307907
746.791992	1028.535400	3476.995850	2714.696289	68.866165
747.110107	1049.015137	3424.658691	2698.767578	69.444443
747.428162	1005.780212	3413.281250	2780.686523	73.724007
747.746216	964.820801	3463.342773	2723.798340	70.400726
748.064148	951.167725	3267.647949	2794.339600	79.567780
748.382080	978.473938	3486.097900	2764.757813	71.234123
748.700073	992.127075	3340.464600	2739.727051	74.418610
749.017822	976.198425	3429.209961	2685.114502	69.666046
749.335632	987.576050	3306.331787	2732.900391	75.269859
749.653320	987.576050	3447.414063	2732.900391	70.952820
749.971008	1017.157776	3465.618164	2694.216553	68.494423
750.288696	985.300537	3467.893799	2839.849854	74.702103
750.606262	1019.433350	3317.709229	2728.349365	74.356438
750.923828	983.024963	3335.913574	2691.941162	72.630562
751.241272	1039.912964	3431.485352	2757.931152	71.836349
751.558716	1005.780212	3379.148438	2787.512939	75.071907
751.876038	1005.780212	3249.443604	2730.625000	76.876274
752.193481	1023.984375	3258.545898	2662.359375	73.319756
752.510681	1019.433350	3247.168213	2703.318604	75.587326
752.827942	1055.841675	3181.177979	2698.767578	77.301926
753.145081	983.024963	3445.138428	2630.501953	66.913124
753.462219	1012.606750	3310.882813	2696.492188	73.267326
753.779297	996.678101	3360.944336	2575.889648	66.794998
754.096375	1033.086426	3397.352539	2632.777588	67.661217
754.413330	1053.566162	3267.647949	2696.492188	74.203491
754.730286	1026.259888	3292.678711	2635.052979	70.983925
755.047119	1037.637451	3222.137451	2669.185791	74.687492
755.363892	971.647400	3345.015625	2657.808350	71.045059
755.680725	1074.045776	3324.535889	2603.195801	67.947418
755.997498	1101.352051	3331.362549	2682.839111	70.918365
756.314148	1017.157776	3233.515137	2678.288086	74.948669
756.630737	1058.117188	3244.892578	2641.879639	72.424561
756.947327	980.749451	3197.106689	2584.991699	72.381935
757.263855	953.443237	3190.280273	2578.165039	72.634789
757.580261	1060.392700	3315.433838	2523.552490	64.883957
757.896729	1028.535400	3226.688477	2530.379150	68.322983
758.213074	1037.637451	3390.525879	2669.185791	69.342361
758.529419	1030.810913	3319.984863	2628.226563	69.781319
758.845642	994.402588	3304.056152	2569.062988	68.177345
759.161865	1003.504700	3306.331787	2646.430664	71.343872
759.478149	1089.974487	3356.393066	2671.461426	69.779121
759.794189	1039.912964	3370.046387	2666.910400	69.824219
760.110229	964.820801	3422.383301	2764.757813	73.240746
760.426270	992.127075	3397.352539	2673.737061	69.914856
760.742249	1067.219238	3319.984863	2696.492188	72.323235
761.058105	994.402588	3265.372314	2680.563477	74.248497
761.374023	1064.943726	3367.770752	2632.777588	68.083000
761.689819	1023.984375	3372.321777	2639.604248	68.798454
762.005554	1078.596802	3208.484375	2732.900391	77.670929
762.321289	1051.290649	3406.454590	2637.328613	67.342995
762.636902	1026.259888	3472.444824	2794.339600	72.279068
762.952515	1028.535400	3531.608398	2807.992676	71.090904
763.268127	980.749451	3527.057129	2835.298828	72.832886
763.583618	1035.361938	3563.465576	2903.564453	73.897392
763.899048	978.473938	4007.192139	3081.055176	69.421486
764.214478	1039.912964	4339.417969	3406.454590	71.724136
764.529785	973.922913	4603.378418	3702.272461	75.172424
764.845093	976.198425	4842.308105	3747.782715	71.689232
765.160400	1051.290649	4746.736328	3627.180176	69.704437
765.475586	1060.392700	4612.480469	3743.231689	75.528503
765.790771	1037.637451	4480.500488	3292.678711	65.499008
766.105835	985.300537	4211.988770	3308.607178	72.002823
766.420837	989.851563	4061.804688	3185.729004	71.481476
766.735840	1010.331238	3938.926514	3194.831299	74.592079
767.050842	1026.259888	3659.037354	2971.830078	73.898018
767.365662	1044.463989	3583.945313	2951.350586	75.089607
767.680542	917.034912	3577.118652	2787.512939	70.316505
767.995300	989.851563	3499.750977	2789.788574	71.713509
768.309998	1026.259888	3451.965088	2764.757813	71.669800
768.624817	1019.433350	3395.077148	2746.553711	72.701149
768.939392	985.300537	3390.525879	2698.767578	71.239357
769.254028	1035.361938	3137.943115	2673.737061	77.922089
769.568481	1019.433350	3301.780762	2780.686523	77.168495
769.882935	1067.219238	3185.729004	2573.614014	71.106339
770.197388	1053.566162	3199.382324	2534.930176	69.034988
770.511841	1074.045776	3194.831299	2591.818115	71.566513
770.826172	1039.912964	3137.943115	2493.970703	69.305855
771.140442	1005.780212	3140.218750	2514.450439	70.682297
771.454651	967.096313	3015.064941	2489.419678	74.333336
771.768860	1064.943726	3046.922363	2398.398926	67.278992
772.082886	1026.259888	2960.452637	2487.144287	75.529411
772.397034	980.749451	3078.779541	2430.256104	69.088936
772.711060	928.412476	2983.207764	2443.909424	73.754150
773.025024	987.576050	2928.595215	2368.817139	71.160614
773.338928	1035.361938	3090.157227	2343.786377	63.676628
773.652771	1023.984375	3017.340576	2296.000488	63.812786
773.966614	1076.321289	2894.462402	2321.031250	68.460579
774.280457	1044.463989	2771.584229	2357.439453	76.021080
774.594116	1014.882263	2969.554688	2334.684326	67.520370
774.907776	1026.259888	2873.982666	2350.613037	71.674881
775.221375	996.678101	2885.360352	2330.133301	70.602409
775.534912	985.300537	2810.268311	2291.449463	71.571068
775.848450	1058.117188	2762.482178	2227.734863	68.624832
776.161926	983.024963	2757.931152	2346.062012	76.794876
776.475342	1051.290649	2842.125488	2211.806152	64.803047
776.788696	1051.290649	2867.156250	2323.306641	70.050117
777.101990	1039.912964	2885.360352	2255.041016	65.844635
777.415283	971.647400	2696.492188	2339.235352	79.287598
777.728516	994.402588	2755.655762	2239.112549	70.671837
778.041626	1035.361938	2753.380127	2239.112549	70.066231
778.354736	1001.229126	2696.492188	2245.938965	73.422813
778.667725	1046.739624	2682.839111	2204.979736	70.792770
778.980774	1019.433350	2646.430664	2239.112549	74.965042
779.293640	1023.984375	2732.900391	2245.938965	71.504662
779.606567	1005.780212	2671.461426	2282.347412	76.639343
779.919434	928.412476	2737.451416	2057.070801	62.389942
780.232239	1014.882263	2696.492188	2241.387939	72.936394
780.544983	1026.259888	2732.900391	2204.979736	69.066673
780.857666	1039.912964	2662.359375	2245.938965	74.333794
781.170227	1035.361938	2687.390137	2261.867676	74.242424
781.482849	980.749451	2614.573486	2093.479248	68.105850
781.795410	1039.912964	2719.247314	2168.571289	67.208672
782.107910	1071.770264	2691.941162	2125.336426	65.028091
782.420288	1067.219238	2703.318604	2179.948975	68.011131
782.732666	1019.433350	2757.931152	2127.612061	63.743462
783.044983	1044.463989	2548.583252	2157.193604	73.978813
783.357300	962.545288	2632.777588	2047.968750	64.986374
783.669495	980.749451	2653.257324	2018.386963	62.040813
783.981689	964.820801	2655.532715	2159.469238	70.659492
784.293762	1008.055725	2594.093750	2043.417725	65.279770
784.605835	1067.219238	2550.858887	2038.866699	65.490799
784.917908	944.341125	2484.868652	2043.417725	71.344170
785.229858	1076.321289	2534.930176	2075.274902	68.486732
785.541748	969.371887	2405.225586	2079.825928	77.337547
785.853577	1037.637451	2484.868652	1979.703125	65.094345
786.165405	1010.331238	2448.460449	2016.111450	69.936707
786.477173	1001.229126	2507.624023	1927.366089	61.480358
786.788879	1060.392700	2425.705078	1986.529663	67.833336
787.100525	1003.504700	2437.082764	2034.315552	71.904755
787.412109	1112.729614	2471.215576	1995.631714	64.991623
787.723694	1001.229126	2462.113525	2002.458252	68.535820
788.035156	1067.219238	2478.042236	2050.244141	69.677406
788.346558	1005.780212	2466.664551	2088.927979	74.143295
788.658081	1023.984375	2632.777588	2084.376953	65.912300
788.969360	1069.494751	2623.675537	2125.336426	67.935577
789.280640	1026.259888	2748.829102	2170.846924	66.446503
789.591919	1033.086426	2739.727051	2179.948975	67.200005
789.903076	1033.086426	2753.380127	2230.010498	69.576729
790.214172	1012.606750	2753.380127	2166.295898	66.274521
790.525269	1019.433350	2607.746826	2150.367188	71.203438
790.836365	948.892151	2607.746826	2063.897461	67.215370
791.147339	1067.219238	2534.930176	2100.305664	70.387596
791.458191	998.953613	2498.521729	2138.989502	76.024284
791.769104	1076.321289	2489.419678	2016.111450	66.505646
792.079895	1001.229126	2466.664551	2038.866699	70.807457
792.390686	1033.086426	2336.959961	2007.009399	74.694588
792.701416	1074.045776	2382.470215	1981.978638	69.391312
793.012085	1026.259888	2352.888428	1945.570313	69.296745
793.322693	1035.361938	2393.847900	2077.550537	76.716919
793.633240	1033.086426	2373.368164	1966.049927	69.609505
793.943787	1014.882263	2373.368164	1954.672363	69.179237
794.254272	1078.596802	2366.541748	1970.601074	69.257950
794.564636	1042.188477	2307.378174	1970.601074	73.381294
794.875000	1051.290649	2332.408936	1997.907227	73.889862
795.185303	1017.157776	2318.755615	1945.570313	71.328674
795.495544	983.024963	2389.296875	1941.019287	68.122978
795.805786	1001.229126	2332.408936	1997.907227	74.871788
796.115906	1053.566162	2393.847900	1977.427612	68.930389
796.426025	971.647400	2446.184814	1993.356201	69.290123
796.736023	955.718750	2393.847900	1981.978638	71.360764
797.045959	1003.504700	2478.042236	2020.662476	68.981476
797.355896	1037.637451	2455.286865	2032.040039	70.144463
797.665833	1028.535400	2498.521729	2038.866699	68.730659
797.975708	1039.912964	2441.633789	1897.784302	61.201298
798.285461	983.024963	2409.776611	2054.795166	75.119606
798.595154	978.473938	2321.031250	1936.468262	71.355934
798.904846	996.678101	2393.847900	1943.294800	67.752441
799.214478	983.024963	2446.184814	1954.672363	66.407463
799.524109	1001.229126	2309.653564	1918.264038	70.086960
799.833557	973.922913	2293.724854	1859.100464	67.068962
800.143005	1055.841675	2409.776611	1915.988525	63.529408
800.452393	1003.504700	2227.734863	1852.273926	69.330849
800.761780	1021.708862	2257.316650	1865.927002	68.324120
801.071106	1023.984375	2252.765625	1806.763550	63.703705
801.380371	1005.780212	2204.979736	1875.029175	72.485771
801.689575	1019.433350	2200.428711	1895.508789	74.181107
801.998718	1014.882263	2252.765625	1900.059814	71.507347
802.307800	1019.433350	2257.316650	1847.722900	66.911766
802.616882	1055.841675	2075.274902	1793.110352	72.321426
802.925903	960.269775	2293.724854	1727.120239	57.508533
803.234863	1055.841675	2204.979736	1806.763550	65.346535
803.543701	1005.780212	2173.122314	1806.763550	68.615990
803.852539	1035.361938	2161.744873	1758.977539	64.242416
804.161316	1049.015137	2152.642578	1784.008301	66.597939
804.470032	967.096313	2043.417725	1799.937012	77.378441
804.778809	989.851563	2175.397949	1777.181763	66.410744
805.087341	1069.494751	2179.948975	1847.722900	70.081963
805.395935	1087.698975	2145.816162	1806.763550	67.956985
805.704468	1019.433350	2150.367188	1818.141113	70.623741
806.012939	1035.361938	2241.387939	1854.549438	67.924530
806.321350	1064.943726	2309.653564	1829.518677	61.425961
806.629761	1055.841675	2216.357178	1852.273926	68.627457
806.938049	1028.535400	2225.459229	1938.743774	76.045639
807.246277	996.678101	2234.561523	1856.824951	69.485291
807.554504	1046.739624	2318.755615	1829.518677	61.538460
807.862671	1010.331238	2170.846924	1934.192627	79.607834
808.170715	1010.331238	2298.276123	1845.447388	64.840988
808.478821	1035.361938	2264.143311	1856.824951	66.851845
808.786804	1001.229126	2259.592041	1793.110352	62.929478
809.094727	980.749451	2193.602051	1784.008301	66.228897
809.402649	1001.229126	2202.704102	1770.355225	64.015160
809.710510	1039.912964	2068.448486	1799.937012	73.893806
810.018311	1055.841675	2198.153076	1745.324463	60.358566
810.326050	1030.810913	2077.550537	1722.569214	66.086952
810.633667	1021.708862	2079.825928	1793.110352	72.903229
810.941345	983.024963	2134.438477	1665.681274	59.288540
811.248901	957.994263	2164.020264	1743.048950	65.094345
811.556396	994.402588	2138.989502	1770.355225	67.793251
811.863892	1005.780212	2025.213501	1604.242188	58.705360
812.171326	1042.188477	2013.835938	1661.130127	63.700230
812.478699	980.749451	2020.662476	1756.702026	74.617058
812.786011	1003.504700	2000.182739	1679.334351	67.808220
813.093262	1046.739624	2045.693237	1711.191650	66.514801
813.400391	1003.504700	1984.254150	1667.956787	67.749420
813.707642	1001.229126	1995.631714	1706.640625	70.938217
814.014709	923.861450	1966.049927	1667.956787	71.397385
814.321716	1046.739624	2007.009399	1724.844727	70.616104
814.628723	1037.637451	2059.346436	1715.742676	66.369705
814.935669	1010.331238	1988.805176	1733.946899	73.953491
815.242554	1046.739624	1972.876587	1824.967651	84.029472
815.549438	1028.535400	1918.264038	1754.426514	81.585678
815.856201	1074.045776	2013.835938	1608.793213	56.900726
816.162964	1010.331238	2002.458252	1679.334351	67.431198
816.469604	1023.984375	1902.335449	1736.222412	81.088081
816.776184	969.371887	2029.764526	1720.293701	70.815453
817.082825	998.953613	2143.540527	1695.262939	60.834988
817.389343	1053.566162	2029.764526	1688.436401	65.034966
817.695801	1033.086426	2032.040039	1738.497925	70.615044
818.002197	987.576050	2072.999512	1677.058838	63.522011
818.308533	1062.668213	2047.968750	1683.885376	63.048496
818.614868	1010.331238	2027.489014	1652.028076	63.087246
818.921143	1010.331238	2088.927979	1772.630737	70.675117
819.227356	1023.984375	2009.284912	1708.916138	69.515007
819.533447	962.545288	2136.714111	1708.916138	63.565887
819.839539	1003.504700	2111.683350	1740.773438	66.529770
820.145569	989.851563	2211.806152	1879.580200	72.811920
820.451538	1096.801025	2282.347412	1881.855713	66.218811
820.757568	1033.086426	2525.828125	1922.815063	59.603657
821.063416	1012.606750	2559.960938	1959.223389	61.176464
821.369263	1021.708862	2685.114502	2143.540527	67.441856
821.675049	969.371887	2726.073975	2225.459229	71.502579
821.980713	983.024963	2899.013428	2236.836914	65.439430
822.286438	996.678101	3147.045166	2475.766602	68.783066
822.592102	1019.433350	3998.090088	3078.779541	69.136742
822.897583	1001.229126	5727.485840	4384.928711	71.593651
823.203125	948.892151	8037.139648	6057.436523	72.070625
823.508545	989.851563	9859.832031	7217.952148	70.215492
823.813965	1035.361938	10299.006836	7334.003418	67.993126
824.119263	994.402588	9279.574219	6589.908203	67.536392
824.424622	992.127075	8003.006836	5820.782227	68.873741
824.729858	994.402588	6696.857910	5101.717773	72.027145
825.035095	1030.810913	5934.558105	4437.265625	69.466362
825.340149	1010.331238	5281.483887	3902.518066	67.714432
825.645264	1042.188477	4799.073242	3540.710449	66.505150
825.950256	1019.433350	4325.765137	3272.198975	68.134895
826.255310	1030.810913	4004.916504	3140.218750	70.925789
826.560242	1044.463989	3913.895752	2985.483398	67.644737
826.865112	983.024963	3613.527100	2746.553711	67.041527
827.169922	1019.433350	3413.281250	2653.257324	68.250954
827.474670	1026.259888	3725.027588	2792.063965	65.430016
827.779419	1062.668213	4011.743164	3058.300049	67.669754
828.084045	1049.015137	4632.960449	3588.496338	70.857140
828.388672	1026.259888	4844.583984	3756.884766	71.513702
828.693176	1051.290649	4969.737305	3672.690674	66.898956
828.997681	939.790100	4291.632324	3390.525879	73.116081
829.302124	1067.219238	3982.161377	3126.565674	70.647934
829.606567	983.024963	3506.577637	2739.727051	69.612259
829.910828	1028.535400	3188.004639	2575.889648	71.654381
830.215149	1019.433350	3085.606201	2298.276123	61.894279
830.519348	1101.352051	2908.115479	2193.602051	60.453403
830.823547	967.096313	2650.981689	2164.020264	71.081085
831.127686	1010.331238	2541.756836	2052.519775	68.053490
831.431763	978.473938	2293.724854	1970.601074	75.432533
831.735779	1053.566162	2268.694336	1847.722900	65.355797
832.039734	1021.708862	2223.183838	1845.447388	68.560608
832.343628	1044.463989	2132.163086	1799.937012	69.456070
832.647461	969.371887	2173.122314	1784.008301	67.674858
832.951233	923.861450	2164.020264	1802.212524	70.825691
833.255127	1039.912964	2145.816162	1786.283813	67.489708
833.558777	1030.810913	2280.071777	1829.518677	63.934425
833.862366	1042.188477	2352.888428	1961.498901	70.138893
834.165955	1035.361938	2635.052979	2050.244141	63.442387
834.469482	996.678101	2962.728027	2318.755615	67.245369
834.773010	1026.259888	3233.515137	2573.614014	70.103088
835.076416	996.678101	3613.527100	2739.727051	66.608688
835.379822	1074.045776	3529.332764	2735.176025	67.655235
835.683105	1064.943726	3285.852051	2505.348389	64.856560
835.986389	1046.739624	2980.932129	2359.715088	67.882355
836.289612	1001.229126	2757.931152	2154.918213	65.673576
836.592773	964.820801	2710.145264	2129.887451	66.753586
836.895874	1042.188477	2516.726074	2011.560425	65.740738
837.198914	969.371887	2346.062012	1991.080688	74.214867
837.501892	1033.086426	2309.653564	1843.171875	63.458115
837.804871	1076.321289	2132.163086	1886.406738	76.724129
838.107666	1051.290649	2141.265137	1731.671387	62.421711
838.410583	1053.566162	1993.356201	1765.804199	75.786934
838.713379	973.922913	1920.539551	1697.538574	76.442314
839.016052	1039.912964	1877.304688	1667.956787	75.000000
839.318787	969.371887	1927.366089	1672.507813	73.396675
839.621338	1014.882263	1863.651489	1599.691162	68.900810
839.923889	978.473938	1745.324463	1590.588989	79.821953
840.226440	1010.331238	1788.559326	1608.793213	76.900589
840.528931	989.851563	1854.549438	1611.068726	71.842102
840.831299	1017.157776	1968.325439	1654.303589	66.985649
841.133606	1039.912964	2082.101563	1708.916138	64.192139
841.435913	1058.117188	2104.856689	1715.742676	62.826088
841.738220	1055.841675	2077.550537	1692.987427	62.360794
842.040405	1037.637451	1966.049927	1661.130127	67.156860
842.342529	1058.117188	1909.161987	1608.793213	64.705879
842.644592	998.953613	1806.763550	1574.660400	71.267601
842.946594	1014.882263	1809.039063	1572.384888	70.200577
843.248596	994.402588	1811.314575	1497.292725	61.559891
843.550598	973.922913	1818.141113	1504.119263	62.803238
843.852478	1069.494751	1738.497925	1431.302612	54.081635
844.154236	1039.912964	1681.609863	1381.241089	53.191486
844.455994	1012.606750	1704.365112	1372.139038	51.973682
844.757690	996.678101	1622.446289	1378.965576	61.090908
845.059326	1019.433350	1538.252075	1383.516602	70.175423
845.360962	1028.535400	1581.486938	1356.210449	59.259270
845.662476	998.953613	1663.405762	1365.312500	55.136986
845.963989	1080.872437	1492.741699	1358.485962	67.403313
846.265381	1049.015137	1472.261963	1317.526489	63.440842
846.566772	1005.780212	1460.884399	1385.792114	83.499977
846.868042	1033.086426	1572.384888	1358.485962	60.337559
847.169373	1051.290649	1526.874512	1344.832764	61.722473
847.470581	1014.882263	1572.384888	1317.526489	54.285706
847.771729	1049.015137	1538.252075	1331.179688	57.674416
848.072815	969.371887	1492.741699	1326.628662	68.260864
848.373901	1001.229126	1522.323364	1324.353149	62.008751
848.674866	1064.943726	1419.924927	1322.077637	72.435921
848.975891	998.953613	1488.190552	1274.291626	56.279072
849.276794	937.514587	1463.159912	1365.312500	81.385277
849.577637	1105.903076	1479.088501	1272.016113	44.512199
849.878357	1008.055725	1481.364014	1278.842651	57.211533
850.179077	1001.229126	1442.680176	1269.740601	60.824745
850.479736	978.473938	1510.945801	1315.250977	63.247856
850.780396	978.473938	1472.261963	1335.730713	72.350227
851.080994	1046.739624	1426.751587	1297.046875	65.868256
851.381470	1005.780212	1422.200562	1278.842651	65.573753
851.681946	992.127075	1488.190552	1228.781250	47.706429
851.982361	1028.535400	1438.129150	1369.863525	83.333336
852.282715	1005.780212	1429.027100	1235.607788	54.301067
852.583008	998.953613	1520.047852	1283.393677	54.585148
852.883240	1037.637451	1515.496826	1356.210449	66.666687
853.183411	985.300537	1474.537476	1278.842651	59.999989
853.483521	1008.055725	1422.200562	1215.128052	49.999977
853.783630	985.300537	1360.761475	1246.985352	69.696945
854.083679	1033.086426	1360.761475	1274.291626	73.611099
854.383667	1069.494751	1504.119263	1210.577026	32.460728
854.683533	1028.535400	1449.506714	1299.322388	64.324333
854.983337	989.851563	1415.373901	1267.465088	65.240646
855.283203	985.300537	1397.169800	1319.802124	81.215477
855.582886	1001.229126	1419.924927	1281.118164	66.847824
855.882629	1028.535400	1392.618774	1324.353149	81.250000
856.182312	989.851563	1360.761475	1244.709839	68.711639
856.481873	964.820801	1317.526489	1287.944824	91.612930
856.781372	1021.708862	1363.036987	1274.291626	73.999985
857.080872	1005.780212	1429.027100	1308.424438	71.505363
857.380310	1060.392700	1449.506714	1206.026001	37.426895
857.679688	987.576050	1397.169800	1351.659302	88.888870
857.979004	1039.912964	1426.751587	1328.904175	74.705887
858.278259	1023.984375	1388.067749	1233.332275	57.499989
858.577454	1055.841675	1472.261963	1315.250977	62.295067
858.876648	973.922913	1431.302612	1335.730713	79.104469
859.175720	1099.076538	1369.863525	1210.577026	41.176456
859.474792	1030.810913	1474.537476	1221.954712	43.076935
859.773743	1001.229126	1442.680176	1215.128052	48.453602
860.072693	1030.810913	1388.067749	1237.883301	57.961769
860.371521	935.239075	1438.129150	1246.985352	61.990940
860.670349	1053.566162	1449.506714	1322.077637	67.816109
860.969116	1058.117188	1415.373901	1297.046875	66.878990
861.267883	1033.086426	1429.027100	1312.975464	70.689644
861.566589	1014.882263	1403.996338	1233.332275	56.140354
861.865112	1046.739624	1442.680176	1297.046875	63.218391
862.163635	1008.055725	1358.485962	1233.332275	64.285706
862.462158	1046.739624	1401.720825	1285.669312	67.307701
862.760620	1023.984375	1349.383789	1260.638550	72.727287
863.059021	1010.331238	1378.965576	1201.474976	51.851852
863.357361	996.678101	1422.200562	1206.026001	49.197849
863.655640	1076.321289	1440.404663	1258.363037	50.000015
863.953857	1005.780212	1367.588013	1244.709839	66.037720
864.251953	987.576050	1397.169800	1297.046875	75.555557
864.550110	1135.484863	1401.720825	1228.781250	35.042744
864.848206	1069.494751	1440.404663	1212.852539	38.650299
865.146179	989.851563	1390.343262	1342.557251	88.068161
865.444092	1030.810913	1385.792114	1219.679199	53.205151
865.741943	1042.188477	1442.680176	1212.852539	42.613632
866.039795	998.953613	1433.578125	1274.291626	63.350780
866.337646	1046.739624	1390.343262	1178.719727	38.410564
866.635376	985.300537	1429.027100	1258.363037	61.538460
866.933044	1094.525513	1413.098389	1215.128052	37.857128
867.230652	1046.739624	1456.333252	1146.862427	24.444424
867.528198	1033.086426	1390.343262	1272.016113	66.878967
867.825745	960.269775	1474.537476	1201.474976	46.902653
868.123230	980.749451	1378.965576	1215.128052	58.857136
868.420593	1053.566162	1419.924927	1185.546387	36.024857
868.717896	1017.157776	1376.690063	1224.230225	57.594952
869.015198	1019.433350	1319.802124	1196.923950	59.090897
869.312439	1014.882263	1413.098389	1203.750488	47.428574
869.609619	1037.637451	1281.118164	1260.638550	91.588814
869.906738	985.300537	1456.333252	1244.709839	55.072460
870.203796	939.790100	1349.383789	1162.791138	54.444450
870.500854	987.576050	1406.271851	1287.944824	71.739143
870.797791	1058.117188	1363.036987	1306.148926	81.343269
871.094666	996.678101	1415.373901	1249.260864	60.326080
871.391602	1008.055725	1340.281738	1258.363037	75.342476
871.688293	1042.188477	1449.506714	1265.189575	54.748615
871.985107	992.127075	1360.761475	1347.108276	96.296280
872.281738	1001.229126	1429.027100	1258.363037	60.106388
872.578369	1042.188477	1376.690063	1199.199463	46.938786
872.874939	1017.157776	1356.210449	1294.771362	81.879189
873.171509	1030.810913	1394.894287	1249.260864	59.999981
873.467957	1023.984375	1429.027100	1265.189575	59.550556
873.764343	944.341125	1381.241089	1237.883301	67.187500
874.060669	1019.433350	1385.792114	1165.066650	39.751553
874.356995	1008.055725	1369.863525	1253.812012	67.924538
874.653198	1053.566162	1358.485962	1269.740601	70.895508
874.949463	1005.780212	1481.364014	1219.679199	44.976086
875.245544	1055.841675	1424.476074	1194.648438	37.654316
875.541626	1001.229126	1401.720825	1224.230225	55.681828
875.837646	1055.841675	1401.720825	1269.740601	61.842098
876.133606	1021.708862	1401.720825	1272.016113	65.868256
876.429565	1019.433350	1401.720825	1283.393677	69.047600
876.725403	1069.494751	1401.720825	1272.016113	60.958900
877.021179	1046.739624	1369.863525	1244.709839	61.267586
877.316956	1030.810913	1390.343262	1269.740601	66.455688
877.612610	1062.668213	1381.241089	1297.046875	73.571442
877.908203	1108.178589	1363.036987	1253.812012	57.142879
878.203857	1014.882263	1374.414551	1285.669312	75.316475
878.499390	1005.780212	1417.649414	1303.873413	72.375694
878.794800	1003.504700	1401.720825	1294.771362	73.142860
879.090271	1014.882263	1390.343262	1310.699951	78.787857
879.385559	1017.157776	1474.537476	1267.465088	54.726372
879.680847	923.861450	1422.200562	1319.802124	79.452057
879.976196	1035.361938	1451.782227	1308.424438	65.573776
880.271301	1001.229126	1520.047852	1281.118164	53.947365
880.566467	1017.157776	1572.384888	1372.139038	63.934425
880.861572	1046.739624	1658.854614	1429.027100	62.453541
881.156555	1028.535400	1802.212524	1524.598877	64.117638
881.451477	1062.668213	2072.999512	1720.293701	65.090080
881.746460	1030.810913	2596.369141	2027.489014	63.662792
882.041321	998.953613	3365.495361	2685.114502	71.249992
882.336121	1010.331238	4086.835449	3083.330566	67.381653
882.630798	971.647400	4460.020996	3440.587402	70.776253
882.925537	1030.810913	4496.429199	3360.944336	67.235718
883.220215	985.300537	4305.285156	3222.137451	67.374916
883.514771	1026.259888	3970.783691	3026.442627	67.928902
883.809326	1005.780212	3718.200928	2817.094727	66.778526
884.103760	1021.708862	3324.535889	2650.981689	70.750984
884.398132	1037.637451	3149.320801	2480.317627	68.318962
884.692505	1087.698975	2987.758789	2341.510986	65.988029
884.986816	983.024963	2842.125488	2332.408936	72.582626
885.281067	967.096313	2676.012451	2072.999512	64.713722
885.575256	978.473938	2421.154053	2041.142212	73.659309
885.869385	1060.392700	2350.613037	1811.314575	58.201057
886.163452	1058.117188	2198.153076	1756.702026	61.277443
886.457458	1021.708862	1977.427612	1631.548462	63.809525
886.751465	994.402588	1772.630737	1579.211426	75.146194
887.045410	1062.668213	1706.640625	1431.302612	57.243820
887.339233	1110.454102	1756.702026	1497.292725	59.859165
887.632996	1071.770264	1656.579102	1429.027100	61.089508
887.926758	1037.637451	1601.966675	1358.485962	56.854847
888.220398	1026.259888	1608.793213	1381.241089	60.937492
888.514099	1067.219238	1520.047852	1353.934937	63.316605
888.807678	1099.076538	1526.874512	1278.842651	42.021263
889.101196	987.576050	1535.976563	1312.975464	59.336090
889.394653	1012.606750	1413.098389	1388.067749	93.750023
889.688049	1003.504700	1510.945801	1267.465088	52.017937
889.981384	1021.708862	1442.680176	1303.873413	67.027023
890.274719	996.678101	1460.884399	1262.914063	57.352940
890.567932	1014.882263	1385.792114	1287.944824	73.619659
>>>>>End Processed Spectral Data<<<<<
