Jaz Data File
++++++++++++++++++++++++++++++++++++
Date: Wed Feb 07 06:49:34 2024
User: jaz
Dark Spectrum Present: Yes
Reference Spectrum Present: Yes
Processed Spectrum Present: Yes
Spectrometers: JAZA3692
Integration Time (usec): 40000 (JAZA3692)
Spectra Averaged: 1 (JAZA3692)
Boxcar Smoothing: 0 (JAZA3692)
Correct for Electrical Dark: No (JAZA3692)
Strobe/Lamp Enabled: Yes (JAZA3692)
Correct for Detector Non-linearity: No (JAZA3692)
Correct for Stray Light: No (JAZA3692)
Number of Pixels in Processed Spectrum: 2048
>>>>>Begin Processed Spectral Data<<<<<
W	D	R	S	P
190.244385	0.000000	0.000000	0.000000	0.000000
190.627136	0.000000	0.000000	0.000000	0.000000
191.009842	971.647400	973.922913	985.300537	600.002686
191.392532	1005.780212	971.647400	1008.055725	-6.666643
191.775177	1010.331238	1008.055725	942.065613	3000.010742
192.157791	998.953613	969.371887	983.024963	53.846249
192.540390	1026.259888	987.576050	960.269775	170.588333
192.922943	1017.157776	1030.810913	987.576050	-216.666138
193.305481	1058.117188	939.790100	932.963501	105.769264
193.687958	1105.903076	1035.361938	994.402588	158.064484
194.070419	1085.423462	1010.331238	962.545288	163.636353
194.452866	1103.627563	1171.893188	967.096313	-200.000000
194.835251	1012.606750	998.953613	1058.117188	-333.333191
195.217621	1055.841675	1064.943726	983.024963	-800.003357
195.599960	1071.770264	1035.361938	1101.352051	-81.250061
195.982254	1076.321289	1089.974487	1039.912964	-266.665192
196.364517	1028.535400	1039.912964	1089.974487	540.002136
196.746750	1033.086426	1076.321289	1046.739624	31.579140
197.128952	1021.708862	1035.361938	1023.984375	16.666666
197.511139	1051.290649	1074.045776	992.127075	-260.001068
197.893280	983.024963	1087.698975	1071.770264	84.782555
198.275391	1042.188477	1035.361938	976.198425	966.669373
198.657471	1089.974487	1037.637451	1010.331238	152.173782
199.039520	1046.739624	1069.494751	1026.259888	-90.000534
199.421539	1017.157776	1064.943726	1035.361938	38.095219
199.803513	1083.147949	973.922913	1039.912964	39.583401
200.185471	1008.055725	1012.606750	1005.780212	-50.000000
200.567383	1033.086426	1071.770264	1060.392700	70.588326
200.949265	1030.810913	1005.780212	1012.606750	72.727341
201.331131	1012.606750	1083.147949	1042.188477	41.935390
201.712967	1026.259888	1044.463989	989.851563	-200.000671
202.094742	1012.606750	1035.361938	1033.086426	90.000031
202.476517	1058.117188	1046.739624	1010.331238	420.001617
202.858231	1039.912964	1005.780212	1001.229126	113.333488
203.239944	996.678101	1021.708862	976.198425	-81.818024
203.621582	998.953613	1021.708862	1001.229126	9.999947
204.003235	1076.321289	1033.086426	1014.882263	142.105286
204.384827	1049.015137	1033.086426	1012.606750	228.570831
204.766388	1096.801025	985.300537	1092.250000	4.081619
205.147934	992.127075	1042.188477	1037.637451	90.909111
205.529449	1026.259888	1035.361938	1042.188477	175.000000
205.910904	1028.535400	1001.229126	1012.606750	58.333298
206.292343	1001.229126	1005.780212	1026.259888	549.995300
206.673767	1021.708862	1003.504700	1001.229126	112.500290
207.055115	1044.463989	1094.525513	1049.015137	9.091108
207.436462	1023.984375	1005.780212	953.443237	387.500031
207.817780	1028.535400	1051.290649	1019.433350	-39.999786
208.199051	1037.637451	1055.841675	992.127075	-249.998993
208.580307	1053.566162	1026.259888	1058.117188	-16.666592
208.961517	983.024963	1012.606750	969.371887	-46.153656
209.342712	1026.259888	1058.117188	987.576050	-121.428490
209.723846	1001.229126	1030.810913	948.892151	-176.922958
210.104965	1078.596802	1055.841675	983.024963	420.001343
210.486069	998.953613	1094.525513	983.024963	-16.666666
210.867111	1008.055725	1069.494751	971.647400	-59.259281
211.248123	992.127075	1055.841675	1049.015137	89.285759
211.629120	1003.504700	1019.433350	948.892151	-342.857361
212.010071	1026.259888	1053.566162	980.749451	-166.666595
212.390991	1001.229126	1099.076538	1064.943726	65.116287
212.771881	1012.606750	1026.259888	1067.219238	399.999542
213.152756	1012.606750	1044.463989	1121.831787	342.857819
213.533569	969.371887	1044.463989	978.473938	12.121182
213.914368	1003.504700	1051.290649	985.300537	-38.095219
214.295135	1051.290649	1099.076538	971.647400	-166.666885
214.675858	1033.086426	980.749451	969.371887	121.739052
215.056549	1019.433350	964.820801	951.167725	124.999886
215.437225	996.678101	1046.739624	969.371887	-54.545311
215.817841	937.514587	1019.433350	1008.055725	86.111092
216.198441	921.585938	1074.045776	898.830688	-14.925406
216.579025	964.820801	1049.015137	967.096313	2.702691
216.959549	1019.433350	1042.188477	1017.157776	-10.000268
217.340057	1033.086426	987.576050	969.371887	140.000031
217.720535	996.678101	1021.708862	1003.504700	27.272839
218.100967	957.994263	1069.494751	976.198425	16.326532
218.481369	1035.361938	1069.494751	1017.157776	-53.333321
218.861740	1133.209351	1042.188477	998.953613	147.499939
219.242065	1010.331238	1112.729614	932.963501	-75.555626
219.622391	1051.290649	1089.974487	1060.392700	23.529337
220.002670	1060.392700	1115.005249	1039.912964	-37.500057
220.382919	1001.229126	1153.689087	967.096313	-22.388050
220.763123	1096.801025	1039.912964	1003.504700	163.999832
221.143295	1028.535400	1096.801025	1058.117188	43.333359
221.523453	1060.392700	1099.076538	1035.361938	-64.705994
221.903549	1008.055725	1101.352051	1044.463989	39.024326
222.283630	1051.290649	1026.259888	964.820801	345.454315
222.663696	1010.331238	1046.739624	1001.229126	-25.000042
223.043701	989.851563	1039.912964	948.892151	-81.818352
223.423676	967.096313	1044.463989	996.678101	38.235332
223.803635	1051.290649	1067.219238	917.034912	-842.860229
224.183548	1010.331238	1135.484863	971.647400	-30.909082
224.563431	1049.015137	1062.668213	1010.331238	-283.334686
224.943283	1071.770264	1035.361938	1017.157776	150.000000
225.323105	1010.331238	1078.596802	1074.045776	93.333351
225.702881	994.402588	973.922913	1023.984375	-144.444611
226.082642	1014.882263	1046.739624	1053.566162	121.428452
226.462357	1026.259888	1028.535400	969.371887	-2500.008057
226.842041	1026.259888	1083.147949	1003.504700	-39.999935
227.221695	1035.361938	1089.974487	1035.361938	0.000000
227.601318	1010.331238	1087.698975	1023.984375	17.647068
227.980911	969.371887	1105.903076	1044.463989	54.999962
228.360474	996.678101	1078.596802	996.678101	0.000000
228.739990	1042.188477	1085.423462	1074.045776	73.684074
229.119476	998.953613	1183.270874	1008.055725	4.938285
229.498932	1044.463989	1178.719727	978.473938	-49.152500
229.878372	1060.392700	1096.801025	1028.535400	-87.500038
230.257736	969.371887	1294.771362	1019.433350	15.384617
230.637115	978.473938	1217.403687	930.687988	-20.000000
231.016449	930.687988	1267.465088	976.198425	13.513519
231.395737	976.198425	1176.444214	1012.606750	18.181818
231.774994	1037.637451	1215.128052	1008.055725	-16.666643
232.154221	987.576050	1190.097412	923.861450	-31.460680
232.533417	1008.055725	1242.434326	1046.739624	16.504877
232.912582	1037.637451	1192.372925	976.198425	-39.705845
233.291702	1033.086426	1180.995239	1037.637451	3.076913
233.670792	989.851563	1153.689087	1003.504700	8.333340
234.049866	1026.259888	1124.107300	1023.984375	-2.325573
234.428894	1014.882263	1105.903076	1094.525513	87.500038
234.807892	992.127075	1187.821899	985.300537	-3.488359
235.186874	1008.055725	1155.964600	994.402588	-9.230776
235.565781	1044.463989	1262.914063	1028.535400	-7.291638
235.944687	985.300537	1240.158813	1017.157776	12.499982
236.323547	992.127075	1160.515625	1001.229126	5.405386
236.702377	1026.259888	1215.128052	1003.504700	-12.048186
237.081177	1062.668213	1224.230225	1021.708862	-25.352093
237.459946	1028.535400	1187.821899	1005.780212	-14.285698
237.838669	1003.504700	1269.740601	1078.596802	28.205099
238.217361	1035.361938	1176.444214	1019.433350	-11.290283
238.596039	1017.157776	1224.230225	962.545288	-26.373613
238.974670	1053.566162	1176.444214	989.851563	-51.851894
239.353271	1028.535400	1190.097412	1030.810913	1.408445
239.731842	1128.658325	1265.189575	939.790100	-138.333328
240.110367	1058.117188	1285.669312	1044.463989	-6.000031
240.488876	1023.984375	1290.220337	1094.525513	26.495722
240.867340	1035.361938	1283.393677	1023.984375	-4.587140
241.245789	955.718750	1335.730713	1044.463989	23.353275
241.624176	930.687988	1374.414551	951.167725	4.615396
242.002548	1026.259888	1353.934937	1039.912964	4.166651
242.380890	1026.259888	1415.373901	1046.739624	5.263171
242.759186	948.892151	1501.843750	1012.606750	11.522635
243.137451	1049.015137	1501.843750	1012.606750	-8.040214
243.515686	1044.463989	1581.486938	1046.739624	0.423750
243.893890	998.953613	1686.160889	989.851563	-1.324499
244.272049	1094.525513	1561.007324	1042.188477	-11.219523
244.650192	1014.882263	1474.537476	1058.117188	9.405947
245.028290	1112.729614	1483.639526	1058.117188	-14.723906
245.406357	951.167725	1501.843750	1035.361938	15.289247
245.784393	985.300537	1451.782227	973.922913	-2.439029
246.162384	1026.259888	1481.364014	976.198425	-11.000002
246.540359	1087.698975	1504.119263	998.953613	-21.311489
246.918289	1037.637451	1649.752563	1001.229126	-5.947954
247.296204	1033.086426	1713.467163	1105.903076	10.702338
247.674057	992.127075	1954.672363	1037.637451	4.728128
248.051895	955.718750	2175.397949	1101.352051	11.940295
248.429703	1012.606750	2120.785400	957.994263	-4.928130
248.807465	985.300537	2104.856689	994.402588	0.813005
249.185196	1067.219238	2034.315552	1028.535400	-3.999999
249.562897	1033.086426	1827.243164	1069.494751	4.584527
249.940567	998.953613	1774.906250	987.576050	-1.466270
250.318192	1076.321289	1681.609863	1019.433350	-9.398482
250.695801	1085.423462	1674.783325	1062.668213	-3.861011
251.073349	1014.882263	1558.731689	969.371887	-8.368195
251.450882	1044.463989	1611.068726	1051.290649	1.204836
251.828400	1053.566162	1492.741699	976.198425	-17.616587
252.205872	1051.290649	1540.527588	994.402588	-11.627916
252.583313	1067.219238	1638.375000	1010.331238	-9.960155
252.960693	1014.882263	1729.395752	1019.433350	0.636949
253.338074	1005.780212	1733.946899	971.647400	-4.687500
253.715408	1023.984375	1820.416626	948.892151	-9.428576
254.092682	1074.045776	1679.334351	1019.433350	-9.022544
254.469955	1051.290649	1592.864502	1049.015137	-0.420167
254.847198	1001.229126	1601.966675	1008.055725	1.136370
255.224365	1035.361938	1517.772339	985.300537	-10.377347
255.601563	1133.209351	1483.639526	1053.566162	-22.727262
255.978683	928.412476	1595.140137	992.127075	9.556315
256.355743	1062.668213	1567.833862	1005.780212	-11.261256
256.732819	1049.015137	1547.354126	1096.801025	9.589033
257.109894	996.678101	1510.945801	1105.903076	21.238934
257.486877	957.994263	1565.558350	996.678101	6.367038
257.863831	976.198425	1636.099487	978.473938	0.344826
258.240753	1060.392700	1704.365112	1058.117188	-0.353356
258.617645	989.851563	1638.375000	1035.361938	7.017538
258.994507	996.678101	1731.671387	1028.535400	4.334366
259.371307	1053.566162	1724.844727	1021.708862	-4.745765
259.748108	1001.229126	1915.988525	964.820801	-3.980098
260.124878	1008.055725	2100.305664	1026.259888	1.666666
260.501617	1001.229126	2336.959961	960.269775	-3.066437
260.878296	1074.045776	2564.511963	980.749451	-6.259540
261.254944	1074.045776	2650.981689	1012.606750	-3.896102
261.631561	976.198425	2519.001465	1039.912964	4.129791
262.008179	1023.984375	2323.306641	1033.086426	0.700523
262.384735	1028.535400	2095.754639	953.443237	-7.036245
262.761261	987.576050	1952.396851	1035.361938	4.952825
263.137695	1033.086426	1865.927002	964.820801	-8.196722
263.514191	1067.219238	1843.171875	1001.229126	-8.504399
263.890594	1083.147949	1831.794189	1076.321289	-0.911867
264.267029	1030.810913	1831.794189	1089.974487	7.386368
264.643341	973.922913	1925.090576	1055.841675	8.612442
265.019653	1023.984375	1845.447388	1117.280762	11.357345
265.395935	1044.463989	1692.987427	1046.739624	0.350895
265.772217	1085.423462	1777.181763	989.851563	-13.815794
266.148407	989.851563	1829.518677	987.576050	-0.271002
266.524597	1033.086426	1806.763550	1062.668213	3.823531
266.900726	1026.259888	1888.682251	996.678101	-3.430081
267.276855	1008.055725	1906.886475	967.096313	-4.556966
267.652924	1110.454102	2079.825928	1049.015137	-6.338018
268.028992	1019.433350	2020.662476	1030.810913	1.136360
268.404999	983.024963	2050.244141	1044.463989	5.756927
268.781006	1044.463989	2077.550537	1021.708862	-2.202635
269.156921	1067.219238	2104.856689	994.402588	-7.017543
269.532837	996.678101	2034.315552	1085.423462	8.552637
269.908661	989.851563	2072.999512	1058.117188	6.302521
270.284546	1051.290649	1993.356201	983.024963	-7.246384
270.660339	1033.086426	2025.213501	1035.361938	0.229357
271.036133	1003.504700	2168.571289	912.483826	-7.812504
271.411835	1026.259888	2143.540527	1042.188477	1.425657
271.787537	967.096313	2305.102539	978.473938	0.850342
272.163239	1014.882263	2402.949951	1051.290649	2.622955
272.538849	973.922913	2484.868652	1012.606750	2.560240
272.914459	1019.433350	2564.511963	1055.841675	2.356406
273.290070	1067.219238	2282.347412	1039.912964	-2.247193
273.665588	973.922913	2191.326416	1010.331238	2.990654
274.041046	1019.433350	2280.071777	1058.117188	3.068591
274.416565	971.647400	2211.806152	1087.698975	9.357800
274.791962	996.678101	2302.827148	1044.463989	3.658533
275.167389	1064.943726	2157.193604	1019.433350	-4.166663
275.542755	1014.882263	2198.153076	960.269775	-4.615384
275.918060	1017.157776	2175.397949	1074.045776	4.911589
276.293365	1035.361938	2161.744873	1058.117188	2.020205
276.668640	1103.627563	2202.704102	960.269775	-13.043476
277.043854	987.576050	2366.541748	1030.810913	3.135311
277.419037	1037.637451	2311.929199	1039.912964	0.178571
277.794189	1021.708862	2252.765625	1028.535400	0.554527
278.169312	1017.157776	2348.337402	1012.606750	-0.341879
278.544373	1028.535400	2323.306641	1037.637451	0.702985
278.919464	1010.331238	2348.337402	1083.147949	5.442181
279.294464	960.269775	2311.929199	1064.943726	7.744107
279.669464	1026.259888	2259.592041	1092.250000	5.350555
280.044403	989.851563	2202.704102	1042.188477	4.315192
280.419312	1046.739624	2293.724854	1003.504700	-3.467156
280.794189	1014.882263	2400.674561	1146.862427	9.523806
281.169037	1074.045776	2348.337402	960.269775	-8.928569
281.543854	1037.637451	2407.500977	1005.780212	-2.325577
281.918671	1017.157776	2434.807373	1044.463989	1.926161
282.293365	992.127075	2557.685303	1046.739624	3.488375
282.668091	1021.708862	2632.777588	1010.331238	-0.706216
283.042786	1028.535400	2767.033203	1028.535400	0.000000
283.417419	1021.708862	2676.012451	1119.556274	5.914719
283.792053	1142.311401	2707.869873	964.820801	-11.337207
284.166595	1023.984375	2632.777588	1103.627563	4.950492
284.541138	1060.392700	2580.440674	1049.015137	-0.748500
284.915619	1069.494751	2484.868652	989.851563	-5.627007
285.290100	980.749451	2589.542725	1019.433350	2.404529
285.664520	1064.943726	2739.727051	1030.810913	-2.038043
286.038940	1140.035889	2830.747803	978.473938	-9.555853
286.413300	942.065613	2958.177002	1030.810913	4.401805
286.787628	1035.361938	2871.707275	1053.566162	0.991329
287.161896	1046.739624	2905.840088	973.922913	-3.916771
287.536194	1037.637451	2974.105713	1117.280762	4.112813
287.910400	1005.780212	2885.360352	1046.739624	2.179179
288.284607	1005.780212	2716.971924	1014.882263	0.531913
288.658752	1003.504700	2516.726074	987.576050	-1.052632
289.032867	976.198425	2569.062988	1026.259888	3.142858
289.406921	985.300537	2641.879639	1039.912964	3.296699
289.781006	1039.912964	2705.594238	1078.596802	2.322403
290.154999	1126.382813	2710.145264	962.545288	-10.344830
290.529022	1008.055725	2719.247314	1008.055725	0.000000
290.902954	989.851563	2930.870850	1053.566162	3.282533
291.276825	1064.943726	2965.003662	1001.229126	-3.353294
291.650757	1014.882263	3060.575439	1019.433350	0.222472
292.024597	1071.770264	3037.820313	1055.841675	-0.810182
292.398407	996.678101	2978.656738	992.127075	-0.229620
292.772156	1023.984375	2903.564453	973.922913	-2.663439
293.145905	1017.157776	2819.370361	1080.872437	3.535357
293.519592	1001.229126	2691.941162	1060.392700	3.499329
293.893280	937.514587	2687.390137	1051.290649	6.501952
294.266907	967.096313	2801.166016	1092.250000	6.823824
294.640533	1030.810913	2871.707275	1110.454102	4.326326
295.014069	978.473938	3069.677490	1017.157776	1.849836
295.387604	955.718750	3249.443604	1085.423462	5.654763
295.761078	973.922913	3151.596191	1042.188477	3.134794
296.134552	1014.882263	3062.851074	1046.739624	1.555559
296.507996	1001.229126	3172.075928	1051.290649	2.306083
296.881378	1010.331238	3178.902588	1010.331238	0.000000
297.254730	1010.331238	3383.699463	1021.708862	0.479387
297.628021	962.545288	3545.261475	962.545288	0.000000
298.001282	937.514587	3684.068115	1051.290649	4.142503
298.374573	1046.739624	3579.394287	1028.535400	-0.718780
298.747803	1037.637451	3458.791504	1058.117188	0.845867
299.121002	1060.392700	3401.903564	1101.352051	1.749270
299.494141	973.922913	3185.729004	1053.566162	3.600824
299.867188	1010.331238	3074.228516	1078.596802	3.307605
300.240265	983.024963	3281.301025	1067.219238	3.663366
300.613312	1005.780212	3076.504150	1099.076538	4.505493
300.986328	985.300537	2990.034424	1083.147949	4.880818
301.359314	1023.984375	2889.911377	1033.086426	0.487803
301.732239	1026.259888	2965.003662	1012.606750	-0.704226
302.105103	1039.912964	2999.136475	1092.250000	2.671315
302.477997	1026.259888	2896.738037	1023.984375	-0.121654
302.850830	1053.566162	3021.891602	1023.984375	-1.502891
303.223602	1017.157776	2801.166016	1033.086426	0.892857
303.596375	994.402588	2917.217773	1051.290649	2.958582
303.969116	1005.780212	2710.145264	1055.841675	2.937250
304.341766	978.473938	2805.717041	1083.147949	5.728521
304.714478	998.953613	2839.849854	1005.780212	0.370830
305.087067	1039.912964	2748.829102	1165.066650	7.323571
305.459656	1010.331238	2848.952148	1103.627563	5.074256
305.832214	1021.708862	2710.145264	1124.107300	6.064690
306.204681	1058.117188	2794.339600	1067.219238	0.524244
306.577148	980.749451	2723.798340	1096.801025	6.657965
306.949646	1003.504700	2864.880615	1146.862427	7.701707
307.322021	1021.708862	2812.543701	1158.240112	7.623888
307.694397	978.473938	2801.166016	1231.056763	13.857679
308.066742	1010.331238	2830.747803	1194.648438	10.125002
308.439026	948.892151	2903.564453	1256.087524	15.715952
308.811279	1067.219238	3015.064941	1242.434326	8.995327
309.183502	967.096313	3033.269287	1392.618774	20.594717
309.555695	985.300537	3065.126465	1278.842651	14.113783
309.927887	962.545288	3081.055176	1388.067749	20.085934
310.299988	1012.606750	3078.779541	1433.578125	20.374451
310.672058	1080.872437	3231.239502	1358.485962	12.910052
311.044128	1094.525513	3224.413086	1408.547363	14.743587
311.416168	1087.698975	3265.372314	1408.547363	14.733541
311.788147	951.167725	3106.085938	1451.782227	23.231253
312.160065	992.127075	3215.310791	1401.720825	18.423748
312.531982	1042.188477	3206.208740	1483.639526	20.399580
312.903870	1019.433350	3147.045166	1472.261963	21.283422
313.275696	1037.637451	3062.851074	1481.364014	21.910112
313.647491	1060.392700	3035.544678	1508.670288	22.695852
314.019318	1051.290649	3092.432861	1458.608887	19.955406
314.391022	946.616638	2969.554688	1429.027100	23.847021
314.762726	967.096313	3181.177979	1458.608887	22.199389
315.134369	1030.810913	3231.239502	1454.057739	19.234743
315.505981	980.749451	3304.056152	1392.618774	17.727720
315.877594	1046.739624	3358.668701	1611.068726	24.409445
316.249146	1019.433350	3242.617188	1549.629639	23.848513
316.620636	1014.882263	3071.953125	1479.088501	22.566372
316.992157	1019.433350	3135.667725	1481.364014	21.827953
317.363586	1028.535400	2955.901611	1474.537476	23.140495
317.735016	1049.015137	2792.063965	1413.098389	20.887726
318.106354	1028.535400	2958.177002	1417.649414	20.165092
318.477722	1051.290649	2951.350586	1410.822876	18.922152
318.849060	1008.055725	2996.860840	1419.924927	20.709379
319.220306	1026.259888	2978.656738	1349.383789	16.550114
319.591522	976.198425	3110.636963	1463.159912	22.814501
319.962738	987.576050	3142.494141	1442.680176	21.119326
320.333923	1028.535400	3096.983887	1403.996338	18.151815
320.705017	1051.290649	3081.055176	1372.139038	15.807173
321.076111	1053.566162	3037.820313	1403.996338	17.660549
321.447144	1026.259888	3017.340576	1449.506714	21.257141
321.818176	976.198425	2835.298828	1374.414551	21.419830
322.189178	994.402588	2953.625977	1410.822876	21.254354
322.560120	1023.984375	2880.809326	1444.955688	22.671568
322.931030	944.341125	2996.860840	1381.241089	21.286030
323.301910	983.024963	3040.095703	1456.333252	23.008848
323.672729	1012.606750	3119.739014	1472.261963	21.814255
324.043549	989.851563	3269.923340	1508.670288	22.754492
324.414337	1010.331238	3486.097900	1435.853638	17.187500
324.785095	1058.117188	3554.363525	1488.190552	17.228804
325.155792	948.892151	3672.690674	1529.150024	21.303259
325.526428	1010.331238	3661.312988	1524.598877	19.399139
325.897034	1080.872437	3447.414063	1529.150024	18.942308
326.267670	1012.606750	3436.036377	1419.924927	16.807510
326.638184	962.545288	3451.965088	1429.027100	18.738575
327.008728	1028.535400	3631.731201	1535.976563	19.493008
327.379211	1067.219238	3429.209961	1535.976563	19.845858
327.749634	980.749451	3547.536865	1479.088501	19.414894
328.120026	1060.392700	3392.801514	1476.812988	17.853659
328.490417	996.678101	3438.312012	1497.292725	20.503263
328.860748	992.127075	3379.148438	1397.169800	16.968542
329.231079	996.678101	3317.709229	1447.231201	19.411764
329.601318	1042.188477	3383.699463	1299.322388	10.981538
329.971558	971.647400	3304.056152	1444.955688	20.292683
330.341736	1023.984375	3290.403076	1449.506714	18.775099
330.711914	1014.882263	3317.709229	1460.884399	19.367592
331.082062	948.892151	3351.842041	1458.608887	21.212124
331.452148	998.953613	3299.505127	1390.343262	17.012861
331.822174	1080.872437	3351.842041	1376.690063	13.026049
332.192200	998.953613	3354.117676	1499.568237	21.256041
332.562134	1028.535400	3465.618164	1515.496826	19.981325
332.932129	992.127075	3581.669678	1440.404663	17.311073
333.302063	976.198425	3615.802490	1538.252075	21.293104
333.671906	1067.219238	3811.497314	1413.098389	12.603648
334.041718	1033.086426	3827.426025	1504.119263	16.856678
334.411499	983.024963	3740.956299	1460.884399	17.326735
334.781281	1042.188477	3779.640137	1510.945801	17.123857
335.151001	1078.596802	3843.354736	1490.466064	14.897120
335.520721	1028.535400	3581.669678	1474.537476	17.468805
335.890350	1008.055725	3513.404053	1483.639526	18.982740
336.259979	1028.535400	3663.588379	1454.057739	16.148531
336.629547	1019.433350	3659.037354	1488.190552	17.758619
336.999084	1017.157776	3784.191162	1465.435425	16.200659
337.368622	944.341125	3722.751953	1551.905151	21.867321
337.738098	978.473938	3754.609375	1520.047852	19.508194
338.107513	987.576050	3816.048340	1520.047852	18.825420
338.476898	1058.117188	3743.231689	1451.782227	14.661015
338.846252	932.963501	3795.568604	1529.150024	20.826714
339.215576	1001.229126	3754.609375	1481.364014	17.438015
339.584869	1074.045776	3834.252441	1561.007324	17.642214
339.954132	1033.086426	3745.507324	1524.598877	18.120804
340.323334	1039.912964	3747.782715	1524.598877	17.899160
340.692505	1046.739624	3624.904541	1456.333252	15.887021
341.061646	967.096313	3520.230713	1335.730713	14.438504
341.430786	1026.259888	3706.823486	1476.812988	16.808149
341.799896	992.127075	3661.312988	1535.976563	20.375107
342.168915	1053.566162	3784.191162	1547.354126	18.083332
342.537903	1080.872437	3957.130615	1510.945801	14.952529
342.906830	983.024963	3973.059326	1533.701050	18.417048
343.275757	985.300537	4004.916504	1572.384888	19.442352
343.644684	978.473938	4109.590332	1545.078613	18.095932
344.013550	1030.810913	4139.172363	1492.741699	14.860910
344.382355	973.922913	4227.917480	1538.252075	17.342659
344.751129	960.269775	4357.622559	1513.221313	16.275953
345.119873	1035.361938	4516.908691	1588.313477	15.882352
345.488586	1008.055725	4687.572754	1642.926025	17.254175
345.857269	1028.535400	4896.920898	1642.926025	15.882353
346.225891	1014.882263	4974.288574	1690.711914	17.068964
346.594482	1044.463989	4876.440918	1656.579102	15.973872
346.963043	1049.015137	4940.155762	1636.099487	15.087719
347.331543	983.024963	4539.664063	1590.588989	17.082533
347.700043	1017.157776	4646.613281	1724.844727	19.498432
348.068512	1005.780212	4455.469727	1485.915039	13.918204
348.436951	1039.912964	4218.815430	1611.068726	17.967075
348.805328	1053.566162	4264.326172	1640.650513	18.284903
349.173645	1089.974487	4314.387207	1683.885376	18.419197
349.541931	1078.596802	4232.468750	1576.935913	15.800866
349.910217	1083.147949	4323.489746	1540.527588	14.115167
350.278473	1076.321289	4466.847168	1654.303589	17.046982
350.646667	1049.015137	4523.735352	1649.752563	17.288799
351.014801	996.678101	4514.633301	1713.467163	20.375162
351.382935	1035.361938	4619.307129	1674.783325	17.841270
351.751007	1001.229126	4489.602539	1633.823975	18.134378
352.119049	1094.525513	4573.796875	1652.028076	16.023542
352.487091	1053.566162	4519.184082	1626.997314	16.546289
352.855072	1115.005249	4632.960449	1597.415649	13.712808
353.222992	1001.229126	4737.634277	1672.507813	17.965897
353.590881	955.718750	4785.420410	1645.201538	18.003565
353.958740	996.678101	4976.563965	1670.232300	16.923958
354.326599	1087.698975	5008.421387	1752.151001	16.947184
354.694397	1026.259888	5122.197266	1697.538574	16.388889
355.062134	992.127075	5295.136719	1806.763550	18.931784
355.429840	1046.739624	5297.412598	1774.906250	17.130621
355.797516	948.892151	5402.086426	1806.763550	19.264181
356.165192	1071.770264	5399.811035	1831.794189	17.560461
356.532776	1026.259888	5681.975586	1897.784302	18.719450
356.900360	992.127075	5777.547363	1959.223389	20.209223
357.267883	1010.331238	5977.792969	1950.121338	18.918919
357.635376	1119.556274	6180.314453	1961.498901	16.636688
358.002808	1008.055725	6542.122070	1997.907227	17.886513
358.370270	1046.739624	6769.674316	2111.683350	18.608351
358.737640	1026.259888	6815.184570	2266.418701	21.422956
359.105011	1019.433350	6526.193848	2063.897461	18.966942
359.472321	1030.810913	6271.335449	2004.733887	18.584455
359.839569	1051.290649	6241.753418	2054.795166	19.333622
360.206787	1069.494751	6214.447266	1966.049927	17.425917
360.574005	964.820801	6435.172852	2061.621826	20.049917
360.941193	1021.708862	6888.001465	2123.060791	18.774242
361.308319	994.402588	7156.512695	2200.428711	19.571642
361.675415	983.024963	7732.219727	2250.489990	18.779501
362.042450	1049.015137	8323.855469	2471.215576	19.549576
362.409424	1014.882263	8644.703125	2514.450439	19.654041
362.776428	1010.331238	8606.019531	2591.818115	20.820848
363.143402	980.749451	8287.446289	2587.267090	21.986919
363.510284	994.402588	8014.384277	2414.327637	20.226906
363.877136	1042.188477	7217.952148	2266.418701	19.823139
364.243988	1064.943726	6578.530762	2189.051025	20.387949
364.610779	969.371887	6378.284668	2164.020264	22.086666
364.977539	1021.708862	6262.233398	2177.673340	22.058184
365.344269	1074.045776	6112.048828	2116.234375	20.686543
365.710938	969.371887	6166.661133	2189.051025	23.467604
366.077576	946.616638	5911.803223	2189.051025	25.022913
366.444183	973.922913	5768.445313	1970.601074	20.787851
366.810760	1033.086426	5761.618652	2193.602051	24.542830
367.177277	1046.739624	5918.629395	2136.714111	22.372725
367.543823	1003.504700	5891.323242	2264.143311	25.791439
367.910248	1019.433350	5898.149902	2145.816162	23.087687
368.276642	976.198425	5893.598633	2177.673340	24.433130
368.643036	1001.229126	5659.220215	2179.948975	25.305326
369.009399	1023.984375	5575.025879	2123.060791	24.149998
369.375671	994.402588	5818.506836	2111.683350	23.160376
369.741974	983.024963	5741.139160	2159.469238	24.725012
370.108215	1037.637451	5693.353027	2234.561523	25.708702
370.474396	983.024963	5770.720703	2182.224365	25.047529
370.840546	1039.912964	5859.465820	2132.163086	22.662893
371.206665	930.687988	5893.598633	2207.255127	25.722147
371.572784	994.402588	5823.057617	2264.143311	26.295948
371.938843	1092.250000	6218.998535	2357.439453	24.678204
372.304840	1028.535400	6027.854492	2273.245361	24.897589
372.670807	1105.903076	5875.394531	2305.102539	25.143131
373.036713	957.994263	6021.027832	2382.470215	28.134830
373.402649	969.371887	5752.516602	2225.459229	26.260704
373.768524	955.718750	5795.751465	2184.500000	25.387871
374.134308	985.300537	5909.527344	2375.643799	28.234755
374.500122	1014.882263	6057.436523	2384.745850	27.166065
374.865875	998.953613	6180.314453	2380.194824	26.657885
375.231567	1096.801025	6100.671387	2359.715088	25.238747
375.597260	1003.504700	6153.008301	2557.685303	30.181175
375.962891	1012.606750	6376.009277	2541.756836	28.510822
376.328461	971.647400	6649.071777	2657.808350	29.699398
376.694031	1035.361938	6735.541504	2625.950928	27.904190
377.059540	1026.259888	6983.573242	2853.503174	30.672270
377.425049	1026.259888	7365.860840	2835.298828	28.535532
377.790497	1035.361938	7591.137207	2944.523926	29.121834
378.155945	1003.504700	7739.046387	2908.115479	28.277027
378.521301	1037.637451	7625.270020	3049.197754	30.535404
378.886597	1099.076538	7493.290039	3005.962891	29.822063
379.251892	1051.290649	7181.543457	2767.033203	27.988121
379.617157	1026.259888	6958.542480	2835.298828	30.494820
379.982422	1039.912964	6769.674316	2821.645752	31.096109
380.347595	1026.259888	6619.490234	2778.410889	31.326279
380.712738	1028.535400	6660.449219	2730.625000	30.222223
381.077820	1008.055725	6710.510742	2937.697266	33.838787
381.442902	1060.392700	6626.316406	2921.768799	33.442356
381.807953	994.402588	6662.725098	2946.799316	34.443996
382.172974	1012.606750	6956.267090	2846.676514	30.857582
382.537933	1028.535400	6585.357422	2864.880615	33.046680
382.902832	955.718750	6637.694336	2908.115479	34.361229
383.267700	1142.311401	6853.868652	3117.463379	34.581673
383.632538	980.749451	7006.328613	3153.871826	36.064953
383.997345	1044.463989	7083.696289	3096.983887	33.986439
384.362152	1021.708862	7279.391113	3381.423828	37.709087
384.726898	1044.463989	7197.472168	3313.158203	36.871304
385.091553	1044.463989	7429.575195	3329.086914	35.780472
385.456238	1023.984375	7334.003418	3349.566650	36.855392
385.820862	976.198425	7420.473145	3367.770752	37.111580
386.185425	955.718750	7504.667480	3442.863037	37.977764
386.549988	998.953613	7459.157227	3533.883789	39.239170
386.914490	976.198425	7770.903320	3670.415039	39.651707
387.278961	1019.433350	7636.647949	3654.486328	39.821178
387.643372	878.351013	8000.730957	3788.742188	40.862621
388.007782	998.953613	7859.648926	3841.079102	41.426201
388.372101	992.127075	7843.720215	3911.620361	42.610428
388.736450	985.300537	7775.454590	3945.753174	43.599194
389.100739	980.749451	7734.495117	4114.141602	46.394878
389.464966	1019.433350	7629.821289	4004.916504	45.163509
389.829163	1046.739624	7825.516113	3938.926514	42.665325
390.193329	1055.841675	7588.861816	4002.641113	45.106236
390.557495	1028.535400	7909.710449	4095.937500	44.576721
390.921570	1076.321289	7850.546875	4243.846191	46.758480
391.285614	1023.984375	8068.996582	4425.888184	48.288116
391.649597	1021.708862	8405.773438	4630.685059	48.875198
392.013550	989.851563	8951.898438	4758.113770	47.327808
392.377502	1012.606750	9054.296875	4962.910645	49.122810
392.741455	973.922913	9017.888672	5078.962402	51.032532
393.105316	1067.219238	9038.368164	5101.717773	50.613766
393.469086	951.167725	8904.113281	4969.737305	50.529324
393.832886	1064.943726	8578.713867	5147.228027	54.330704
394.196655	1017.157776	9006.511719	5235.973145	52.805462
394.560333	980.749451	8997.409180	5320.167480	54.130001
394.924042	1051.290649	9086.154297	5531.791016	55.763241
395.287659	1053.566162	9052.021484	5447.596680	54.935986
395.651245	1042.188477	9020.164063	5609.158691	57.244724
396.014771	951.167725	8744.826172	5445.321289	57.664234
396.378296	1060.392700	8437.630859	5367.953613	58.389885
396.741791	946.616638	8278.344727	5251.901855	58.721287
397.105255	989.851563	8082.649902	5322.443359	61.084377
397.468628	1042.188477	7998.455566	5245.075684	60.418716
397.832001	1019.433350	7966.598145	5383.882324	62.823456
398.195313	992.127075	8253.313477	5397.535156	60.670639
398.558624	1030.810913	7927.914551	5326.994141	62.289673
398.921844	1067.219238	8094.027344	5588.679199	64.345856
399.285095	1042.188477	8207.803711	5641.016113	64.179100
399.648254	1089.974487	8191.875000	5707.006348	65.011215
400.011383	976.198425	8162.292969	5823.057617	67.447754
400.374451	955.718750	8194.150391	5795.751465	66.865768
400.737549	1030.810913	8280.620117	5877.670410	66.854996
401.100586	976.198425	8121.333984	5868.568359	68.471336
401.463562	994.402588	8155.466797	5879.945801	68.223701
401.826508	896.555176	8458.110352	6203.069824	70.177559
402.189392	1005.780212	8062.170410	5995.997070	70.719116
402.552246	1026.259888	8330.681641	6262.233398	71.682243
402.915070	1010.331238	8373.916992	6223.549316	70.797279
403.277893	1010.331238	8380.743164	6460.203613	73.942574
403.640656	1014.882263	8662.907227	6621.765625	73.311523
404.003326	1062.668213	9029.266602	6790.154297	71.893745
404.366028	1046.739624	9038.368164	6819.735840	72.238045
404.728699	994.402588	9240.889648	7242.982910	75.772629
405.091248	951.167725	9561.738281	7379.514160	74.656456
405.453857	926.136963	9445.686523	7504.667480	77.216873
405.816345	967.096313	9520.779297	7318.074707	74.248474
406.178833	1019.433350	9432.034180	7377.238281	75.574783
406.541260	1005.780212	9468.442383	7468.259277	76.364609
406.903687	985.300537	9309.155273	7318.074707	76.079834
407.266052	1051.290649	9236.338867	7288.493164	76.202393
407.628387	989.851563	9049.746094	7334.003418	78.712593
407.990662	1035.361938	8981.480469	7099.625000	76.317299
408.352905	1023.984375	8999.684570	7288.493164	78.544937
408.715118	962.545288	8924.592773	7272.564453	79.251213
409.077332	994.402588	8933.694336	7252.084961	78.819153
409.439484	932.963501	8772.132813	7443.228516	83.047897
409.801575	1046.739624	9174.899414	7557.004395	80.095184
410.163605	1028.535400	9304.604492	7541.076172	78.691231
410.525635	1012.606750	9427.482422	7795.934082	80.611137
410.887604	987.576050	9520.779297	7900.608398	81.013336
411.249573	1037.637451	9743.780273	7820.964844	77.914268
411.611481	1089.974487	9507.125977	7839.168945	80.183830
411.973328	1010.331238	9559.462891	7572.933105	76.763374
412.335144	1078.596802	9650.483398	7686.709473	77.090530
412.696930	1099.076538	9300.053711	7563.831055	78.829071
413.058685	1083.147949	9231.788086	7745.873047	81.764870
413.420410	1051.290649	9363.768555	7625.270020	79.085678
413.782104	1087.698975	9427.482422	7752.699219	79.918144
414.143707	980.749451	9434.309570	7688.984863	79.353966
414.505310	1092.250000	9407.002930	7818.689453	80.897644
414.866852	1019.433350	9736.953125	7889.230469	78.804489
415.228394	1003.504700	9661.861328	8030.312988	81.156372
415.589874	1033.086426	10003.189453	8282.895508	80.821915
415.951324	937.514587	10157.924805	8417.151367	81.120438
416.312683	1080.872437	10415.058594	8533.203125	79.839104
416.674072	985.300537	10469.670898	8879.082031	83.229370
417.035370	978.473938	10924.775391	9013.337891	80.782425
417.396667	1003.504700	10961.183594	9154.419922	81.855576
417.757935	1064.943726	10970.286133	9295.502930	83.092125
418.119141	1055.841675	11334.369141	9582.217773	82.953285
418.480286	1049.015137	11703.003906	9741.504883	81.589073
418.841400	1058.117188	12522.191406	10207.986328	79.813416
419.202484	1021.708862	12820.284180	10380.925781	79.324974
419.563568	1033.086426	13027.356445	11218.317383	84.917473
419.924591	1014.882263	13803.309570	11750.789063	83.950172
420.285553	1030.810913	14037.687500	11784.921875	82.680199
420.646484	1042.188477	14913.763672	12540.395508	82.890419
421.007355	1051.290649	15462.164063	12731.539063	81.051636
421.368225	1026.259888	16101.584961	13475.633789	82.581131
421.729065	1089.974487	16479.322266	13719.115234	82.064171
422.089874	987.576050	17364.500000	14351.709961	81.603447
422.450592	983.024963	17084.609375	14076.372070	81.317131
422.811279	996.678101	16911.669922	14222.004883	83.099800
423.171936	976.198425	16624.955078	13603.063477	80.689255
423.532593	969.371887	16363.270508	13628.093750	82.232071
423.893127	939.790100	16736.455078	13873.850586	81.878426
424.253723	1010.331238	16975.384766	14064.994141	81.770241
424.614197	1003.504700	16904.843750	14158.290039	82.727531
424.974670	1001.229126	17860.562500	14617.945313	80.766632
425.335052	1037.637451	17762.714844	14749.925781	81.986389
425.695496	1055.841675	16866.160156	13980.799805	81.750145
426.055817	1076.321289	17130.121094	14340.332031	82.622253
426.416168	967.096313	16818.375000	14003.554688	82.242317
426.776398	930.687988	16001.461914	13345.929688	82.379593
427.136627	1055.841675	15282.397461	12729.263672	82.053749
427.496826	1053.566162	15086.703125	12758.844727	83.411705
427.856995	1060.392700	14579.261719	12142.178711	81.972733
428.217102	905.657288	14019.483398	11555.094727	81.207710
428.577179	985.300537	13898.880859	11668.871094	82.731285
428.937195	1055.841675	13616.716797	11543.716797	83.496376
429.297180	987.576050	13204.847656	11008.969727	82.026443
429.657135	969.371887	13293.592773	10899.745117	80.576073
430.017059	887.453125	13091.071289	10949.805664	82.453850
430.376984	1026.259888	13015.978516	10922.500000	82.539383
430.736786	1017.157776	12997.774414	10726.804688	81.044632
431.096588	1014.882263	12745.192383	10810.999023	83.511147
431.456360	989.851563	12899.927734	10826.927734	82.594566
431.816071	957.994263	12488.058594	10296.731445	80.994667
432.175781	1026.259888	12676.926758	10603.926758	82.207024
432.535400	944.341125	12747.467773	10501.528320	80.971657
432.895020	1005.780212	12640.517578	10537.936523	81.928421
433.254578	1012.606750	12833.937500	10867.887695	83.368629
433.614105	1108.178589	12959.090820	10799.622070	81.778038
433.973602	1008.055725	13345.929688	10922.500000	80.357803
434.333038	1096.801025	13480.185547	11097.714844	80.760750
434.692444	1028.535400	13648.574219	11015.795898	79.138115
435.051819	1062.668213	13755.523438	11257.000977	80.315521
435.411133	1001.229126	13762.349609	11172.807617	79.707565
435.770416	1008.055725	12706.507813	10726.804688	83.077225
436.129669	1019.433350	13646.297852	11427.665039	82.429268
436.488861	1055.841675	13582.583984	11029.449219	79.618523
436.848083	951.167725	13154.786133	10874.713867	81.316422
437.207184	985.300537	13409.644531	11152.327148	81.831497
437.566254	1051.290649	13618.992188	11473.175781	82.925941
437.925293	962.545288	13618.992188	11252.450195	81.301689
438.284363	989.851563	13593.960938	11320.715820	81.964256
438.643311	1046.739624	13871.575195	11652.942383	82.700500
439.002258	978.473938	13905.708008	11605.156250	82.203835
439.361145	1005.780212	14258.413086	11850.912109	81.833794
439.719971	1055.841675	15034.366211	12499.435547	81.865532
440.078827	998.953613	15066.223633	12549.497070	82.109344
440.437592	962.545288	15662.410156	12720.161133	79.984520
440.796295	1067.219238	15687.440430	13134.305664	82.536964
441.155029	1105.903076	16645.435547	13596.236328	80.377792
441.513672	1044.463989	17287.130859	13912.534180	79.223877
441.872253	1069.494751	16870.710938	14042.239258	82.099655
442.230865	1003.504700	16558.964844	13603.063477	80.997658
442.589386	1028.535400	16499.800781	13725.941406	82.070892
442.947876	1062.668213	16085.656250	13418.746094	82.247803
443.306335	1023.984375	15837.625000	13293.592773	82.826424
443.664764	980.749451	15243.713867	12624.589844	81.636887
444.023102	1026.259888	15676.062500	13172.990234	82.913956
444.381500	1039.912964	15284.672852	12886.274414	83.162941
444.739777	1023.984375	15735.226563	12633.691406	78.917244
445.098022	1003.504700	15892.237305	12854.416992	79.596512
445.456238	1094.525513	15849.001953	13050.111328	81.030228
445.814423	1003.504700	16201.708008	13766.900391	83.979637
446.172577	989.851563	17237.070313	14317.577148	82.030815
446.530701	935.239075	17180.181641	14335.781250	82.490547
446.888733	1035.361938	17885.593750	14818.191406	81.796074
447.246765	998.953613	18686.576172	15560.011719	82.323433
447.604736	1010.331238	18008.470703	15118.560547	82.998672
447.962677	1014.882263	18183.687500	15020.712891	81.577202
448.320587	1005.780212	18363.453125	15148.141602	81.476135
448.678436	1049.015137	18151.830078	14804.538086	80.428421
449.036255	1005.780212	17771.818359	14756.751953	82.016815
449.394043	1003.504700	16533.933594	13983.075195	83.575096
449.751770	1028.535400	17109.640625	14156.014648	81.632942
450.109467	1003.504700	16483.873047	13725.941406	82.184326
450.467163	1044.463989	16372.372070	13473.358398	81.086700
450.824768	1010.331238	16017.390625	13316.347656	82.001518
451.182343	1035.361938	16267.698242	13348.205078	80.833580
451.539886	1033.086426	15546.358398	12893.100586	81.718407
451.897369	1035.361938	15771.634766	12788.426758	79.756020
452.254822	942.065613	15396.173828	12915.856445	82.840050
452.612274	985.300537	16006.013672	13125.204102	80.821083
452.969635	1035.361938	15689.715820	13188.918945	82.934784
453.326965	980.749451	15764.808594	12831.662109	80.160072
453.684326	1019.433350	15425.755859	12845.314453	82.088135
454.041534	967.096313	15271.020508	12465.302734	80.384979
454.398773	983.024963	15034.366211	12005.647461	78.445343
454.755951	1021.708862	14340.332031	11746.238281	80.522812
455.113098	1042.188477	14087.749023	11484.553711	80.045357
455.470215	1019.433350	14294.821289	11875.943359	81.779228
455.827240	1046.739624	14085.473633	11673.421875	81.500877
456.184265	980.749451	13801.033203	11475.451172	81.860138
456.541260	1046.739624	14060.443359	11682.523438	81.727570
456.898193	1039.912964	14140.085938	11420.838867	79.242661
457.255096	987.576050	14360.811523	11771.269531	80.636383
457.611969	1014.882263	14078.647461	11418.563477	79.637695
457.968781	1005.780212	13919.360352	11414.012695	80.599121
458.325531	1078.596802	14208.351563	11896.422852	82.391685
458.682312	1080.872437	15170.897461	12579.079102	81.605293
459.039001	1039.912964	15614.624023	13000.050781	82.060890
459.395630	1014.882263	16395.126953	13502.940430	81.195442
459.752289	1064.943726	17840.083984	14938.793945	82.704826
460.108856	998.953613	18936.884766	15821.696289	82.633507
460.465363	1023.984375	19926.736328	16313.208984	80.883591
460.821899	980.749451	19778.826172	16060.625977	80.220322
461.178345	1035.361938	19248.630859	15801.216797	81.071960
461.534760	1003.504700	19164.435547	15626.000977	80.516220
461.891144	1017.157776	17958.410156	14759.028320	81.114845
462.247467	1030.810913	17052.751953	14080.922852	81.451508
462.603760	1074.045776	16872.986328	13989.902344	81.751411
462.960052	1021.708862	16085.656250	13157.061523	80.558914
463.316254	1008.055725	15343.836914	12610.936523	80.936508
463.672424	1012.606750	15186.826172	12499.435547	81.040291
464.028564	996.678101	14640.701172	12378.833008	83.422279
464.384644	923.861450	14861.426758	12078.464844	80.032654
464.740723	987.576050	15020.712891	12324.220703	80.784821
465.096741	996.678101	14931.967773	12062.536133	79.408882
465.452698	1005.780212	14850.048828	12244.577148	81.180145
465.808655	1014.882263	15086.703125	12135.352539	79.026520
466.164520	932.963501	14636.149414	12092.117188	81.434738
466.520355	1044.463989	15742.052734	12547.221680	78.262894
466.876190	1014.882263	15742.052734	12792.977539	79.975273
467.231964	969.371887	15614.624023	13084.244141	82.722183
467.587677	1105.903076	16049.248047	13471.083008	82.747070
467.943390	976.198425	16326.861328	13530.247070	81.781799
468.299011	1001.229126	15671.511719	12956.815430	81.495270
468.654633	1046.739624	15391.623047	12740.640625	81.519669
469.010223	1051.290649	15471.265625	12731.539063	81.000473
469.365723	1012.606750	15095.804688	12324.220703	80.319923
469.721191	1019.433350	15318.805664	12681.477539	81.556335
470.076660	980.749451	14638.425781	12319.669922	83.022324
470.432068	987.576050	14952.447266	12319.669922	81.147141
470.787445	973.922913	14738.547852	12242.301758	81.864769
471.142792	973.922913	14952.447266	12014.750000	78.984207
471.498016	1008.055725	15013.886719	12560.875000	82.485779
471.853271	1003.504700	15129.937500	12246.852539	79.590851
472.208496	1060.392700	14802.262695	12390.210938	82.447426
472.563660	998.953613	15143.590820	12408.415039	80.662804
472.918762	1117.280762	15389.347656	12592.732422	80.404976
473.273865	1042.188477	15598.695313	12938.611328	81.725807
473.628876	1060.392700	15946.849609	13282.214844	82.100273
473.983917	1012.606750	16167.575195	13418.746094	81.861862
474.338837	1083.147949	16049.248047	13193.469727	80.918358
474.693787	987.576050	16224.462891	13145.683594	79.793907
475.048645	1101.352051	15926.370117	12981.845703	80.138145
475.403503	1069.494751	16169.850586	13541.624023	82.594933
475.758270	980.749451	16495.250000	13461.981445	80.448814
476.113037	1110.454102	16547.587891	13282.214844	78.847282
476.467773	976.198425	16408.781250	13461.981445	80.905334
476.822418	1058.117188	17676.246094	14449.556641	80.583313
477.177063	1062.668213	17132.396484	14092.300781	81.081848
477.531647	980.749451	17414.560547	14483.689453	82.165611
477.886200	1008.055725	18201.890625	14811.365234	80.280579
478.240723	1005.780212	18295.187500	15193.652344	82.061066
478.595184	985.300537	19080.242188	15164.070313	78.357643
478.949585	1037.637451	18961.914063	15484.918945	80.601753
479.303986	1051.290649	19321.447266	15990.084961	81.766098
479.658325	1042.188477	19337.375000	15960.502930	81.542290
480.012634	1035.361938	19423.845703	15767.083984	80.113846
480.366913	996.678101	20224.828125	16260.872070	79.384621
480.721130	1046.739624	20661.728516	16659.087891	79.593971
481.075317	1069.494751	21223.783203	17362.224609	80.840012
481.429474	1115.005249	22045.246094	17956.134766	80.463142
481.783569	989.851563	23123.841797	18877.720703	80.816284
482.137604	1071.770264	24163.755859	19774.275391	80.991325
482.491669	1030.810913	26459.755859	21642.478516	81.055931
482.845612	1030.810913	29160.798828	23831.529297	81.054848
483.199554	1074.045776	33149.785156	26985.400391	80.781784
483.553436	998.953613	38524.566406	31700.281250	81.814331
483.907318	1003.504700	45344.304688	36915.773438	80.991478
484.261139	983.024963	51326.648438	42299.656250	82.069244
484.614899	1026.259888	54510.101563	45246.457031	82.679543
484.968628	973.922913	54027.691406	44777.699219	82.564873
485.322357	1039.912964	50866.992188	42222.289063	82.650589
485.675964	971.647400	47758.628906	38733.914063	80.711052
486.029572	1023.984375	43282.679688	35225.062500	80.932640
486.383148	1010.331238	40351.808594	33079.246094	81.514259
486.736694	1049.015137	38822.660156	31019.900391	79.343376
487.090149	1012.606750	38583.730469	31661.595703	81.575912
487.443604	1028.535400	39628.195313	32180.416016	80.705063
487.796997	1035.361938	41382.621094	33529.800781	80.536919
488.150360	1023.984375	42925.425781	35109.011719	81.345718
488.503693	1030.810913	43594.425781	35523.156250	81.037163
488.856964	1023.984375	42408.882813	34681.210938	81.327316
489.210175	983.024963	40272.167969	32690.130859	80.701950
489.563416	983.024963	38008.023438	30660.367188	80.154877
489.916565	1037.637451	35844.003906	29427.035156	81.563805
490.269653	1062.668213	33297.695313	27028.636719	80.552032
490.622772	1001.229126	32132.628906	26582.634766	82.172363
490.975769	1060.392700	32842.589844	26334.601563	79.523163
491.328735	1010.331238	33934.839844	27433.679688	80.254341
491.681732	978.473938	36201.261719	29126.666016	79.914711
492.034607	1003.504700	37976.167969	31163.257813	81.573112
492.387482	973.922913	39063.867188	31311.166016	79.646324
492.740326	1001.229126	37571.125000	30653.541016	81.083946
493.093079	985.300537	36239.945313	29427.035156	80.675140
493.445862	1028.535400	32954.093750	26591.736328	80.071274
493.798523	932.963501	30325.865234	24609.757813	80.552765
494.151215	1039.912964	28327.958984	22652.810547	79.202805
494.503815	964.820801	26236.753906	20818.740234	78.561142
494.856384	1023.984375	24600.656250	19869.847656	79.934364
495.208923	1067.219238	23574.394531	19002.875000	79.688614
495.561432	930.687988	22859.882813	18515.912109	80.190926
495.913879	1051.290649	22625.503906	18115.421875	79.095032
496.266296	1021.708862	22684.666016	18616.035156	81.218491
496.618683	1023.984375	22680.115234	18656.994141	81.422714
496.970978	980.749451	23408.283203	18770.771484	79.322243
497.323273	992.127075	24020.398438	18895.923828	77.747032
497.675507	994.402588	24147.826172	19355.580078	79.302216
498.027710	983.024963	23888.417969	19257.732422	79.783424
498.379852	1046.739624	23572.119141	18955.087891	79.502983
498.731995	985.300537	23344.568359	18745.740234	79.432114
499.084076	948.892151	22862.158203	18536.392578	80.259605
499.436096	971.647400	22666.462891	18038.052734	78.665825
499.788086	1008.055725	22391.125000	17669.419922	77.918488
500.140106	1051.290649	21822.244141	17501.031250	79.195885
500.491943	1023.984375	20848.322266	17225.693359	81.726357
500.843842	1021.708862	21160.068359	17064.130859	79.661018
501.195679	944.341125	20466.033203	16467.943359	79.519760
501.547455	976.198425	20277.166016	16167.575195	78.707855
501.899231	1051.290649	20197.523438	16222.187500	79.236984
502.250885	1028.535400	19947.214844	16194.881836	80.165993
502.602600	1051.290649	19785.654297	15971.880859	79.642899
502.954193	1033.086426	19669.601563	15889.961914	79.719170
503.305786	1014.882263	19894.878906	15773.910156	78.172836
503.657379	1042.188477	19983.623047	16092.483398	79.457001
504.008820	1037.637451	19753.796875	16169.850586	80.851051
504.360291	1087.698975	20277.166016	16283.626953	79.188904
504.711700	1049.015137	20147.460938	16292.728516	79.816513
505.063080	1071.770264	20190.695313	16429.259766	80.326111
505.414368	1055.841675	20272.615234	16338.239258	79.526344
505.765656	1089.974487	20070.093750	16169.850586	79.450905
506.116943	989.851563	20126.982422	16085.656250	78.882278
506.468109	1060.392700	20024.583984	16206.258789	79.865608
506.819305	1023.984375	19694.632813	15712.470703	78.671539
507.170410	1030.810913	19929.011719	16021.942383	79.325706
507.521484	964.820801	19719.664063	16067.452148	80.526566
507.872559	1033.086426	19860.746094	16128.891602	80.178871
508.223480	978.473938	19835.714844	16272.249023	81.102936
508.574493	1085.423462	20527.472656	16370.096680	78.616577
508.925385	1083.147949	20538.851563	16502.076172	79.251457
509.276245	1053.566162	20773.228516	16456.566406	78.109856
509.627045	1033.086426	21519.599609	16977.660156	77.829613
509.977814	1028.535400	21519.599609	17389.529297	79.844528
510.328613	1092.250000	21722.121094	17273.478516	78.435913
510.679260	1008.055725	21576.488281	17553.367188	80.440315
511.029999	1008.055725	21788.111328	17494.203125	79.336395
511.380585	1014.882263	22104.408203	17582.949219	78.560638
511.731140	1019.433350	22202.255859	17721.755859	78.848427
512.081726	1017.157776	22482.146484	17846.910156	78.405594
512.432129	1085.423462	22673.289063	18179.134766	79.182037
512.782654	996.678101	22486.697266	18236.023438	80.220245
513.133057	951.167725	23032.822266	18172.308594	77.988457
513.483398	1060.392700	22814.371094	18119.972656	78.420509
513.833801	1008.055725	22716.523438	18308.839844	79.696014
514.183960	1028.535400	22448.013672	17785.470703	78.232231
514.534302	998.953613	22070.275391	17794.572266	79.708427
514.884460	1012.606750	22083.929688	17749.062500	79.427643
515.234619	992.127075	22045.246094	17598.876953	78.880234
515.584717	1014.882263	21797.212891	17344.019531	78.572220
515.934753	1128.658325	21990.632813	17564.744141	78.784897
516.284851	1008.055725	22450.289063	17894.695313	78.754105
516.634766	1055.841675	22218.185547	17785.470703	79.053764
516.984741	957.994263	22566.339844	18299.738281	80.254845
517.334595	1062.668213	23658.589844	18700.230469	78.056396
517.684448	1008.055725	24029.500000	19494.386719	80.300484
518.034363	998.953613	24994.320313	20336.330078	80.587959
518.384094	962.545288	26125.253906	21157.792969	80.258636
518.733826	978.473938	27258.462891	21901.888672	79.617287
519.083496	1005.780212	27786.384766	22345.615234	79.683922
519.433167	983.024963	28391.673828	22516.279297	78.563721
519.782776	980.749451	28018.488281	22225.011719	78.572632
520.132324	1055.841675	27406.373047	21976.980469	79.395508
520.481873	996.678101	27067.320313	21697.091797	79.401245
520.831299	973.922913	26332.326172	20811.914063	78.230438
521.180786	928.412476	25538.169922	20133.808594	78.039764
521.530151	1033.086426	25333.373047	19847.091797	77.422981
521.879517	1019.433350	24898.748047	20029.134766	79.607399
522.228882	978.473938	24682.574219	19762.898438	79.245468
522.578064	978.473938	24318.490234	19357.855469	78.746223
522.927307	1044.463989	24666.644531	19357.855469	77.526253
523.276489	976.198425	24539.216797	19405.640625	78.213417
523.625610	978.473938	24946.535156	19733.316406	78.249306
523.974792	1064.943726	25497.210938	20101.951172	77.917480
524.323792	1001.229126	25706.558594	20557.054688	79.156303
524.672852	994.402588	26275.439453	21424.029297	80.810081
525.021790	978.473938	27524.699219	21769.908203	78.321625
525.370728	1035.361938	28537.306641	22866.708984	79.381104
525.719604	985.300537	29777.464844	23867.937500	79.475220
526.068420	1108.178589	31479.554688	24887.371094	78.294746
526.417297	992.127075	32901.753906	25931.835938	78.157318
526.765991	944.341125	33887.054688	26933.064453	78.890656
527.114746	1060.392700	35222.785156	27804.587891	78.285492
527.463379	1055.841675	36053.351563	28951.451172	79.707405
527.812012	1001.229126	38438.097656	30041.425781	77.571121
528.160706	1053.566162	41387.171875	33379.613281	80.146683
528.509155	985.300537	46315.949219	37334.468750	80.186737
528.857727	1039.912964	50969.390625	40638.527344	79.309090
529.206177	1005.780212	54070.925781	43928.929688	80.887650
529.554565	1012.606750	54073.199219	44092.765625	81.190498
529.902893	998.953613	52443.929688	42818.476563	81.289810
530.251221	1017.157776	50188.886719	39557.652344	78.379379
530.599548	1017.157776	45942.765625	36947.632813	79.977715
530.947876	1062.668213	42509.003906	33664.054688	78.659271
531.296021	1076.321289	39357.406250	31067.685547	78.345123
531.644165	1035.361938	36788.343750	29113.013672	78.532341
531.992249	1042.188477	35086.253906	27863.751953	78.784836
532.340454	1083.147949	34189.699219	26796.533203	77.668571
532.688354	1017.157776	34521.925781	27424.576172	78.816895
533.036438	1014.882263	35602.796875	28355.265625	79.046059
533.384338	1039.912964	37878.320313	29970.884766	78.534813
533.732239	1037.637451	39521.246094	31322.542969	78.695595
534.080139	1039.912964	39537.175781	32039.332031	80.523705
534.427917	978.473938	39336.929688	30908.398438	78.026924
534.775757	976.198425	37361.777344	29611.351563	78.699181
535.123474	998.953613	35639.207031	28412.152344	79.136833
535.471191	955.718750	33807.414063	26553.052734	77.917847
535.818848	1003.504700	32505.814453	25717.935547	78.452759
536.166382	1055.841675	31814.056641	25017.076172	77.901901
536.513977	1017.157776	31666.148438	25110.371094	78.610138
536.861511	1001.229126	31868.667969	25474.455078	79.284927
537.208984	1030.810913	32446.650391	25688.353516	78.487610
537.556396	1126.382813	31916.455078	25180.914063	78.124306
537.903809	1023.984375	31263.380859	24539.216797	77.763565
538.251160	1012.606750	30733.183594	24031.775391	77.451958
538.598389	1046.739624	29076.605469	23000.964844	78.324402
538.945740	973.922913	28252.867188	22252.318359	78.002998
539.292969	1023.984375	27486.015625	21813.142578	78.562218
539.640137	1026.259888	27957.048828	22002.009766	77.887619
539.987244	980.749451	27761.353516	21883.683594	78.052513
540.334351	932.963501	28810.369141	22448.013672	77.177376
540.681458	1021.708862	30639.886719	23790.570313	76.874619
541.028442	1039.912964	33350.031250	26564.429688	78.998528
541.375366	1055.841675	36401.507813	28655.632813	78.085358
541.722290	1039.912964	39264.113281	31090.441406	78.616501
542.069153	1055.841675	41400.824219	32580.906250	78.138748
542.416016	996.678101	40779.609375	32874.449219	80.129272
542.762756	1019.433350	40019.585938	31008.521484	76.894798
543.109558	1019.433350	38931.886719	30214.365234	77.006180
543.456299	1026.259888	36640.437500	29097.083984	78.819244
543.802917	1119.556274	35011.164063	27699.914063	78.427544
544.149536	985.300537	33793.757813	26539.398438	77.888748
544.496094	1023.984375	31297.513672	24614.308594	77.923935
544.842651	1071.770264	30237.121094	23886.142578	78.224236
545.189148	987.576050	28630.603516	22231.837891	76.852150
545.535583	1096.801025	27784.109375	21665.234375	77.071968
545.882019	1035.361938	26901.207031	21221.507813	78.041702
546.228333	1071.770264	26491.613281	20693.585938	77.190941
546.574707	1014.882263	26751.023438	21021.261719	77.736519
546.920898	942.065613	26657.726563	21034.914063	78.134674
547.267212	1023.984375	26755.574219	20923.414063	77.334633
547.613342	1049.015137	26541.673828	20789.158203	77.434616
547.959473	1035.361938	26193.519531	20472.861328	77.261223
548.305664	1008.055725	25442.597656	19596.785156	76.075623
548.651611	1035.361938	24455.021484	19246.355469	77.759430
548.997742	1028.535400	23385.527344	18299.738281	77.251907
549.343689	1064.943726	22402.501953	17635.287109	77.658104
549.689575	1049.015137	21763.080078	16966.283203	76.842804
550.035522	1049.015137	20896.107422	16574.892578	78.227463
550.381287	1001.229126	20322.675781	15823.971680	76.716522
550.727173	1026.259888	19974.521484	15826.247070	78.107361
551.072876	1062.668213	19280.488281	15432.582031	78.878342
551.418640	1021.708862	19439.773438	15107.182617	76.476402
551.764282	932.963501	19207.671875	14986.580078	76.902000
552.109863	973.922913	19280.488281	15127.662109	77.315102
552.455505	969.371887	19421.570313	15362.041016	77.999748
552.801025	1083.147949	20122.429688	15512.225586	75.785835
553.146545	1026.259888	20270.339844	15682.889648	76.161758
553.491943	948.892151	20111.052734	15817.145508	77.591736
553.837341	935.239075	20309.023438	15760.256836	76.521019
554.182800	957.994263	19999.552734	15664.685547	77.234703
554.528015	983.024963	19578.580078	15380.245117	77.422913
554.873352	1089.974487	19385.162109	14975.202148	75.895515
555.218628	1076.321289	19194.017578	14752.201172	75.483551
555.563721	1060.392700	18736.638672	14508.720703	76.081360
555.908875	1089.974487	18420.341797	14435.904297	77.008926
556.254028	1033.086426	17931.103516	14328.954102	78.682999
556.599121	1017.157776	17849.185547	14171.943359	78.153305
556.944031	985.300537	17860.562500	13976.249023	76.982201
557.289063	1033.086426	17730.857422	13807.860352	76.505859
557.633972	964.820801	17719.480469	13655.400391	75.743584
557.978882	1069.494751	17601.154297	13700.911133	76.407425
558.323792	973.922913	17553.367188	13512.042969	75.624496
558.668518	1012.606750	17373.601563	13534.797852	76.536858
559.013306	987.576050	17098.263672	13630.369141	78.474571
559.358032	1010.331238	17109.640625	13261.735352	76.098946
559.702637	969.371887	17095.988281	13421.021484	77.211792
560.047363	1019.433350	17102.814453	13223.051758	75.877197
560.391846	917.034912	17191.560547	13375.511719	76.552010
560.736450	1030.810913	17118.742188	13245.806641	75.926453
561.080933	1021.708862	16977.660156	13700.911133	79.463783
561.425354	1021.708862	17328.091797	13564.379883	76.918777
561.769775	1049.015137	17312.162109	13553.001953	76.885406
562.114136	989.851563	17692.173828	13755.523438	76.430519
562.458496	1030.810913	17416.835938	13548.451172	76.392174
562.802673	1026.259888	17412.285156	13609.889648	76.794891
563.146912	1108.178589	17093.712891	13655.400391	78.491104
563.491150	1053.566162	17059.580078	13154.786133	75.604210
563.835266	1101.352051	16948.078125	13175.265625	76.191849
564.179443	1058.117188	17239.345703	13377.787109	76.135567
564.523438	1103.627563	17091.437500	13314.072266	76.373466
564.867493	980.749451	17114.191406	13386.888672	76.897041
565.211426	1042.188477	17678.521484	13655.400391	75.817268
565.555359	983.024963	17692.173828	13671.329102	75.936264
565.899231	976.198425	18320.218750	14021.758789	75.216476
566.243042	983.024963	18700.230469	14365.363281	75.533005
566.586914	1060.392700	18768.496094	14729.446289	77.190948
566.930603	1023.984375	19339.650391	14743.099609	74.903717
567.274292	969.371887	19325.998047	14997.958008	76.422462
567.617981	998.953613	18879.996094	14943.344727	77.984215
567.961609	1014.882263	19139.406250	14670.282227	75.342117
568.305237	1012.606750	18536.392578	14429.077148	76.561485
568.648682	1044.463989	18340.697266	14176.494141	75.924225
568.992188	1064.943726	17919.726563	14012.657227	76.819221
569.335632	978.473938	17937.929688	13935.289063	76.398773
569.679016	971.647400	17994.818359	13857.921875	75.698433
570.022461	1058.117188	17733.132813	13810.135742	76.473801
570.365662	978.473938	17981.166016	13930.738281	76.177734
570.708984	987.576050	17746.787109	13942.116211	77.298027
571.052185	971.647400	18099.492188	13837.442383	75.116249
571.395386	1019.433350	18449.921875	14135.535156	75.248047
571.738525	1021.708862	18738.914063	14260.688477	74.723862
572.081604	1044.463989	19025.628906	14649.802734	75.664391
572.424683	957.994263	19378.335938	14900.110352	75.688698
572.767578	1046.739624	19817.509766	15291.500000	75.887993
573.110596	1046.739624	19407.916016	14925.140625	75.585579
573.453552	1053.566162	19733.316406	14745.375000	73.297600
573.796387	1019.433350	19287.314453	14925.140625	76.121071
574.139282	1051.290649	18823.107422	14640.701172	76.466072
574.481995	1101.352051	18606.933594	14442.730469	76.212143
574.824768	1003.504700	18488.607422	14351.709961	76.340439
575.167480	1028.535400	18643.341797	14567.883789	76.863457
575.510132	998.953613	18522.740234	14483.689453	76.951042
575.852722	1008.055725	18372.554688	13946.666992	74.511864
576.195251	1023.984375	18468.126953	14003.554688	74.406471
576.537842	1060.392700	18079.013672	14103.677734	76.641258
576.880188	960.269775	17767.265625	13687.257813	75.724350
577.222717	1017.157776	17673.970703	13375.511719	74.193985
577.565063	1035.361938	17168.804688	13241.255859	75.655853
577.907410	996.678101	16872.986328	13079.693359	76.107208
578.249756	951.167725	16279.076172	12649.620117	76.321259
578.591919	980.749451	16035.594727	12463.027344	76.269653
578.934204	994.402588	15771.634766	11935.106445	74.037575
579.276306	1001.229126	15484.918945	11764.442383	74.312645
579.618469	998.953613	15143.590820	11550.543945	74.597816
579.960571	1026.259888	15214.131836	11550.543945	74.178032
580.302551	971.647400	14713.517578	11393.532227	75.840370
580.644531	942.065613	14836.395508	11282.032227	74.418610
580.986511	1030.810913	14563.333008	10961.183594	73.381538
581.328369	1060.392700	14451.833008	11216.041992	75.836868
581.670227	1023.984375	14410.873047	11070.409180	75.046753
582.012024	1017.157776	14306.199219	11220.592773	76.780823
582.353821	1008.055725	14240.208984	11040.827148	75.821152
582.695496	951.167725	14176.494141	11109.092773	76.806610
583.037231	962.545288	14121.881836	10995.316406	76.240707
583.378845	1030.810913	14183.321289	10813.274414	74.377159
583.720398	1005.780212	13846.543945	10831.479492	76.519585
584.062012	994.402588	13942.116211	10583.447266	74.059753
584.403442	985.300537	13917.084961	10565.243164	74.080589
584.744934	1008.055725	13853.371094	10731.356445	75.695305
585.086365	1058.117188	13757.798828	10560.692383	74.825302
585.427734	1012.606750	13748.696289	10544.763672	74.843674
585.768982	1094.525513	13810.135742	10417.333984	73.317825
586.110291	1023.984375	13591.685547	10476.498047	75.212753
586.451599	1021.708862	13703.186523	10476.498047	74.555893
586.792725	1060.392700	13728.216797	10542.488281	74.851807
587.133850	1023.984375	13766.900391	10155.649414	71.660721
587.474915	1037.637451	13628.093750	10556.140625	75.600937
587.815979	992.127075	13646.297852	10526.559570	75.346169
588.157043	937.514587	13705.461914	10481.048828	74.746033
588.497925	978.473938	13894.330078	10547.039063	74.083862
588.838867	1067.219238	13568.930664	10783.693359	77.721161
589.179749	989.851563	13976.249023	10553.865234	73.646393
589.520569	1042.188477	13732.767578	11006.694336	78.518921
589.861450	1021.708862	14237.933594	10952.082031	75.137741
590.202087	957.994263	14044.514648	10813.274414	75.308640
590.542847	955.718750	14504.169922	10922.500000	73.563988
590.883484	1021.708862	14133.259766	11138.674805	77.160713
591.224121	1099.076538	14397.219727	10929.326172	73.921974
591.564636	1021.708862	14085.473633	10578.896484	73.157990
591.905151	1035.361938	14039.962891	10765.489258	74.820656
592.245667	1019.433350	13867.023438	10669.916992	75.115128
592.585999	1033.086426	13928.462891	10663.090820	74.677956
592.926453	1080.872437	13746.420898	10303.558594	72.817108
593.266724	1044.463989	13719.115234	10544.763672	74.955116
593.607056	955.718750	13707.737305	10512.906250	74.946465
593.947388	980.749451	13898.880859	10458.293945	73.366219
594.287476	1003.504700	14074.095703	10619.855469	73.572426
594.627686	1067.219238	14406.322266	10870.163086	73.490273
594.967773	1064.943726	14235.658203	10865.612305	74.412582
595.307861	1030.810913	14349.434570	10947.530273	74.457542
595.647888	1030.810913	14388.118164	10899.745117	73.884163
595.987854	962.545288	14731.721680	11322.991211	75.243759
596.327820	1033.086426	14972.926758	11443.593750	74.681686
596.667725	1069.494751	15480.368164	11910.076172	75.225014
597.007568	1096.801025	15842.175781	12026.126953	74.120369
597.347351	1037.637451	15912.716797	12579.079102	77.589111
597.687073	960.269775	16834.302734	12711.059570	74.025230
598.026794	1119.556274	16295.004883	12387.935547	74.254013
598.366455	1019.433350	15691.991211	12331.046875	77.093674
598.706116	998.953613	15669.236328	11764.442383	73.382965
599.045654	1121.831787	14975.202148	11516.411133	75.032852
599.385193	1028.535400	14322.127930	11293.410156	77.216713
599.724731	1083.147949	14010.381836	10795.070313	75.127609
600.064087	960.269775	13609.889648	10713.152344	77.100204
600.403564	1080.872437	13289.041016	10358.170898	75.992546
600.742920	1017.157776	13282.214844	10032.771484	73.506493
601.082153	1019.433350	13243.531250	10194.333008	75.055840
601.421387	1089.974487	13184.367188	10110.138672	74.581375
601.760620	973.922913	12961.366211	10055.526367	75.759300
602.099854	1051.290649	13034.183594	9873.484375	73.623238
602.438843	1008.055725	13145.683594	10041.873047	74.428192
602.778015	1130.933838	13473.358398	10226.190430	73.691002
603.117065	994.402588	13805.584961	10456.018555	73.854355
603.456055	1064.943726	14126.433594	10911.122070	75.383270
603.794983	1033.086426	14367.638672	11054.480469	75.153587
604.133850	1055.841675	15048.019531	11291.133789	73.150101
604.472778	1094.525513	15348.387695	11871.391602	75.606636
604.811584	1099.076538	15901.339844	12117.148438	74.435051
605.150330	1017.157776	16470.218750	12365.179688	73.435432
605.489075	994.402588	16515.730469	12588.180664	74.695786
605.827698	998.953613	16563.515625	12315.118164	72.704674
606.166382	1010.331238	16112.962891	12237.750977	74.340820
606.504883	1035.361938	15646.481445	11743.962891	73.290764
606.843445	967.096313	15063.947266	11559.645508	75.141243
607.181946	978.473938	14679.384766	11138.674805	74.157120
607.520386	980.749451	14192.422852	10740.458008	73.871857
607.858826	996.678101	13828.339844	10476.498047	73.878349
608.197083	967.096313	13905.708008	10444.640625	73.250084
608.535461	1021.708862	13275.388672	10135.169922	74.373260
608.873718	1033.086426	13669.053711	10471.946289	74.698357
609.211914	973.922913	14046.790039	10613.029297	73.733681
609.550171	983.024963	14451.833008	11045.377930	74.708565
609.888245	992.127075	14631.598633	11302.511719	75.592262
610.226318	987.576050	14956.998047	11275.206055	73.643921
610.564392	1021.708862	14897.834961	11532.339844	75.746147
610.902344	1021.708862	14622.497070	11229.695313	75.054375
611.240295	1049.015137	14636.149414	11325.266602	75.632225
611.578247	1064.943726	14258.413086	10931.601563	74.784409
611.916138	1042.188477	13910.258789	10710.875977	75.137039
612.253845	1051.290649	13443.777344	10476.498047	76.055817
612.591675	1058.117188	13416.470703	10392.303711	75.529373
612.929382	957.994263	12934.060547	10053.250977	75.945274
613.267090	1046.739624	12488.058594	9812.045898	76.610977
613.604736	1028.535400	12372.006836	9702.820313	76.469406
613.942261	1017.157776	12112.597656	9634.554688	77.666115
614.279785	1039.912964	11860.014648	9345.563477	76.761299
614.617310	1005.780212	12042.055664	9220.410156	74.432991
614.954712	953.443237	11885.044922	9186.277344	75.312241
615.292175	1026.259888	11737.136719	9086.154297	75.249626
615.629517	948.892151	11630.186523	8933.694336	74.755013
615.966797	1001.229126	11527.788086	9099.807617	76.934723
616.304138	1028.535400	11693.901367	8849.500000	73.330482
616.641296	987.576050	11602.880859	9143.042969	76.827438
616.978516	996.678101	11516.411133	8662.907227	72.874748
617.315552	1005.780212	11798.575195	8703.867188	71.326164
617.652771	1062.668213	11573.298828	8879.082031	74.366745
617.989685	921.585938	11616.534180	8847.224609	74.106377
618.326721	1021.708862	11552.819336	8929.143555	75.086426
618.663696	987.576050	11834.983398	8860.877930	72.582336
619.000549	1060.392700	11637.013672	8860.877930	73.752151
619.337463	1012.606750	11807.677734	8831.295898	72.428322
619.674194	946.616638	11466.349609	8703.867188	73.739990
620.010986	1001.229126	11600.605469	8860.877930	74.152000
620.347778	957.994263	11459.522461	8744.826172	74.149513
620.684387	1071.770264	11509.583984	8644.703125	72.552864
621.020996	1096.801025	11350.297852	8542.304688	72.614288
621.357605	1037.637451	11329.818359	8596.917969	73.446831
621.694214	1062.668213	11236.521484	8421.702148	72.332809
622.030579	1074.045776	10881.540039	8455.834961	75.266823
622.367065	998.953613	11088.613281	8658.356445	75.913391
622.703430	912.483826	11081.786133	8423.977539	73.864395
623.039795	1064.943726	11034.000000	8346.610352	73.042686
623.376160	1035.361938	10913.397461	8389.844727	74.452896
623.712402	1042.188477	11024.898438	8455.834961	74.264870
624.048645	1003.504700	11022.623047	8323.855469	73.063820
624.384766	939.790100	10933.877930	8383.018555	74.476318
624.720886	1014.882263	11220.592773	8398.947266	72.352287
625.057007	1046.739624	11140.950195	8353.436523	72.385025
625.392944	983.024963	11095.439453	8544.581055	74.774986
625.729004	1039.912964	11034.000000	8710.693359	76.753189
626.064941	1033.086426	11325.266602	8649.254883	73.999565
626.400818	1037.637451	11498.207031	8885.909180	75.027191
626.736633	994.402588	11855.462891	8970.102539	73.433899
627.072449	1005.780212	11951.035156	9131.665039	74.241165
627.408264	1026.259888	12112.597656	9156.695313	73.337433
627.743896	987.576050	12048.882813	9268.196289	74.861137
628.079590	973.922913	12069.362305	9275.022461	74.815422
628.415161	957.994263	12035.229492	9004.235352	72.637627
628.750793	1012.606750	11803.125977	8929.143555	73.365669
629.086365	1049.015137	11607.431641	8999.684570	75.301727
629.421753	1055.841675	11475.451172	8742.550781	73.771568
629.757263	973.922913	11261.552734	8462.662109	72.793633
630.092651	1053.566162	10892.917969	8437.630859	75.046249
630.427917	1017.157776	10949.805664	8396.671875	74.295540
630.763184	1051.290649	10649.437500	8219.180664	74.679939
631.098511	1083.147949	10704.049805	8043.965820	72.350990
631.433716	1042.188477	10478.773438	8119.058105	74.993973
631.768799	978.473938	10617.580078	8014.384277	72.993385
632.103943	955.718750	10476.498047	8153.190918	75.597511
632.438965	1030.810913	10244.394531	7891.506348	74.462830
632.773987	1053.566162	10330.864258	7866.475586	73.436356
633.109070	1044.463989	10333.139648	7889.230469	73.689369
633.443848	969.371887	10146.546875	7709.464355	73.444084
633.778870	1058.117188	10203.435547	7570.657715	71.211739
634.113708	1058.117188	10194.333008	7857.373535	74.420929
634.448425	1039.912964	10264.874023	7832.342773	73.630989
634.783264	1001.229126	10155.649414	7734.495117	73.552078
635.117859	1021.708862	10110.138672	7702.637695	73.510262
635.452576	994.402588	10096.485352	7770.903320	74.450005
635.787170	962.545288	10130.618164	7670.780762	73.169525
636.121704	985.300537	9994.086914	7677.607422	74.286438
636.456177	1014.882263	9859.832031	7529.698242	73.655769
636.790588	1042.188477	9843.903320	7502.392090	73.397102
637.125122	1014.882263	9577.666992	7297.595215	73.372307
637.459412	1028.535400	9525.330078	7359.034180	74.504555
637.793762	985.300537	9320.533203	7220.227539	74.802071
638.128052	1008.055725	9450.238281	7136.033203	72.587601
638.462280	1071.770264	9445.686523	6806.082520	68.478264
638.796509	1064.943726	9313.707031	7133.757813	73.572411
639.130615	996.678101	9161.247070	7015.430664	73.717949
639.464722	1012.606750	9138.491211	6822.011230	71.492577
639.798767	1046.739624	9152.144531	6847.041992	71.560921
640.132751	1030.810913	8701.591797	6860.695313	76.001183
640.466736	1037.637451	8819.918945	6744.643555	73.333328
640.800598	953.443237	8667.458984	6833.389160	76.224190
641.134521	978.473938	8669.734375	6469.305664	71.390533
641.468262	1008.055725	8635.601563	6744.643555	75.208832
641.802063	1035.361938	8717.520508	6626.316406	72.778435
642.135803	1012.606750	8615.122070	6560.326660	72.972160
642.469421	1042.188477	8519.549805	6430.621582	72.063293
642.803101	1019.433350	8471.763672	6457.928223	72.977112
643.136658	971.647400	8444.458008	6478.407715	73.690620
643.470215	1035.361938	8376.192383	6325.947754	72.070671
643.803711	1026.259888	8540.029297	6389.662598	71.380989
644.137085	1046.739624	8387.569336	6410.142090	73.062622
644.470581	1058.117188	8403.498047	6453.376953	73.451057
644.803833	980.749451	8398.947266	6323.672363	72.024544
645.137207	957.994263	8237.385742	6448.826172	75.429817
645.470459	1005.780212	8335.232422	6332.774414	72.679298
645.803589	983.024963	8173.670898	6187.141113	72.373421
646.136780	928.412476	8376.192383	6446.550293	74.091042
646.469849	971.647400	8373.916992	6316.845703	72.210258
646.802979	998.953613	8376.192383	6357.805176	72.640343
647.135986	980.749451	8553.682617	6291.814941	70.132210
647.468994	1083.147949	8446.733398	6341.876465	71.415329
647.801941	1037.637451	8362.539063	6480.683105	74.308792
648.134766	1023.984375	8357.988281	6501.163086	74.681969
648.467651	1042.188477	8403.498047	6567.152832	75.054092
648.800354	964.820801	8298.824219	6371.458008	73.720139
649.133179	1021.708862	8344.334961	6376.009277	73.119949
649.465881	1035.361938	8348.885742	6205.345215	70.690727
649.798462	1012.606750	8442.182617	6330.499023	71.577332
650.131104	1083.147949	8251.038086	6266.784180	72.317459
650.463623	1069.494751	8323.855469	6630.867676	76.662483
650.796143	1092.250000	8467.212891	6410.142090	72.107376
651.128662	1033.086426	8385.293945	6305.468262	71.711548
651.461060	1042.188477	8287.446289	6321.396973	72.864326
651.793396	1003.504700	8301.099609	6398.764648	73.932030
652.125732	976.198425	8371.640625	6428.346191	73.723083
652.458008	1033.086426	8428.529297	6225.824707	70.215378
652.790222	1019.433350	8419.426758	6310.019043	71.494469
653.122437	1030.810913	8269.242188	6371.458008	73.781830
653.454529	1051.290649	8401.222656	6319.121094	71.671829
653.786621	1012.606750	8291.998047	6332.774414	73.085335
654.118713	951.167725	8191.875000	6230.375977	72.910118
654.450623	983.024963	8198.701172	6143.906250	71.523186
654.782654	1010.331238	8139.538086	6082.467285	71.145866
655.114502	1012.606750	8100.854004	6125.702148	72.134834
655.446350	1012.606750	7843.720215	5991.446289	72.884743
655.778198	1023.984375	7959.771973	6178.039063	74.311020
656.109863	1101.352051	8071.272461	6052.885254	71.041458
656.441650	1051.290649	8034.863770	6107.498047	72.401436
656.773254	1092.250000	7814.138672	5995.997070	72.951920
657.104919	1012.606750	8175.946289	6041.507813	70.203300
657.436462	1046.739624	8105.405273	6116.600098	71.824631
657.767944	998.953613	7989.353516	6075.640625	72.623703
658.099548	1023.984375	8228.283203	6248.580078	72.520531
658.430908	1064.943726	8326.130859	6259.957520	71.544968
658.762268	1046.739624	8417.151367	6234.926758	70.392090
659.093628	1012.606750	8549.131836	6489.785156	72.675117
659.424927	907.932800	8892.735352	6790.154297	73.667717
659.756226	967.096313	9320.533203	6988.124512	72.078461
660.087341	1030.810913	9304.604492	7076.869629	73.074806
660.418518	1033.086426	9334.186523	7172.441406	73.958336
660.749573	1087.698975	9213.583984	7065.492188	73.564827
661.080627	992.127075	9229.512695	7035.910156	73.370163
661.411621	1044.463989	9020.164063	6794.705078	72.097008
661.742554	1005.780212	8890.459961	6703.684082	72.265511
662.073547	1035.361938	8540.029297	6596.734863	74.105522
662.404297	1051.290649	8542.304688	6562.602051	73.572304
662.735229	1051.290649	8230.558594	6298.641602	73.090332
663.065979	994.402588	8089.476563	6321.396973	75.080177
663.396667	1053.566162	7984.802734	5991.446289	71.240967
663.727417	1017.157776	7841.444824	6050.609863	73.757919
664.057922	978.473938	7643.474609	5952.762207	74.632973
664.388611	1035.361938	7557.004395	5795.751465	72.993721
664.719116	1017.157776	7591.137207	5738.863281	71.824158
665.049622	1001.229126	7450.055176	5818.506836	74.700073
665.380005	1019.433350	7488.738770	5707.006348	72.458679
665.710388	1021.708862	7374.962891	5684.250977	73.388252
666.040771	1001.229126	7379.514160	5631.914063	72.600784
666.371033	1010.331238	7406.820313	5631.914063	72.251869
666.701294	1021.708862	7256.635742	5688.802246	74.854019
667.031555	1008.055725	7131.482422	5647.842773	75.771088
667.361633	1010.331238	7188.370117	5593.229980	74.180481
667.691772	1030.810913	7074.594238	5620.536621	75.941269
668.021790	1053.566162	7095.073730	5606.883301	75.367233
668.351807	1080.872437	7286.217773	5620.536621	73.157318
668.681763	1005.780212	7204.298828	5402.086426	70.925110
669.011719	1110.454102	7281.666504	5513.586914	71.349556
669.341614	1042.188477	7240.707031	5593.229980	73.421440
669.671387	1067.219238	7327.176758	5524.964355	71.210472
670.001221	1039.912964	7329.452637	5570.475098	72.033287
670.330933	1064.943726	7402.269043	5670.597656	72.675041
670.660583	971.647400	7361.309570	5488.556152	70.690887
670.990173	967.096313	7334.003418	5618.260742	73.052177
671.319763	985.300537	7190.645508	5495.382813	72.680603
671.649292	1089.974487	7238.431641	5522.688965	72.094742
671.978821	1008.055725	7042.736816	5349.749512	71.945702
672.308289	932.963501	6976.746582	5292.861328	72.138557
672.637695	1055.841675	6812.909180	5392.984375	75.335968
672.966980	1019.433350	7004.053223	5240.524414	70.532310
673.296326	1030.810913	6858.419922	5322.443359	73.643105
673.625610	996.678101	6885.726074	5315.616699	73.338486
673.954773	983.024963	6849.317383	5279.208496	73.235077
674.283936	998.953613	6969.920410	5183.636230	70.083839
674.613037	1030.810913	6883.450195	5185.912109	70.995338
674.942078	989.851563	6960.818359	5053.931641	68.064018
675.271118	1005.780212	6685.479980	5183.636230	73.557693
675.600098	964.820801	6705.959961	5056.207031	71.264366
675.928955	1028.535400	6726.439453	5024.350098	70.127792
676.257813	951.167725	6756.021484	5065.309082	70.874168
676.586670	969.371887	6680.929199	5094.891113	72.231071
676.915466	962.545288	6803.807129	5056.207031	70.081802
677.244141	985.300537	6756.021484	5185.912109	72.791794
677.572876	1085.423462	6815.184570	5074.411621	69.618752
677.901489	1017.157776	6665.000488	5117.646484	72.602745
678.230042	1005.780212	6717.337402	5106.268555	71.792824
678.558594	1012.606750	6603.561523	5217.769043	75.213669
678.887085	1060.392700	6703.684082	5101.717773	71.612907
679.215515	1019.433350	6906.205566	5336.096191	73.328178
679.543945	1124.107300	6944.889648	5197.289551	69.976540
679.872253	1010.331238	6837.939941	5149.503418	71.026939
680.200562	1014.882263	7017.706055	5367.953613	72.517059
680.528809	951.167725	7170.166016	5381.606934	71.240402
680.856995	1005.780212	7265.737793	5584.127930	73.137039
681.185120	1064.943726	7393.166992	5593.229980	71.556992
681.513306	1076.321289	7500.116699	5427.117188	67.729362
681.841309	1049.015137	7208.850098	5509.035645	72.404869
682.169373	1042.188477	7283.941895	5463.525391	70.834854
682.497314	1108.178589	7195.196777	5520.413574	72.485985
682.825134	971.647400	7390.891602	5402.086426	69.018082
683.153076	1023.984375	6965.369141	5549.995117	76.177711
683.480896	967.096313	7042.736816	5240.524414	70.337082
683.808655	994.402588	6922.134277	5395.259766	74.241852
684.136414	985.300537	6851.593262	5206.391602	71.954994
684.464050	1028.535400	6701.408691	5201.840332	73.565979
684.791626	992.127075	6660.449219	5053.931641	71.657967
685.119263	946.616638	6430.621582	5176.810059	77.136940
685.446838	1026.259888	6533.020020	4899.196289	70.330582
685.774292	994.402588	6448.826172	4921.951660	72.006676
686.101685	1014.882263	6346.427734	4935.604492	73.538193
686.429077	998.953613	6407.866699	4926.502441	72.612534
686.756348	978.473938	6168.937012	4769.491699	73.038147
687.083679	1021.708862	6335.049805	4833.206055	71.734474
687.410950	994.402588	6314.570313	4910.573730	73.609917
687.738159	967.096313	6410.142090	4908.298340	72.408028
688.065308	1017.157776	6298.641602	4794.522461	71.520897
688.392395	998.953613	6432.897461	5028.900879	74.162476
688.719421	944.341125	6453.376953	4944.706543	72.614624
689.046448	1001.229126	6278.162109	4903.747559	73.954292
689.373413	983.024963	6412.417480	4885.542969	71.877617
689.700317	989.851563	6319.121094	4796.797852	71.434677
690.027100	1046.739624	6259.957520	4671.644043	69.532951
690.353943	1028.535400	6080.191406	4719.430176	73.063065
690.680725	1067.219238	6178.039063	4723.980957	71.549416
691.007446	996.678101	6030.129883	4610.205078	71.790237
691.334106	960.269775	5961.864258	4687.572754	74.522293
691.660645	1005.780212	5832.159668	4664.817871	75.813301
691.987244	1146.862427	5898.149902	4462.296387	69.779694
692.313721	994.402588	5713.832520	4469.123047	73.625854
692.640259	1030.810913	5563.648438	4462.296387	75.702812
692.966675	1099.076538	5677.424316	4337.142578	70.725647
693.293030	967.096313	5513.586914	4298.458984	73.273277
693.619324	978.473938	5625.087402	4348.520020	72.526932
693.945618	1010.331238	5620.536621	4266.601563	70.631783
694.271851	978.473938	5586.403809	4139.172363	68.592590
694.598083	1003.504700	5497.658203	4032.222900	67.392410
694.924194	1003.504700	5372.504395	4184.682617	72.812508
695.250244	1033.086426	5304.238770	4164.203125	73.308479
695.576294	1049.015137	5356.576172	4246.121582	74.220802
695.902283	1083.147949	5688.802246	4239.295410	68.527664
696.228210	1010.331238	5372.504395	4171.029785	72.456970
696.554138	1026.259888	5556.821777	4305.285156	72.375687
696.879944	1049.015137	5627.362793	4029.947266	65.109344
697.205750	989.851563	5629.638672	4348.520020	72.388420
697.531433	976.198425	5729.761230	4453.194336	73.145050
697.857178	996.678101	5843.537598	4569.245605	73.708916
698.182739	1005.780212	6009.650391	4573.796875	71.305138
698.508423	992.127075	6041.507813	4735.358887	74.132492
698.833984	1012.606750	6410.142090	5092.615723	75.590225
699.159485	1014.882263	6635.418457	5078.962402	72.307693
699.484924	1028.535400	6787.878418	5217.769043	72.738045
699.810303	1012.606750	6942.613770	5188.187500	70.414429
700.135681	989.851563	6958.542480	5240.524414	71.216164
700.460999	1019.433350	6963.093750	5290.585938	71.860641
700.786255	1030.810913	6610.387695	5001.594727	71.166397
701.111450	1001.229126	6451.101563	5028.900879	73.903961
701.436646	1035.361938	6232.651367	4660.266602	69.746063
701.761719	1014.882263	6109.773438	4739.909668	73.112991
702.086792	989.851563	5959.588867	4434.990234	69.322350
702.411865	1105.903076	5809.404785	4312.111816	68.166420
702.736816	1053.566162	5524.964355	4425.888184	75.419853
703.061646	978.473938	5356.576172	4089.110840	71.049896
703.386536	967.096313	5292.861328	4168.753906	74.013672
703.711365	1067.219238	5101.717773	4050.427002	73.942467
704.036194	1003.504700	5158.605469	3977.610352	71.577225
704.360901	1060.392700	5110.819824	3957.130615	71.516846
704.685547	989.851563	4933.329102	3820.599365	71.783035
705.010132	1014.882263	4967.461914	3718.200928	68.393784
705.334717	1030.810913	4815.001953	3759.160400	72.098625
705.659302	960.269775	4883.267578	3797.844238	72.331787
705.983765	1060.392700	4867.338867	3841.079102	73.042442
706.308228	1026.259888	4837.757324	3725.027588	70.805962
706.632568	1019.433350	4867.338867	3843.354736	73.388535
706.956909	1021.708862	4746.736328	3677.241699	71.288948
707.281189	978.473938	4778.593750	3731.854004	72.455086
707.605408	1035.361938	4737.634277	3677.241699	71.358330
707.929626	1033.086426	4780.869141	3827.426025	74.559807
708.253784	1003.504700	4792.246582	3770.538086	73.033043
708.577820	1058.117188	4835.481934	3836.528076	73.554214
708.901855	1058.117188	4830.930664	3916.171387	75.753922
709.225830	1033.086426	4871.890137	3834.252441	72.969765
709.549805	1053.566162	4851.410156	3838.803711	73.337334
709.873718	994.402588	4885.542969	3822.875000	72.690063
710.197510	930.687988	4981.115234	3784.191162	70.449440
710.521362	996.678101	4924.227051	3772.813477	70.683662
710.845093	987.576050	4851.410156	3868.385254	74.558304
711.168701	996.678101	5058.482910	3966.232666	73.109245
711.492432	1026.259888	5083.513672	3950.304199	72.069542
711.816040	1030.810913	5008.421387	4039.049316	75.629288
712.139587	1055.841675	5311.065430	3841.079102	65.454544
712.463074	1003.504700	5235.973145	4032.222900	71.559151
712.786499	1003.504700	5270.105957	4036.773926	71.093346
713.109924	980.749451	5138.125977	4077.733398	74.493706
713.433350	1030.810913	5017.523438	3893.416016	71.803650
713.756592	989.851563	4906.022949	3859.283203	73.271347
714.079834	1085.423462	4919.675781	3831.977051	71.632050
714.403015	1035.361938	4965.186523	3879.762939	72.379845
714.726196	1019.433350	4915.125000	3768.262451	70.560745
715.049255	969.371887	4924.227051	3765.986816	70.713463
715.372375	1049.015137	4883.267578	3663.588379	68.189911
715.695435	1021.708862	4801.349121	3574.843262	67.549667
716.018311	1001.229126	4906.022949	3740.956299	70.163162
716.341248	1014.882263	4801.349121	3731.854004	71.754799
716.664063	957.994263	4749.011719	3643.108887	70.828339
716.987000	1026.259888	4935.604492	3713.649902	68.742729
717.309692	983.024963	4774.042480	3820.599365	74.849945
717.632385	1001.229126	4730.807617	3750.058350	73.703476
717.955078	996.678101	4667.093262	3558.914551	69.807808
718.277649	1117.280762	4637.511230	3499.750977	67.679382
718.600220	1044.463989	4450.918457	3638.557861	76.152306
718.922791	951.167725	4485.051270	3370.046387	68.448174
719.245300	1076.321289	4455.469727	3356.393066	67.474747
719.567688	951.167725	4339.417969	3274.474365	68.569511
719.890015	983.024963	4305.285156	3263.096924	68.630142
720.212341	1062.668213	4255.224121	3242.617188	68.282249
720.534607	1103.627563	4141.447754	3188.004639	68.614227
720.856873	987.576050	4264.326172	3267.647949	69.583328
721.179016	1010.331238	3998.090088	3151.596191	71.667931
721.501160	985.300537	3973.059326	3190.280273	73.800461
721.823242	998.953613	3945.753174	3263.096924	76.833977
722.145264	1035.361938	3941.202148	3069.677490	70.007820
722.467224	969.371887	4114.141602	3149.320801	69.319824
722.789185	996.678101	4059.529053	3012.789551	65.824661
723.111023	946.616638	3959.406250	3051.473389	69.864044
723.432861	1060.392700	3925.273438	3033.269287	68.864174
723.754578	1003.504700	3857.007813	3087.881836	73.046257
724.076294	1003.504700	3834.252441	3071.953125	73.070747
724.397949	973.922913	3877.487549	3147.045166	74.843254
724.719666	983.024963	3793.293213	3044.646729	73.360321
725.041260	1017.157776	3882.038574	3140.218750	74.106430
725.362732	1053.566162	3900.242676	3092.432861	71.622704
725.684265	998.953613	3918.446777	3122.014648	72.720192
726.005676	1035.361938	3866.109863	2951.350586	67.684891
726.327087	967.096313	4016.294189	3051.473389	68.358208
726.648438	1017.157776	3938.926514	3003.687500	67.990654
726.969666	980.749451	4089.110840	3019.616211	65.592979
727.290894	980.749451	3925.273438	3124.290039	72.797523
727.612061	1074.045776	3918.446777	3081.055176	70.560005
727.933228	1028.535400	4048.151611	3021.891602	66.013565
728.254395	1019.433350	4171.029785	3249.443604	70.758118
728.575378	955.718750	4109.590332	3192.555664	70.923523
728.896301	1060.392700	4091.386475	3190.280273	70.270279
729.217285	1014.882263	4082.284424	3176.626953	70.474770
729.538147	998.953613	4175.580566	3260.821289	71.203438
729.858948	1071.770264	4141.447754	3356.393066	74.425499
730.179810	1058.117188	4111.866211	3217.586426	70.715347
730.500549	1021.708862	4168.753906	3292.678711	72.161972
730.821228	969.371887	4125.519043	3149.320801	69.069939
731.141846	1058.117188	4050.427002	3226.688477	72.471481
731.462402	937.514587	4175.580566	3244.892578	71.257904
731.782898	1042.188477	4193.784668	3351.842041	73.285202
732.103455	1058.117188	4200.611328	3181.177979	67.559738
732.423889	1074.045776	4259.774902	3345.015625	71.285713
732.744263	992.127075	4312.111816	3324.535889	70.253593
733.064636	960.269775	4177.855957	3274.474365	71.923622
733.384888	987.576050	4239.295410	3340.464600	72.358299
733.705200	980.749451	4321.213867	3272.198975	68.596733
734.025330	1078.596802	4241.570801	3265.372314	69.136681
734.345520	1105.903076	4216.540039	3231.239502	68.324799
734.665527	1039.912964	4252.948242	3165.249512	66.147316
734.985596	1021.708862	4111.866211	3256.270264	72.312225
735.305542	1076.321289	4086.835449	3062.851074	65.986397
735.625549	1035.361938	3968.508301	3069.677490	69.356087
735.945435	1026.259888	3907.069336	3181.177979	74.802513
736.265259	1153.689087	3948.028564	3071.953125	68.648216
736.585083	1017.157776	3973.059326	3069.677490	69.438026
736.904785	1069.494751	3761.435791	3040.095703	73.203720
737.224426	1105.903076	3829.701416	3015.064941	70.091896
737.544128	1039.912964	3759.160400	2987.758789	71.631798
737.863708	1005.780212	3868.385254	2976.381104	68.839424
738.183289	1035.361938	3706.823486	3019.616211	74.275986
738.502808	1012.606750	3897.967041	2901.289063	65.457420
738.822205	1017.157776	3772.813477	3010.513916	72.336906
739.141541	1010.331238	3811.497314	3108.361328	74.898453
739.460938	1033.086426	3902.518066	3035.544678	69.785881
739.780212	985.300537	4043.600586	2937.697266	63.839279
740.099426	992.127075	3970.783691	3096.983887	70.664635
740.418640	1017.157776	3952.579590	3046.922363	69.147285
740.737793	1003.504700	3927.548828	3085.606201	71.206230
741.056885	1003.504700	3838.803711	3096.983887	73.836273
741.375977	987.576050	3752.333740	3005.962891	73.004112
741.694946	1030.810913	3779.640137	3049.197754	73.427147
742.013855	1037.637451	3804.670898	2949.074951	69.078941
742.332703	1046.739624	3677.241699	2946.799316	72.231827
742.651550	957.994263	3618.078125	2917.217773	73.652695
742.970398	919.310425	3752.333740	2814.819336	66.907631
743.289124	1019.433350	3556.638916	2889.911377	73.721977
743.607788	957.994263	3704.547852	2732.900391	64.623024
743.926453	1026.259888	3479.271240	2860.329590	74.768089
744.245056	1049.015137	3699.996826	2833.023438	67.296135
744.563599	1026.259888	3536.159424	2726.073975	67.724388
744.882141	1033.086426	3486.097900	2714.696289	68.552872
745.200500	1023.984375	3486.097900	2726.073975	69.131241
745.518860	1069.494751	3426.934326	2716.971924	69.884178
745.837219	1019.433350	3565.741211	2805.717041	70.151917
746.155518	1010.331238	3436.036377	2744.278076	71.482178
746.473755	1008.055725	3395.077148	2614.573486	67.302193
746.791992	1028.535400	3476.995850	2812.543701	72.862450
747.110107	1049.015137	3424.658691	2680.563477	68.678162
747.428162	1005.780212	3413.281250	2726.073975	71.455574
747.746216	964.820801	3463.342773	2769.308838	72.222221
748.064148	951.167725	3267.647949	2691.941162	75.147346
748.382080	978.473938	3486.097900	2703.318604	68.784027
748.700073	992.127075	3340.464600	2739.727051	74.418610
749.017822	976.198425	3429.209961	2676.012451	69.294983
749.335632	987.576050	3306.331787	2648.706299	71.638863
749.653320	987.576050	3447.414063	2755.655762	71.877899
749.971008	1017.157776	3465.618164	2819.370361	73.605949
750.288696	985.300537	3467.893799	2753.380127	71.219063
750.606262	1019.433350	3317.709229	2648.706299	70.891098
750.923828	983.024963	3335.913574	2650.981689	70.889748
751.241272	1039.912964	3431.485352	2703.318604	69.552811
751.558716	1005.780212	3379.148438	2826.196777	76.701820
751.876038	1005.780212	3249.443604	2726.073975	76.673431
752.193481	1023.984375	3258.545898	2580.440674	69.653770
752.510681	1019.433350	3247.168213	2694.216553	75.178749
752.827942	1055.841675	3181.177979	2687.390137	76.766594
753.145081	983.024963	3445.138428	2632.777588	67.005547
753.462219	1012.606750	3310.882813	2614.573486	69.702972
753.779297	996.678101	3360.944336	2721.522949	72.954765
754.096375	1033.086426	3397.352539	2767.033203	73.339745
754.413330	1053.566162	3267.647949	2680.563477	73.484062
754.730286	1026.259888	3292.678711	2575.889648	68.373489
755.047119	1037.637451	3222.137451	2646.430664	73.645836
755.363892	971.647400	3345.015625	2676.012451	71.812080
755.680725	1074.045776	3324.535889	2587.267090	67.239632
755.997498	1101.352051	3331.362549	2682.839111	70.918365
756.314148	1017.157776	3233.515137	2541.756836	68.788506
756.630737	1058.117188	3244.892578	2546.307861	68.054115
756.947327	980.749451	3197.106689	2528.103516	69.815193
757.263855	953.443237	3190.280273	2571.338623	72.329605
757.580261	1060.392700	3315.433838	2539.481201	65.590317
757.896729	1028.535400	3226.688477	2621.399902	72.463768
758.213074	1037.637451	3390.525879	2582.716064	65.667313
758.529419	1030.810913	3319.984863	2487.144287	63.618294
758.845642	994.402588	3304.056152	2660.083740	72.118225
759.161865	1003.504700	3306.331787	2596.369141	69.169952
759.478149	1089.974487	3356.393066	2591.818115	66.265060
759.794189	1039.912964	3370.046387	2716.971924	71.972664
760.110229	964.820801	3422.383301	2657.808350	68.888893
760.426270	992.127075	3397.352539	2607.746826	67.171234
760.742249	1067.219238	3319.984863	2646.430664	70.101006
761.058105	994.402588	3265.372314	2694.216553	74.849701
761.374023	1064.943726	3367.770752	2666.910400	69.565216
761.689819	1023.984375	3372.321777	2669.185791	70.058136
762.005554	1078.596802	3208.484375	2742.002686	78.098289
762.321289	1051.290649	3406.454590	2778.410889	73.333328
762.636902	1026.259888	3472.444824	2771.584229	71.348824
762.952515	1028.535400	3531.608398	2655.532715	64.999992
763.268127	980.749451	3527.057129	2701.043213	67.560326
763.583618	1035.361938	3563.465576	2878.533936	72.907303
763.899048	978.473938	4007.192139	3074.228516	69.196091
764.214478	1039.912964	4339.417969	3283.576416	68.000008
764.529785	973.922913	4603.378418	3415.556641	67.272728
764.845093	976.198425	4842.308105	3765.986816	72.160095
765.160400	1051.290649	4746.736328	3552.087891	67.672417
765.475586	1060.392700	4612.480469	3574.843262	70.787964
765.790771	1037.637451	4480.500488	3490.648926	71.249176
766.105835	985.300537	4211.988770	3324.535889	72.496475
766.420837	989.851563	4061.804688	3253.994629	73.703697
766.735840	1010.331238	3938.926514	3126.565674	72.261078
767.050842	1026.259888	3659.037354	2985.483398	74.416603
767.365662	1044.463989	3583.945313	2773.859863	68.100357
767.680542	917.034912	3577.118652	2785.237549	70.230972
767.995300	989.851563	3499.750977	2644.155273	65.911156
768.309998	1026.259888	3451.965088	2755.655762	71.294563
768.624817	1019.433350	3395.077148	2687.390137	70.210724
768.939392	985.300537	3390.525879	2655.532715	69.441818
769.254028	1035.361938	3137.943115	2639.604248	76.298714
769.568481	1019.433350	3301.780762	2528.103516	66.101685
769.882935	1067.219238	3185.729004	2619.124512	73.254570
770.197388	1053.566162	3199.382324	2571.338623	70.731712
770.511841	1074.045776	3194.831299	2521.277100	68.240341
770.826172	1039.912964	3137.943115	2430.256104	66.268974
771.140442	1005.780212	3140.218750	2498.521729	69.936028
771.454651	967.096313	3015.064941	2407.500977	70.333336
771.768860	1064.943726	3046.922363	2391.572266	66.934555
772.082886	1026.259888	2960.452637	2371.092773	69.529411
772.397034	980.749451	3078.779541	2396.123291	67.462036
772.711060	928.412476	2983.207764	2377.919189	70.542633
773.025024	987.576050	2928.595215	2425.705078	74.091438
773.338928	1035.361938	3090.157227	2407.500977	66.777405
773.652771	1023.984375	3017.340576	2380.194824	68.036530
773.966614	1076.321289	2894.462402	2346.062012	69.837303
774.280457	1044.463989	2771.584229	2323.306641	74.044792
774.594116	1014.882263	2969.554688	2332.408936	67.403961
774.907776	1026.259888	2873.982666	2311.929199	69.581291
775.221375	996.678101	2885.360352	2255.041016	66.626503
775.534912	985.300537	2810.268311	2277.796387	70.822945
775.848450	1058.117188	2762.482178	2270.969727	71.161552
776.161926	983.024963	2757.931152	2264.143311	72.179497
776.475342	1051.290649	2842.125488	2268.694336	67.979675
776.788696	1051.290649	2867.156250	2193.602051	62.907265
777.101990	1039.912964	2885.360352	2266.418701	66.461159
777.415283	971.647400	2696.492188	2377.919189	81.530334
777.728516	994.402588	2755.655762	2250.489990	71.317825
778.041626	1035.361938	2753.380127	2218.632813	68.874176
778.354736	1001.229126	2696.492188	2209.530762	71.275169
778.667725	1046.739624	2682.839111	2311.929199	77.329620
778.980774	1019.433350	2646.430664	2175.397949	71.048958
779.293640	1023.984375	2732.900391	2220.908203	70.039948
779.606567	1005.780212	2671.461426	2116.234375	66.666664
779.919434	928.412476	2737.451416	2138.989502	66.918243
780.232239	1014.882263	2696.492188	2104.856689	64.817314
780.544983	1026.259888	2732.900391	2204.979736	69.066673
780.857666	1039.912964	2662.359375	2191.326416	70.967735
781.170227	1035.361938	2687.390137	2241.387939	73.002747
781.482849	980.749451	2614.573486	2134.438477	70.612808
781.795410	1039.912964	2719.247314	2154.918213	66.395668
782.107910	1071.770264	2691.941162	2182.224365	68.539322
782.420288	1067.219238	2703.318604	2102.581299	63.282345
782.732666	1019.433350	2757.931152	2050.244141	59.293190
783.044983	1044.463989	2548.583252	2134.438477	72.465965
783.357300	962.545288	2632.777588	2102.581299	68.256134
783.669495	980.749451	2653.257324	2177.673340	71.564621
783.981689	964.820801	2655.532715	1993.356201	60.834457
784.293762	1008.055725	2594.093750	1995.631714	62.266853
784.605835	1067.219238	2550.858887	2000.182739	62.883430
784.917908	944.341125	2484.868652	2102.581299	75.184647
785.229858	1076.321289	2534.930176	2063.897461	67.706718
785.541748	969.371887	2405.225586	2057.070801	75.752769
785.853577	1037.637451	2484.868652	2061.621826	70.754723
786.165405	1010.331238	2448.460449	1888.682251	61.075947
786.477173	1001.229126	2507.624023	1963.774414	63.897274
786.788879	1060.392700	2425.705078	2027.489014	70.833336
787.100525	1003.504700	2437.082764	2027.489014	71.428566
787.412109	1112.729614	2471.215576	2011.560425	66.164162
787.723694	1001.229126	2462.113525	1954.672363	65.264793
788.035156	1067.219238	2478.042236	2029.764526	68.225800
788.346558	1005.780212	2466.664551	2004.733887	68.380066
788.658081	1023.984375	2632.777588	1993.356201	60.254593
788.969360	1069.494751	2623.675537	2016.111450	60.907761
789.280640	1026.259888	2748.829102	2125.336426	63.804493
789.591919	1033.086426	2739.727051	2093.479248	62.133339
789.903076	1033.086426	2753.380127	2239.112549	70.105827
790.214172	1012.606750	2753.380127	2127.612061	64.052299
790.525269	1019.433350	2607.746826	2072.999512	66.332382
790.836365	948.892151	2607.746826	2088.927979	68.724274
791.147339	1067.219238	2534.930176	2177.673340	75.658913
791.458191	998.953613	2498.521729	2072.999512	71.623680
791.769104	1076.321289	2489.419678	2038.866699	68.115952
792.079895	1001.229126	2466.664551	2038.866699	70.807457
792.390686	1033.086426	2336.959961	1954.672363	70.680626
792.701416	1074.045776	2382.470215	1906.886475	63.652180
793.012085	1026.259888	2352.888428	1931.917114	68.267586
793.322693	1035.361938	2393.847900	1922.815063	65.326630
793.633240	1033.086426	2373.368164	1934.192627	67.232597
793.943787	1014.882263	2373.368164	1836.345337	60.469021
794.254272	1078.596802	2366.541748	1922.815063	65.547699
794.564636	1042.188477	2307.378174	1941.019287	71.043167
794.875000	1051.290649	2332.408936	1959.223389	70.870331
795.185303	1017.157776	2318.755615	1886.406738	66.783218
795.495544	983.024963	2389.296875	1927.366089	67.152100
795.805786	1001.229126	2332.408936	1843.171875	63.247860
796.115906	1053.566162	2393.847900	1956.947876	67.402374
796.426025	971.647400	2446.184814	1893.233276	62.500004
796.736023	955.718750	2393.847900	1922.815063	67.246834
797.045959	1003.504700	2478.042236	2000.182739	67.592583
797.355896	1037.637451	2455.286865	1981.978638	66.613167
797.665833	1028.535400	2498.521729	2050.244141	69.504639
797.975708	1039.912964	2441.633789	1941.019287	64.285721
798.285461	983.024963	2409.776611	1959.223389	68.421043
798.595154	978.473938	2321.031250	1972.876587	74.067795
798.904846	996.678101	2393.847900	1950.121338	68.241043
799.214478	983.024963	2446.184814	1938.743774	65.318825
799.524109	1001.229126	2309.653564	1863.651489	65.913040
799.833557	973.922913	2293.724854	1836.345337	65.344833
800.143005	1055.841675	2409.776611	1863.651489	59.663857
800.452393	1003.504700	2227.734863	1941.019287	76.579926
800.761780	1021.708862	2257.316650	1909.161987	71.823204
801.071106	1023.984375	2252.765625	1852.273926	67.407402
801.380371	1005.780212	2204.979736	1829.518677	68.690697
801.689575	1019.433350	2200.428711	1797.661377	65.895943
801.998718	1014.882263	2252.765625	1811.314575	64.338242
802.307800	1019.433350	2257.316650	1929.641602	73.529404
802.616882	1055.841675	2075.274902	1749.875488	68.080360
802.925903	960.269775	2293.724854	1804.488037	63.310589
803.234863	1055.841675	2204.979736	1868.202637	70.693069
803.543701	1005.780212	2173.122314	1738.497925	62.768040
803.852539	1035.361938	2161.744873	1802.212524	68.080803
804.161316	1049.015137	2152.642578	1813.590088	69.278358
804.470032	967.096313	2043.417725	1852.273926	82.241013
804.778809	989.851563	2175.397949	1811.314575	69.289825
805.087341	1069.494751	2179.948975	1840.896362	69.467216
805.395935	1087.698975	2145.816162	1790.834839	66.451607
805.704468	1019.433350	2150.367188	1829.518677	71.629768
806.012939	1035.361938	2241.387939	1772.630737	61.132080
806.321350	1064.943726	2309.653564	1820.416626	60.694698
806.629761	1055.841675	2216.357178	1818.141113	65.686279
806.938049	1028.535400	2225.459229	1886.406738	71.673012
807.246277	996.678101	2234.561523	1888.682251	72.058815
807.554504	1046.739624	2318.755615	1847.722900	62.969593
807.862671	1010.331238	2170.846924	1806.763550	68.627449
808.170715	1010.331238	2298.276123	1790.834839	60.600700
808.478821	1035.361938	2264.143311	1822.692139	64.074066
808.786804	1001.229126	2259.592041	1863.651489	68.535263
809.094727	980.749451	2193.602051	1827.243164	69.793625
809.402649	1001.229126	2202.704102	1754.426514	62.689396
809.710510	1039.912964	2068.448486	1852.273926	78.982292
810.018311	1055.841675	2198.153076	1677.058838	54.382469
810.326050	1030.810913	2077.550537	1702.089600	64.130440
810.633667	1021.708862	2079.825928	1761.253052	69.892471
810.941345	983.024963	2134.438477	1804.488037	71.343880
811.248901	957.994263	2164.020264	1797.661377	69.622635
811.556396	994.402588	2138.989502	1672.507813	59.244537
811.863892	1005.780212	2025.213501	1656.579102	63.839283
812.171326	1042.188477	2013.835938	1802.212524	78.220146
812.478699	980.749451	2020.662476	1736.222412	72.647705
812.786011	1003.504700	2000.182739	1713.467163	71.232880
813.093262	1046.739624	2045.693237	1681.609863	63.553524
813.400391	1003.504700	1984.254150	1692.987427	70.301620
813.707642	1001.229126	1995.631714	1617.895264	62.013729
814.014709	923.861450	1966.049927	1733.946899	77.729263
814.321716	1046.739624	2007.009399	1743.048950	72.511841
814.628723	1037.637451	2059.346436	1761.253052	70.824043
814.935669	1010.331238	1988.805176	1658.854614	66.279068
815.242554	1046.739624	1972.876587	1738.497925	74.692871
815.549438	1028.535400	1918.264038	1665.681274	71.611259
815.856201	1074.045776	2013.835938	1656.579102	61.985466
816.162964	1010.331238	2002.458252	1688.436401	68.348625
816.469604	1023.984375	1902.335449	1658.854614	72.279785
816.776184	969.371887	2029.764526	1615.619751	60.944210
817.082825	998.953613	2143.540527	1768.079712	67.196831
817.389343	1053.566162	2029.764526	1706.640625	66.899773
817.695801	1033.086426	2032.040039	1620.170776	58.769932
818.002197	987.576050	2072.999512	1683.885376	64.150940
818.308533	1062.668213	2047.968750	1688.436401	63.510387
818.614868	1010.331238	2027.489014	1665.681274	64.429535
818.921143	1010.331238	2088.927979	1731.671387	66.877655
819.227356	1023.984375	2009.284912	1831.794189	81.986130
819.533447	962.545288	2136.714111	1695.262939	62.403091
819.839539	1003.504700	2111.683350	1740.773438	66.529770
820.145569	989.851563	2211.806152	1745.324463	61.824959
820.451538	1096.801025	2282.347412	1868.202637	65.067184
820.757568	1033.086426	2525.828125	1927.366089	59.908535
821.063416	1012.606750	2559.960938	2043.417725	66.617653
821.369263	1021.708862	2685.114502	2125.336426	66.347473
821.675049	969.371887	2726.073975	2204.979736	70.336792
821.980713	983.024963	2899.013428	2204.979736	63.776730
822.286438	996.678101	3147.045166	2471.215576	68.571426
822.592102	1019.433350	3998.090088	2994.585449	66.310165
822.897583	1001.229126	5727.485840	4346.244629	70.775154
823.203125	948.892151	8037.139648	5995.997070	71.203850
823.508545	989.851563	9859.832031	6988.124512	67.624420
823.813965	1035.361938	10299.006836	7019.981445	64.603294
824.119263	994.402588	9279.574219	6655.898438	68.332878
824.424622	992.127075	8003.006836	5738.863281	67.705284
824.729858	994.402588	6696.857910	4978.839355	69.872307
825.035095	1030.810913	5934.558105	4343.969238	67.563805
825.340149	1010.331238	5281.483887	3952.579590	68.886513
825.645264	1042.188477	4799.073242	3495.199951	65.293762
825.950256	1019.433350	4325.765137	3342.739990	70.268402
826.255310	1030.810913	4004.916504	3017.340576	66.794189
826.560242	1044.463989	3913.895752	2839.849854	62.569389
826.865112	983.024963	3613.527100	2949.074951	74.740486
827.169922	1019.433350	3413.281250	2782.961914	73.669197
827.474670	1026.259888	3725.027588	2785.237549	65.177071
827.779419	1062.668213	4011.743164	3147.045166	70.679008
828.084045	1049.015137	4632.960449	3463.342773	67.365082
828.388672	1026.259888	4844.583984	3709.098877	70.262207
828.693176	1051.290649	4969.737305	3613.527100	65.389084
828.997681	939.790100	4291.632324	3329.086914	71.283096
829.302124	1067.219238	3982.161377	3062.851074	68.462143
829.606567	983.024963	3506.577637	2660.083740	66.456261
829.910828	1028.535400	3188.004639	2548.583252	70.389885
830.215149	1019.433350	3085.606201	2300.551514	62.004406
830.519348	1101.352051	2908.115479	2195.877686	60.579353
830.823547	967.096313	2650.981689	2159.469238	70.810814
831.127686	1010.331238	2541.756836	1977.427612	63.150074
831.431763	978.473938	2293.724854	1847.722900	66.089966
831.735779	1053.566162	2268.694336	1911.437500	70.599243
832.039734	1021.708862	2223.183838	1852.273926	69.128784
832.343628	1044.463989	2132.163086	1720.293701	62.133884
832.647461	969.371887	2173.122314	1799.937012	68.998116
832.951233	923.861450	2164.020264	1752.151001	66.788994
833.255127	1039.912964	2145.816162	1840.896362	72.427986
833.558777	1030.810913	2280.071777	1820.416626	63.205830
833.862366	1042.188477	2352.888428	1834.069824	60.416676
834.165955	1035.361938	2635.052979	2072.999512	64.864876
834.469482	996.678101	2962.728027	2230.010498	62.731491
834.773010	1026.259888	3233.515137	2594.093750	71.030922
835.076416	996.678101	3613.527100	2737.451416	66.521729
835.379822	1074.045776	3529.332764	2712.420898	66.728455
835.683105	1064.943726	3285.852051	2387.021240	59.528687
835.986389	1046.739624	2980.932129	2352.888428	67.529411
836.289612	1001.229126	2757.931152	2098.030273	62.435242
836.592773	964.820801	2710.145264	2061.621826	62.842243
836.895874	1042.188477	2516.726074	1993.356201	64.506172
837.198914	969.371887	2346.062012	1961.498901	72.066109
837.501892	1033.086426	2309.653564	1822.692139	61.853832
837.804871	1076.321289	2132.163086	1829.518677	71.336197
838.107666	1051.290649	2141.265137	1763.528564	65.344460
838.410583	1053.566162	1993.356201	1692.987427	68.038734
838.713379	973.922913	1920.539551	1681.609863	74.759613
839.016052	1039.912964	1877.304688	1645.201538	72.282608
839.318787	969.371887	1927.366089	1581.486938	63.895485
839.621338	1014.882263	1863.651489	1492.741699	56.300278
839.923889	978.473938	1745.324463	1449.506714	61.424328
840.226440	1010.331238	1788.559326	1497.292725	62.573105
840.528931	989.851563	1854.549438	1597.415649	70.263161
840.831299	1017.157776	1968.325439	1645.201538	66.028709
841.133606	1039.912964	2082.101563	1679.334351	61.353710
841.435913	1058.117188	2104.856689	1686.160889	60.000000
841.738220	1055.841675	2077.550537	1626.997314	55.901997
842.040405	1037.637451	1966.049927	1636.099487	64.460793
842.342529	1058.117188	1909.161987	1599.691162	63.636364
842.644592	998.953613	1806.763550	1561.007324	69.577469
842.946594	1014.882263	1809.039063	1504.119263	61.604584
843.248596	994.402588	1811.314575	1469.986450	58.217270
843.550598	973.922913	1818.141113	1429.027100	53.908360
843.852478	1069.494751	1738.497925	1467.710938	59.523811
844.154236	1039.912964	1681.609863	1458.608887	65.248238
844.455994	1012.606750	1704.365112	1381.241089	53.289467
844.757690	996.678101	1622.446289	1324.353149	52.363647
845.059326	1019.433350	1538.252075	1308.424438	55.701748
845.360962	1028.535400	1581.486938	1353.934937	58.847748
845.662476	998.953613	1663.405762	1340.281738	51.369858
845.963989	1080.872437	1492.741699	1365.312500	69.060768
846.265381	1049.015137	1472.261963	1349.383789	70.967728
846.566772	1005.780212	1460.884399	1312.975464	67.499985
846.868042	1033.086426	1572.384888	1322.077637	53.586506
847.169373	1051.290649	1526.874512	1413.098389	76.076538
847.470581	1014.882263	1572.384888	1338.006226	57.959183
847.771729	1049.015137	1538.252075	1328.904175	57.209301
848.072815	969.371887	1492.741699	1340.281738	70.869553
848.373901	1001.229126	1522.323364	1333.455200	63.755470
848.674866	1064.943726	1419.924927	1269.740601	57.692314
848.975891	998.953613	1488.190552	1351.659302	72.093018
849.276794	937.514587	1463.159912	1301.597900	69.264061
849.577637	1105.903076	1479.088501	1344.832764	64.024391
849.878357	1008.055725	1481.364014	1353.934937	73.076942
850.179077	1001.229126	1442.680176	1294.771362	66.494858
850.479736	978.473938	1510.945801	1381.241089	75.641022
850.780396	978.473938	1472.261963	1246.985352	54.377872
851.080994	1046.739624	1426.751587	1347.108276	79.041893
851.381470	1005.780212	1422.200562	1278.842651	65.573753
851.681946	992.127075	1488.190552	1324.353149	66.972496
851.982361	1028.535400	1438.129150	1312.975464	69.444435
852.282715	1005.780212	1429.027100	1278.842651	64.516113
852.583008	998.953613	1520.047852	1237.883301	45.851532
852.883240	1037.637451	1515.496826	1258.363037	46.190491
853.183411	985.300537	1474.537476	1258.363037	55.813957
853.483521	1008.055725	1422.200562	1262.914063	61.538456
853.783630	985.300537	1360.761475	1272.016113	76.363625
854.083679	1033.086426	1360.761475	1317.526489	86.805527
854.383667	1069.494751	1504.119263	1328.904175	59.685871
854.683533	1028.535400	1449.506714	1272.016113	57.837841
854.983337	989.851563	1415.373901	1292.495850	71.123009
855.283203	985.300537	1397.169800	1312.975464	79.557991
855.582886	1001.229126	1419.924927	1333.455200	79.347839
855.882629	1028.535400	1392.618774	1290.220337	71.875000
856.182312	989.851563	1360.761475	1287.944824	80.368103
856.481873	964.820801	1317.526489	1240.158813	78.064522
856.781372	1021.708862	1363.036987	1258.363037	69.333336
857.080872	1005.780212	1429.027100	1256.087524	59.139790
857.380310	1060.392700	1449.506714	1283.393677	57.309933
857.679688	987.576050	1397.169800	1319.802124	81.111122
857.979004	1039.912964	1426.751587	1217.403687	45.882370
858.278259	1023.984375	1388.067749	1221.954712	54.375000
858.577454	1055.841675	1472.261963	1287.944824	55.737713
858.876648	973.922913	1431.302612	1228.781250	55.721394
859.175720	1099.076538	1369.863525	1124.107300	9.243710
859.474792	1030.810913	1474.537476	1281.118164	56.410248
859.773743	1001.229126	1442.680176	1258.363037	58.247433
860.072693	1030.810913	1388.067749	1303.873413	76.433105
860.371521	935.239075	1438.129150	1240.158813	60.633476
860.670349	1053.566162	1449.506714	1253.812012	50.574726
860.969116	1058.117188	1415.373901	1240.158813	50.955410
861.267883	1033.086426	1429.027100	1276.567139	61.494240
861.566589	1014.882263	1403.996338	1292.495850	71.345039
861.865112	1046.739624	1442.680176	1249.260864	51.149406
862.163635	1008.055725	1358.485962	1212.852539	58.441536
862.462158	1046.739624	1401.720825	1206.026001	44.871777
862.760620	1023.984375	1349.383789	1233.332275	64.335670
863.059021	1010.331238	1378.965576	1228.781250	59.259270
863.357361	996.678101	1422.200562	1219.679199	52.406422
863.655640	1076.321289	1440.404663	1203.750488	35.000004
863.953857	1005.780212	1367.588013	1203.750488	54.716972
864.251953	987.576050	1397.169800	1221.954712	57.222225
864.550110	1135.484863	1401.720825	1228.781250	35.042744
864.848206	1069.494751	1440.404663	1183.270874	30.674868
865.146179	989.851563	1390.343262	1176.444214	46.590893
865.444092	1030.810913	1385.792114	1217.403687	52.564129
865.741943	1042.188477	1442.680176	1201.474976	39.772736
866.039795	998.953613	1433.578125	1221.954712	51.308910
866.337646	1046.739624	1390.343262	1180.995239	39.072815
866.635376	985.300537	1429.027100	1208.301514	50.256397
866.933044	1094.525513	1413.098389	1256.087524	50.714302
867.230652	1046.739624	1456.333252	1283.393677	57.777767
867.528198	1033.086426	1390.343262	1283.393677	70.063667
867.825745	960.269775	1474.537476	1258.363037	57.964607
868.123230	980.749451	1378.965576	1258.363037	69.714302
868.420593	1053.566162	1419.924927	1249.260864	53.416138
868.717896	1017.157776	1376.690063	1219.679199	56.329132
869.015198	1019.433350	1319.802124	1174.168701	51.515125
869.312439	1014.882263	1413.098389	1333.455200	80.000008
869.609619	1037.637451	1281.118164	1192.372925	63.551430
869.906738	985.300537	1456.333252	1253.812012	57.004845
870.203796	939.790100	1349.383789	1158.240112	53.333344
870.500854	987.576050	1406.271851	1228.781250	57.608700
870.797791	1058.117188	1363.036987	1162.791138	34.328354
871.094666	996.678101	1415.373901	1299.322388	72.282616
871.391602	1008.055725	1340.281738	1221.954712	64.383575
871.688293	1042.188477	1449.506714	1297.046875	62.569847
871.985107	992.127075	1360.761475	1249.260864	69.753067
872.281738	1001.229126	1429.027100	1240.158813	55.851055
872.578369	1042.188477	1376.690063	1276.567139	70.068024
872.874939	1017.157776	1356.210449	1242.434326	66.442932
873.171509	1030.810913	1394.894287	1240.158813	57.499989
873.467957	1023.984375	1429.027100	1292.495850	66.292137
873.764343	944.341125	1381.241089	1278.842651	76.562500
874.060669	1019.433350	1385.792114	1338.006226	86.956535
874.356995	1008.055725	1369.863525	1256.087524	68.553467
874.653198	1053.566162	1358.485962	1249.260864	64.179077
874.949463	1005.780212	1481.364014	1185.546387	37.799053
875.245544	1055.841675	1424.476074	1237.883301	49.382702
875.541626	1001.229126	1401.720825	1242.434326	60.227264
875.837646	1055.841675	1401.720825	1278.842651	64.473671
876.133606	1021.708862	1401.720825	1196.923950	46.107780
876.429565	1019.433350	1401.720825	1249.260864	60.119026
876.725403	1069.494751	1401.720825	1285.669312	65.068512
877.021179	1046.739624	1369.863525	1312.975464	82.394348
877.316956	1030.810913	1390.343262	1237.883301	57.594925
877.612610	1062.668213	1381.241089	1281.118164	68.571419
877.908203	1108.178589	1363.036987	1224.230225	45.535732
878.203857	1014.882263	1374.414551	1287.944824	75.949387
878.499390	1005.780212	1417.649414	1246.985352	58.563530
878.794800	1003.504700	1401.720825	1246.985352	61.142841
879.090271	1014.882263	1390.343262	1256.087524	64.242432
879.385559	1017.157776	1474.537476	1290.220337	59.701504
879.680847	923.861450	1422.200562	1306.148926	76.712318
879.976196	1035.361938	1451.782227	1256.087524	53.005482
880.271301	1001.229126	1520.047852	1312.975464	60.087719
880.566467	1017.157776	1572.384888	1360.761475	61.885254
880.861572	1046.739624	1658.854614	1415.373901	60.223045
881.156555	1028.535400	1802.212524	1442.680176	53.529408
881.451477	1062.668213	2072.999512	1727.120239	65.765755
881.746460	1030.810913	2596.369141	2077.550537	66.860474
882.041321	998.953613	3365.495361	2612.297852	68.173073
882.336121	1010.331238	4086.835449	2946.799316	62.943779
882.630798	971.647400	4460.020996	3247.168213	65.231567
882.925537	1030.810913	4496.429199	3294.954102	65.331581
883.220215	985.300537	4305.285156	3140.218750	64.907478
883.514771	1026.259888	3970.783691	2819.370361	60.896446
883.809326	1005.780212	3718.200928	2710.145264	62.835571
884.103760	1021.708862	3324.535889	2580.440674	67.687744
884.398132	1037.637451	3149.320801	2380.194824	63.577591
884.692505	1087.698975	2987.758789	2371.092773	67.544914
884.986816	983.024963	2842.125488	2352.888428	73.684204
885.281067	967.096313	2676.012451	2136.714111	68.442085
885.575256	978.473938	2421.154053	1945.570313	67.034706
885.869385	1060.392700	2350.613037	1813.590088	58.377422
886.163452	1058.117188	2198.153076	1747.599976	60.479042
886.457458	1021.708862	1977.427612	1613.344238	61.904758
886.751465	994.402588	1772.630737	1606.517700	78.654968
887.045410	1062.668213	1706.640625	1542.803101	74.558304
887.339233	1110.454102	1756.702026	1504.119263	60.915501
887.632996	1071.770264	1656.579102	1358.485962	49.027252
887.926758	1037.637451	1601.966675	1351.659302	55.645153
888.220398	1026.259888	1608.793213	1363.036987	57.812504
888.514099	1067.219238	1520.047852	1415.373901	76.884422
888.807678	1099.076538	1526.874512	1308.424438	48.936161
889.101196	987.576050	1535.976563	1306.148926	58.091278
889.394653	1012.606750	1413.098389	1251.536499	59.659111
889.688049	1003.504700	1510.945801	1319.802124	62.331848
889.981384	1021.708862	1442.680176	1206.026001	43.783775
890.274719	996.678101	1460.884399	1244.709839	53.431358
890.567932	1014.882263	1385.792114	1246.985352	62.576683
>>>>>End Processed Spectral Data<<<<<
