Jaz Data File
++++++++++++++++++++++++++++++++++++
Date: Wed Feb 07 06:53:12 2024
User: jaz
Dark Spectrum Present: Yes
Reference Spectrum Present: Yes
Processed Spectrum Present: Yes
Spectrometers: JAZA3692
Integration Time (usec): 49800 (JAZA3692)
Spectra Averaged: 1 (JAZA3692)
Boxcar Smoothing: 0 (JAZA3692)
Correct for Electrical Dark: No (JAZA3692)
Strobe/Lamp Enabled: Yes (JAZA3692)
Correct for Detector Non-linearity: No (JAZA3692)
Correct for Stray Light: No (JAZA3692)
Number of Pixels in Processed Spectrum: 2048
>>>>>Begin Processed Spectral Data<<<<<
W	D	R	S	P
190.244385	0.000000	0.000000	0.000000	0.000000
190.627136	0.000000	0.000000	0.000000	0.000000
191.009842	912.483826	932.963501	928.412476	77.777847
191.392532	962.545288	928.412476	907.932800	159.999969
191.775177	957.994263	923.861450	894.279663	186.666718
192.157791	955.718750	953.443237	937.514587	800.002686
192.540390	928.412476	907.932800	998.953613	-344.444611
192.922943	869.248962	1008.055725	928.412476	42.622932
193.305481	880.626526	978.473938	926.136963	46.511642
193.687958	944.341125	946.616638	928.412476	-700.002686
194.070419	944.341125	971.647400	1023.984375	291.666473
194.452866	955.718750	967.096313	955.718750	0.000000
194.835251	969.371887	951.167725	930.687988	212.500290
195.217621	978.473938	953.443237	939.790100	154.545563
195.599960	948.892151	1017.157776	957.994263	13.333375
195.982254	955.718750	914.759338	964.820801	-22.222122
196.364517	905.657288	971.647400	944.341125	58.620659
196.746750	1008.055725	944.341125	1001.229126	10.714340
197.128952	976.198425	948.892151	1010.331238	-124.999886
197.511139	953.443237	935.239075	946.616638	37.500210
197.893280	932.963501	1033.086426	983.024963	50.000000
198.275391	939.790100	901.106262	969.371887	-76.470665
198.657471	930.687988	980.749451	964.820801	68.181816
199.039520	964.820801	955.718750	985.300537	-225.001343
199.421539	960.269775	946.616638	992.127075	-233.333191
199.803513	914.759338	960.269775	939.790100	55.000046
200.185471	948.892151	1053.566162	939.790100	-8.695617
200.567383	962.545288	1030.810913	998.953613	53.333321
200.949265	1005.780212	935.239075	914.759338	129.032333
201.331131	964.820801	928.412476	957.994263	18.749937
201.712967	1080.872437	944.341125	957.994263	89.999992
202.094742	873.799988	1030.810913	967.096313	59.420277
202.476517	885.177612	1001.229126	1021.708862	117.647110
202.858231	928.412476	951.167725	928.412476	0.000000
203.239944	942.065613	985.300537	955.718750	31.578955
203.621582	946.616638	957.994263	930.687988	-139.999786
204.003235	907.932800	923.861450	901.106262	-42.856979
204.384827	903.381775	985.300537	903.381775	0.000000
204.766388	928.412476	935.239075	935.239075	100.000000
205.147934	1003.504700	955.718750	960.269775	90.476227
205.529449	980.749451	957.994263	946.616638	150.000137
205.910904	896.555176	964.820801	994.402588	143.333359
206.292343	962.545288	985.300537	962.545288	0.000000
206.673767	964.820801	1012.606750	946.616638	-38.095219
207.055115	892.004150	1001.229126	937.514587	41.666695
207.436462	937.514587	1001.229126	928.412476	-14.285769
207.817780	942.065613	944.341125	930.687988	-500.002686
208.199051	930.687988	1042.188477	1033.086426	91.836761
208.580307	887.453125	973.922913	957.994263	81.578941
208.961517	901.106262	1005.780212	882.902100	-17.391302
209.342712	948.892151	944.341125	903.381775	1000.002686
209.723846	944.341125	932.963501	921.585938	199.999466
210.104965	914.759338	930.687988	942.065613	171.428680
210.486069	917.034912	1021.708862	921.585938	4.347811
210.867111	871.524475	942.065613	978.473938	151.612900
211.248123	973.922913	1069.494751	912.483826	-64.285767
211.629120	937.514587	976.198425	923.861450	-35.294163
212.010071	946.616638	967.096313	885.177612	-300.000000
212.390991	994.402588	930.687988	967.096313	42.857170
212.771881	907.932800	980.749451	998.953613	125.000000
213.152756	989.851563	953.443237	1033.086426	-118.749939
213.533569	992.127075	983.024963	973.922913	199.999329
213.914368	1008.055725	992.127075	942.065613	414.285645
214.295135	962.545288	1017.157776	905.657288	-104.166656
214.675858	994.402588	1026.259888	1014.882263	64.285660
215.056549	928.412476	1033.086426	971.647400	41.304379
215.437225	926.136963	1026.259888	878.351013	-47.727280
215.817841	951.167725	976.198425	876.075500	-300.000488
216.198441	873.799988	1055.841675	903.381775	16.250008
216.579025	983.024963	960.269775	976.198425	29.999920
216.959549	932.963501	973.922913	942.065613	22.222271
217.340057	967.096313	1008.055725	980.749451	33.333332
217.720535	953.443237	917.034912	928.412476	68.750107
218.100967	926.136963	1010.331238	919.310425	-8.108079
218.481369	951.167725	910.208313	1001.229126	-122.221977
218.861740	996.678101	910.208313	1001.229126	-5.263139
219.242065	994.402588	996.678101	955.718750	-1700.005371
219.622391	926.136963	992.127075	992.127075	100.000000
220.002670	946.616638	951.167725	917.034912	-649.992615
220.382919	951.167725	992.127075	914.759338	-88.889069
220.763123	983.024963	953.443237	892.004150	307.692719
221.143295	978.473938	962.545288	942.065613	228.571320
221.523453	948.892151	957.994263	885.177612	-699.997314
221.903549	955.718750	1003.504700	905.657288	-104.761887
222.283630	910.208313	1055.841675	917.034912	4.687524
222.663696	919.310425	1042.188477	930.687988	9.259232
223.043701	948.892151	1030.810913	903.381775	-55.555496
223.423676	964.820801	1058.117188	1062.668213	104.878029
223.803635	1033.086426	1042.188477	1060.392700	300.001343
224.183548	1008.055725	998.953613	1026.259888	-199.999329
224.563431	951.167725	987.576050	987.576050	100.000000
224.943283	960.269775	1026.259888	955.718750	-6.896526
225.323105	873.799988	1069.494751	919.310425	23.255827
225.702881	885.177612	978.473938	955.718750	75.609772
226.082642	910.208313	1042.188477	939.790100	22.413813
226.462357	903.381775	1028.535400	955.718750	41.818184
226.842041	955.718750	1037.637451	957.994263	2.777770
227.221695	892.004150	1019.433350	964.820801	57.142830
227.601318	987.576050	1058.117188	951.167725	-51.612896
227.980911	930.687988	1044.463989	955.718750	22.000036
228.360474	917.034912	1012.606750	926.136963	9.523779
228.739990	962.545288	1133.209351	914.759338	-28.000008
229.119476	905.657288	1149.138062	894.279663	-4.672904
229.498932	821.463013	1149.138062	992.127075	52.083324
229.878372	885.177612	1210.577026	882.902100	-0.699298
230.257736	901.106262	1240.158813	960.269775	17.449659
230.637115	944.341125	1233.332275	946.616638	0.787399
231.016449	935.239075	1142.311401	939.790100	2.197795
231.395737	871.524475	1133.209351	967.096313	36.521729
231.774994	898.830688	1183.270874	951.167725	18.400015
232.154221	926.136963	1153.689087	935.239075	4.000012
232.533417	939.790100	1117.280762	992.127075	29.487171
232.912582	921.585938	1133.209351	935.239075	6.451620
233.291702	935.239075	1121.831787	962.545288	14.634127
233.670792	944.341125	1185.546387	957.994263	5.660381
234.049866	942.065613	1126.382813	971.647400	16.049391
234.428894	955.718750	1149.138062	967.096313	5.882331
234.807892	951.167725	1121.831787	944.341125	-4.000021
235.186874	944.341125	1128.658325	1026.259888	44.444447
235.565781	882.902100	1151.413574	951.167725	25.423727
235.944687	1019.433350	1149.138062	971.647400	-36.842106
236.323547	967.096313	1199.199463	967.096313	0.000000
236.702377	955.718750	1199.199463	964.820801	3.738305
237.081177	985.300537	1169.617676	878.351013	-58.024731
237.459946	932.963501	1274.291626	1010.331238	22.666676
237.838669	953.443237	1210.577026	983.024963	11.504411
238.217361	894.279663	1151.413574	994.402588	38.938049
238.596039	948.892151	1083.147949	983.024963	25.423716
238.974670	914.759338	1174.168701	953.443237	14.912298
239.353271	905.657288	1169.617676	967.096313	23.275850
239.731842	957.994263	1140.035889	876.075500	-45.000015
240.110367	914.759338	1240.158813	912.483826	-0.699298
240.488876	896.555176	1192.372925	973.922913	26.153852
240.867340	971.647400	1244.709839	1003.504700	11.666673
241.245789	901.106262	1303.873413	964.820801	15.819200
241.624176	935.239075	1376.690063	978.473938	9.793808
242.002548	932.963501	1281.118164	998.953613	18.954252
242.380890	887.453125	1401.720825	985.300537	19.026552
242.759186	957.994263	1529.150024	951.167725	-1.195215
243.137451	944.341125	1622.446289	948.892151	0.671139
243.515686	939.790100	1670.232300	962.545288	3.115262
243.893890	928.412476	1683.885376	923.861450	-0.602408
244.272049	869.248962	1665.681274	903.381775	4.285714
244.650192	1026.259888	1590.588989	996.678101	-5.241939
245.028290	932.963501	1590.588989	967.096313	5.190312
245.406357	928.412476	1510.945801	971.647400	7.421880
245.784393	912.483826	1497.292725	919.310425	1.167321
246.162384	973.922913	1433.578125	960.269775	-2.970300
246.540359	889.728638	1549.629639	935.239075	6.896555
246.918289	955.718750	1620.170776	1017.157776	9.246571
247.296204	964.820801	1795.385864	937.514587	-3.287667
247.674057	1005.780212	1995.631714	1003.504700	-0.229884
248.051895	996.678101	2339.235352	971.647400	-1.864405
248.429703	919.310425	2359.715088	1005.780212	6.003160
248.807465	907.932800	2325.582275	1028.535400	8.507223
249.185196	1001.229126	2093.479248	953.443237	-4.374995
249.562897	946.616638	1959.223389	935.239075	-1.123592
249.940567	889.728638	1884.131226	992.127075	10.297483
250.318192	976.198425	1642.926025	989.851563	2.047783
250.695801	960.269775	1667.956787	901.106262	-8.360125
251.073349	1019.433350	1661.130127	971.647400	-7.446812
251.450882	992.127075	1567.833862	953.443237	-6.719365
251.828400	985.300537	1563.282837	905.657288	-13.779531
252.205872	914.759338	1613.344238	1064.943726	21.498373
252.583313	905.657288	1633.823975	946.616638	5.624997
252.960693	978.473938	1733.946899	971.647400	-0.903611
253.338074	983.024963	1768.079712	912.483826	-8.985505
253.715408	951.167725	1722.569214	985.300537	4.424779
254.092682	928.412476	1720.293701	985.300537	7.183913
254.469955	894.279663	1570.109375	932.963501	5.723903
254.847198	930.687988	1658.854614	969.371887	5.312507
255.224365	866.973450	1565.558350	994.402588	18.241037
255.601563	919.310425	1535.976563	928.412476	1.476009
255.978683	1005.780212	1576.935913	969.371887	-6.374501
256.355743	896.555176	1576.935913	998.953613	15.050167
256.732819	937.514587	1526.874512	944.341125	1.158297
257.109894	894.279663	1586.037964	1026.259888	19.078951
257.486877	932.963501	1558.731689	960.269775	4.363641
257.863831	887.453125	1688.436401	980.749451	11.647724
258.240753	1008.055725	1818.141113	983.024963	-3.089892
258.617645	914.759338	1788.559326	903.381775	-1.302079
258.994507	967.096313	1797.661377	1001.229126	4.109589
259.371307	964.820801	1984.254150	996.678101	3.125001
259.748108	971.647400	2209.530762	944.341125	-2.205884
260.124878	951.167725	2364.266113	971.647400	1.449275
260.501617	919.310425	2555.409912	953.443237	2.086231
260.878296	946.616638	2846.676514	1019.433350	3.832338
261.254944	960.269775	2983.207764	1014.882263	2.699662
261.631561	851.044800	2924.044189	930.687988	3.841930
262.008179	962.545288	2555.409912	969.371887	0.428574
262.384735	928.412476	2252.765625	955.718750	2.061857
262.761261	905.657288	2025.213501	880.626526	-2.235775
263.137695	873.799988	1952.396851	914.759338	3.797466
263.514191	937.514587	1986.529663	987.576050	4.772234
263.890594	976.198425	1934.192627	1005.780212	3.087888
264.267029	957.994263	1925.090576	957.994263	0.000000
264.643341	898.830688	1868.202637	967.096313	7.042253
265.019653	953.443237	1790.834839	910.208313	-5.163047
265.395935	926.136963	1865.927002	994.402588	7.263923
265.772217	953.443237	1815.865601	912.483826	-4.749345
266.148407	989.851563	1897.784302	971.647400	-2.005012
266.524597	976.198425	1884.131226	944.341125	-3.508773
266.900726	939.790100	2088.927979	953.443237	1.188120
267.276855	937.514587	2136.714111	1026.259888	7.400379
267.652924	992.127075	2198.153076	955.718750	-3.018867
268.028992	1005.780212	2191.326416	1017.157776	0.959690
268.404999	996.678101	2204.979736	962.545288	-2.824859
268.781006	935.239075	2198.153076	1003.504700	5.405406
269.156921	946.616638	2195.877686	962.545288	1.275046
269.532837	967.096313	2245.938965	932.963501	-2.669039
269.908661	901.106262	2209.530762	969.371887	5.217391
270.284546	901.106262	2093.479248	912.483826	0.954195
270.660339	976.198425	2141.265137	969.371887	-0.585935
271.036133	976.198425	2195.877686	1005.780212	2.425375
271.411835	885.177612	2195.877686	1044.463989	12.152771
271.787537	967.096313	2407.500977	985.300537	1.263827
272.163239	978.473938	2748.829102	971.647400	-0.385603
272.538849	939.790100	2796.614990	998.953613	3.186273
272.914459	946.616638	2848.952148	971.647400	1.315791
273.290070	864.697876	2673.737061	976.198425	6.163523
273.665588	960.269775	2607.746826	1026.259888	4.005526
274.041046	960.269775	2562.236328	971.647400	0.710229
274.416565	942.065613	2466.664551	1003.504700	4.029852
274.791962	953.443237	2523.552490	1019.433350	4.202899
275.167389	905.657288	2421.154053	928.412476	1.501500
275.542755	930.687988	2255.041016	962.545288	2.405499
275.918060	930.687988	2302.827148	935.239075	0.331678
276.293365	948.892151	2402.949951	944.341125	-0.312988
276.668640	976.198425	2437.082764	935.239075	-2.803737
277.043854	955.718750	2400.674561	971.647400	1.102362
277.419037	919.310425	2523.552490	964.820801	2.836877
277.794189	928.412476	2544.032227	928.412476	0.000000
278.169312	983.024963	2466.664551	1021.708862	2.607365
278.544373	987.576050	2532.654541	969.371887	-1.178203
278.919464	1028.535400	2437.082764	971.647400	-4.038771
279.294464	976.198425	2437.082764	1044.463989	4.672894
279.669464	928.412476	2450.735840	1023.984375	6.278029
280.044403	969.371887	2311.929199	1017.157776	3.559318
280.419312	985.300537	2439.358398	948.892151	-2.503916
280.794189	998.953613	2521.277100	989.851563	-0.597905
281.169037	1030.810913	2603.195801	1046.739624	1.013029
281.543854	935.239075	2644.155273	1049.015137	6.657790
281.918671	960.269775	2701.043213	1089.974487	7.450982
282.293365	955.718750	2853.503174	1003.504700	2.517986
282.668091	980.749451	3012.789551	948.892151	-1.567750
283.042786	957.994263	2980.932129	1033.086426	3.712035
283.417419	973.922913	3112.912354	1001.229126	1.276594
283.792053	923.861450	3008.238525	960.269775	1.746725
284.166595	989.851563	2974.105713	967.096313	-1.146791
284.541138	921.585938	2782.961914	969.371887	2.567238
284.915619	937.514587	2835.298828	962.545288	1.318944
285.290100	898.830688	2935.421875	967.096313	3.351955
285.664520	983.024963	3015.064941	951.167725	-1.567747
286.038940	935.239075	3035.544678	1030.810913	4.550377
286.413300	932.963501	3231.239502	1062.668213	5.643566
286.787628	944.341125	3231.239502	996.678101	2.288557
287.161896	964.820801	3345.015625	976.198425	0.478012
287.536194	930.687988	3317.709229	923.861450	-0.285986
287.910400	937.514587	3231.239502	992.127075	2.380952
288.284607	939.790100	3060.575439	1035.361938	4.506436
288.658752	878.351013	2978.656738	1026.259888	7.042255
289.032867	926.136963	2869.431641	973.922913	2.459017
289.406921	960.269775	3005.962891	953.443237	-0.333703
289.781006	960.269775	3010.513916	994.402588	1.664817
290.154999	964.820801	2921.768799	987.576050	1.162793
290.529022	953.443237	3110.636963	989.851563	1.687763
290.902954	928.412476	3438.312012	1035.361938	4.261106
291.276825	971.647400	3392.801514	930.687988	-1.691731
291.650757	930.687988	3370.046387	923.861450	-0.279850
292.024597	948.892151	3253.994629	1078.596802	5.626850
292.398407	971.647400	3217.586426	1019.433350	2.127660
292.772156	914.759338	3267.647949	1026.259888	4.738879
293.145905	946.616638	3056.024414	1003.504700	2.696874
293.519592	962.545288	2983.207764	955.718750	-0.337837
293.893280	942.065613	2971.830078	953.443237	0.560539
294.266907	976.198425	3108.361328	1021.708862	2.134473
294.640533	937.514587	3372.321777	1021.708862	3.457944
295.014069	912.483826	3445.138428	1012.606750	3.953280
295.387604	910.208313	3495.199951	1017.157776	4.137323
295.761078	898.830688	3586.220703	942.065613	1.608807
296.134552	917.034912	3620.353516	955.718750	1.430976
296.507996	882.902100	3704.547852	1074.045776	6.774191
296.881378	921.585938	3743.231689	1014.882263	3.306451
297.254730	921.585938	3736.405273	978.473938	2.021018
297.628021	964.820801	3982.161377	992.127075	0.904978
298.001282	953.443237	4161.927734	951.167725	-0.070922
298.374573	910.208313	4032.222900	917.034912	0.218660
298.747803	953.443237	4171.029785	942.065613	-0.353607
299.121002	885.177612	3811.497314	976.198425	3.110419
299.494141	1014.882263	3652.210938	969.371887	-1.725624
299.867188	944.341125	3463.342773	1017.157776	2.890695
300.240265	935.239075	3483.822266	994.402588	2.321428
300.613312	914.759338	3351.842041	1023.984375	4.481794
300.986328	919.310425	3288.127441	1026.259888	4.514889
301.359314	976.198425	3340.464600	1001.229126	1.058709
301.732239	898.830688	3326.811523	1001.229126	4.217432
302.105103	1053.566162	3499.750977	1062.668213	0.372092
302.477997	976.198425	3440.587402	983.024963	0.277007
302.850830	944.341125	3381.423828	1017.157776	2.987861
303.223602	946.616638	3228.964111	989.851563	1.894318
303.596375	923.861450	3144.769775	1058.117188	6.045083
303.969116	894.279663	3160.698486	1042.188477	6.526102
304.341766	957.994263	3112.912354	1003.504700	2.111934
304.714478	923.861450	3108.361328	1019.433350	4.375001
305.087067	910.208313	3119.739014	1008.055725	4.428425
305.459656	898.830688	3208.484375	1060.392700	6.995075
305.832214	841.942688	3074.228516	1069.494751	10.193679
306.204681	964.820801	3017.340576	1051.290649	4.212863
306.577148	935.239075	3056.024414	1092.250000	7.403433
306.949646	930.687988	3242.617188	1140.035889	9.055118
307.322021	912.483826	3110.636963	1119.556274	9.420293
307.694397	994.402588	3128.841064	1169.617676	8.208955
308.066742	923.861450	3158.422852	1196.923950	12.219959
308.439026	928.412476	3288.127441	1253.812012	13.789783
308.811279	926.136963	3315.433838	1272.016113	14.476190
309.183502	964.820801	3397.352539	1283.393677	13.096351
309.555695	917.034912	3634.006836	1363.036987	16.415409
309.927887	980.749451	3606.700439	1331.179688	13.344889
310.299988	983.024963	3513.404053	1392.618774	16.187054
310.672058	892.004150	3670.415039	1408.547363	18.591318
311.044128	894.279663	3677.241699	1463.159912	20.441540
311.416168	969.371887	3611.251465	1472.261963	19.035315
311.788147	917.034912	3586.220703	1476.812988	20.971867
312.160065	1014.882263	3775.089111	1349.383789	12.118712
312.531982	983.024963	3531.608398	1413.098389	16.874998
312.903870	926.136963	3542.985840	1460.884399	20.434784
313.275696	907.932800	3429.209961	1442.680176	21.209385
313.647491	992.127075	3381.423828	1424.476074	18.095240
314.019318	964.820801	3360.944336	1388.067749	17.663820
314.391022	1012.606750	3340.464600	1378.965576	15.738024
314.762726	939.790100	3451.965088	1497.292725	22.192030
315.134369	946.616638	3533.883789	1510.945801	21.811787
315.505981	926.136963	3738.680664	1588.313477	23.543688
315.877594	948.892151	3779.640137	1540.527588	20.900322
316.249146	992.127075	3611.251465	1485.915039	18.853168
316.620636	978.473938	3426.934326	1422.200562	18.122679
316.992157	1008.055725	3381.423828	1458.608887	18.983704
317.363586	983.024963	3370.046387	1417.649414	18.207815
317.735016	937.514587	3306.331787	1381.241089	18.731987
318.106354	992.127075	3363.219727	1381.241089	16.410746
318.477722	912.483826	3356.393066	1438.129150	21.508383
318.849060	912.483826	3347.291016	1356.210449	18.224302
319.220306	969.371887	3374.597412	1419.924927	18.732258
319.591522	921.585938	3456.516113	1413.098389	19.389585
319.962738	942.065613	3495.199951	1469.986450	20.677362
320.333923	932.963501	3529.332764	1429.027100	19.106050
320.705017	948.892151	3556.638916	1408.547363	17.626528
321.076111	903.381775	3476.995850	1372.139038	18.213968
321.447144	942.065613	3340.464600	1360.761475	17.457308
321.818176	892.004150	3203.933350	1365.312500	20.472441
322.189178	969.371887	3272.198975	1413.098389	19.268772
322.560120	919.310425	3385.974854	1390.343262	19.095942
322.931030	873.799988	3279.025391	1438.129150	23.462631
323.301910	894.279663	3454.240479	1388.067749	19.288891
323.672729	932.963501	3679.517090	1444.955688	18.641258
324.043549	926.136963	3706.823486	1408.547363	17.348608
324.414337	919.310425	3902.518066	1485.915039	18.993134
324.785095	939.790100	4211.988770	1499.568237	17.107094
325.155792	955.718750	4180.131836	1517.772339	17.431190
325.526428	983.024963	4034.498291	1561.007324	18.941092
325.897034	932.963501	4045.875977	1490.466064	17.909355
326.267670	937.514587	3979.885986	1422.200562	15.931190
326.638184	928.412476	3952.579590	1495.017212	18.735895
327.008728	951.167725	4068.631104	1460.884399	16.350367
327.379211	935.239075	4148.274414	1447.231201	15.934842
327.749634	907.932800	4041.324951	1451.782227	17.356571
328.120026	910.208313	3731.854004	1438.129150	18.709679
328.490417	907.932800	3811.497314	1431.302612	18.025080
328.860748	962.545288	3768.262451	1454.057739	17.518246
329.231079	971.647400	3743.231689	1403.996338	15.599343
329.601318	912.483826	3663.588379	1426.751587	18.693138
329.971558	951.167725	3684.068115	1463.159912	18.734388
330.341736	903.381775	3772.813477	1419.924927	18.001585
330.711914	901.106262	3693.170166	1356.210449	16.299919
331.082062	944.341125	3818.323975	1381.241089	15.201899
331.452148	939.790100	3715.925537	1369.863525	15.491802
331.822174	969.371887	3772.813477	1385.792114	14.853893
332.192200	973.922913	3895.691650	1383.516602	14.018689
332.562134	903.381775	3745.507324	1417.649414	18.094473
332.932129	994.402588	3934.375488	1529.150024	18.188856
333.302063	978.473938	4084.559814	1488.190552	16.410255
333.671906	1021.708862	4209.713379	1431.302612	12.847967
334.041718	928.412476	4207.437988	1483.639526	16.932686
334.411499	937.514587	4257.499512	1440.404663	15.147361
334.781281	939.790100	4196.060547	1442.680176	15.443744
335.151001	953.443237	4305.285156	1576.935913	18.601494
335.520721	1014.882263	4198.335938	1433.578125	13.152252
335.890350	921.585938	4086.835449	1456.333252	16.894318
336.259979	880.626526	4168.753906	1506.394775	19.031143
336.629547	955.718750	4152.825684	1490.466064	16.725975
336.999084	967.096313	4223.366699	1419.924927	13.906358
337.368622	953.443237	4027.671875	1570.109375	20.059216
337.738098	851.044800	4105.039551	1479.088501	19.300699
338.107513	885.177612	4198.335938	1458.608887	17.307693
338.476898	894.279663	4177.855957	1469.986450	17.532921
338.846252	951.167725	4148.274414	1506.394775	17.366547
339.215576	973.922913	4414.510254	1495.017212	15.145504
339.584869	896.555176	4293.907715	1520.047852	18.352310
339.954132	1044.463989	4205.162598	1540.527588	15.694745
340.323334	928.412476	4134.621094	1481.364014	17.246275
340.692505	894.279663	3948.028564	1417.649414	17.138597
341.061646	953.443237	3857.007813	1394.894287	15.203763
341.430786	894.279663	4073.182129	1499.568237	19.040804
341.799896	983.024963	4275.703613	1394.894287	12.508640
342.168915	923.861450	4218.815430	1429.027100	15.331492
342.537903	937.514587	4225.642090	1490.466064	16.816607
342.906830	948.892151	4273.428223	1460.884399	15.400412
343.275757	992.127075	4421.336914	1429.027100	12.740544
343.644684	969.371887	4537.388672	1469.986450	14.030611
344.013550	944.341125	4541.939453	1442.680176	13.851993
344.382355	960.269775	4628.409180	1533.701050	15.632756
344.751129	985.300537	4894.645020	1531.425537	13.969733
345.119873	887.453125	4990.217285	1604.242188	17.470881
345.488586	1012.606750	5217.769043	1683.885376	15.963204
345.857269	992.127075	5415.739746	1620.170776	14.197529
346.225891	926.136963	5443.045898	1663.405762	16.322418
346.594482	955.718750	5484.005371	1626.997314	14.824119
346.963043	907.932800	5374.780273	1656.579102	16.760059
347.331543	885.177612	5208.666992	1556.456177	15.526315
347.700043	942.065613	5058.482910	1531.425537	14.317302
348.068512	992.127075	5024.350098	1545.078613	13.713317
348.436951	878.351013	4887.818848	1667.956787	19.693531
348.805328	1005.780212	4628.409180	1597.415649	16.331659
349.173645	957.994263	4612.480469	1501.843750	14.881695
349.541931	946.616638	4592.000977	1497.292725	15.106119
349.910217	912.483826	4783.144531	1581.486938	17.283951
350.278473	939.790100	4940.155762	1481.364014	13.538110
350.646667	901.106262	4935.604492	1661.130127	18.838125
351.014801	932.963501	5019.798828	1558.731689	15.311803
351.382935	1012.606750	4880.992188	1590.588989	14.941175
351.751007	964.820801	4965.186523	1626.997314	16.552900
352.119049	914.759338	4962.910645	1645.201538	18.043846
352.487091	957.994263	4987.941406	1624.721802	16.544325
352.855072	948.892151	5063.033691	1624.721802	16.426991
353.222992	957.994263	5154.054688	1570.109375	14.587852
353.590881	953.443237	5160.881348	1738.497925	18.658735
353.958740	912.483826	5449.872559	1711.191650	17.602808
354.326599	887.453125	5481.729492	1729.395752	18.325903
354.694397	882.902100	5809.404785	1738.497925	17.367205
355.062134	912.483826	5784.374023	1738.497925	16.954695
355.429840	878.351013	5707.006348	1829.518677	19.698397
355.797516	946.616638	5970.966797	1904.610962	19.067030
356.165192	896.555176	6157.559082	1815.865601	17.474049
356.532776	892.004150	6303.192383	1895.508789	18.544994
356.900360	967.096313	6435.172852	1922.815063	17.478151
357.267883	976.198425	6426.070801	2004.733887	18.872650
357.635376	978.473938	6906.205566	2043.417725	17.965454
358.002808	960.269775	7277.115723	2232.285889	20.136887
358.370270	964.820801	7568.382324	2195.877686	18.642317
358.737640	937.514587	7561.555664	2161.744873	18.481623
359.105011	905.657288	7302.146484	2107.132324	18.783352
359.472321	926.136963	6967.644531	1968.325439	17.250469
359.839569	978.473938	6837.939941	2077.550537	18.757284
360.206787	921.585938	6915.307617	2066.172852	19.096432
360.574005	907.932800	7170.166016	2134.438477	19.585754
360.941193	873.799988	7390.891602	2211.806152	20.530724
361.308319	887.453125	8055.343750	2220.908203	18.603172
361.675415	944.341125	8335.232422	2355.164063	19.088673
362.042450	932.963501	8831.295898	2507.624023	19.936621
362.409424	971.647400	9766.535156	2671.461426	19.327295
362.776428	898.830688	9736.953125	2753.380127	20.983524
363.143402	901.106262	9163.522461	2646.430664	21.123657
363.510284	978.473938	8594.641602	2521.277100	20.256950
363.877136	971.647400	7727.668457	2393.847900	21.050859
364.243988	937.514587	7384.064941	2252.765625	20.402399
364.610779	894.279663	6935.787598	2216.357178	21.883238
364.977539	905.657288	6712.786133	2211.806152	22.492163
365.344269	983.024963	6717.337402	2184.500000	20.952383
365.710938	926.136963	6544.397949	2225.459229	23.126770
366.077576	937.514587	6505.713867	2159.469238	21.945238
366.444183	866.973450	6355.529785	2168.571289	23.714760
366.810760	1001.229126	6332.774414	2034.315552	19.376865
367.177277	998.953613	6530.744629	2150.367188	20.814480
367.543823	894.279663	6564.877441	2141.265137	21.990372
367.910248	930.687988	6469.305664	2166.295898	22.308958
368.276642	928.412476	6328.223145	2220.908203	23.935946
368.643036	939.790100	6305.468262	2154.918213	22.646311
369.009399	885.177612	6214.447266	2116.234375	23.099916
369.375671	892.004150	6000.548340	2157.193604	24.766146
369.741974	951.167725	6168.937012	2152.642578	23.026598
370.108215	923.861450	6089.293457	2200.428711	24.713659
370.474396	910.208313	6066.538574	2230.010498	25.595768
370.840546	932.963501	5993.721680	2168.571289	24.415468
371.206665	994.402588	6200.793945	2339.235352	25.830420
371.572784	955.718750	6289.539551	2282.347412	24.872015
371.938843	935.239075	6485.234375	2296.000488	24.518246
372.304840	905.657288	6705.959961	2311.929199	24.244802
372.670807	957.994263	6305.468262	2500.797363	28.851063
373.036713	1017.157776	6530.744629	2407.500977	25.216675
373.402649	930.687988	6441.999512	2305.102539	24.938066
373.768524	942.065613	6360.080566	2412.052002	27.131454
374.134308	987.576050	6430.621582	2430.256104	26.505016
374.500122	944.341125	6487.509766	2537.205811	28.735636
374.865875	962.545288	6521.642578	2537.205811	28.325832
375.231567	962.545288	6482.958984	2507.624023	27.988461
375.597260	905.657288	6721.888672	2575.889648	28.716745
375.962891	946.616638	6874.348145	2691.941162	29.443380
376.328461	932.963501	6919.858887	2716.971924	29.798555
376.694031	960.269775	7229.329590	2735.176025	28.312160
377.059540	887.453125	7563.831055	2887.635986	29.959103
377.425049	964.820801	7793.658691	3005.962891	29.890036
377.790497	978.473938	8005.282227	3003.687500	28.821245
378.155945	960.269775	8260.140625	3030.993652	28.366581
378.521301	873.799988	8112.231445	3203.933350	32.191135
378.886597	901.106262	7937.016602	3067.402100	30.789135
379.251892	957.994263	7613.892578	3053.749023	31.487183
379.617157	976.198425	7299.870605	3024.167236	32.385750
379.982422	978.473938	7047.288086	2914.942139	31.908512
380.347595	973.922913	7104.175781	2830.747803	30.289532
380.712738	903.381775	7076.869629	2939.972900	32.989311
381.077820	985.300537	7258.911133	3030.993652	32.607910
381.442902	898.830688	7022.257324	2967.279053	33.779259
381.807953	989.851563	7124.655762	3076.504150	34.013351
382.172974	928.412476	6958.542480	3110.636963	36.188683
382.537933	939.790100	6953.991699	2914.942139	32.841469
382.902832	898.830688	6899.378906	3176.626953	37.959805
383.267700	914.759338	7256.635742	3217.586426	36.311447
383.632538	944.341125	7308.972656	3304.056152	37.075439
383.997345	948.892151	7479.636719	3238.066162	35.052269
384.362152	953.443237	7893.781738	3470.169189	36.262295
384.726898	930.687988	7588.861816	3515.679688	38.824333
385.091553	953.443237	7745.873047	3638.557861	39.530991
385.456238	973.922913	7638.923340	3652.210938	40.184364
385.820862	987.576050	7750.423828	3602.149414	38.660831
386.185425	889.728638	7579.759766	3684.068115	41.768703
386.549988	1005.780212	7736.770508	3788.742188	41.345505
386.914490	1005.780212	7921.087891	3857.007813	41.230667
387.278961	1010.331238	8046.241699	3970.783691	42.076321
387.643372	857.871338	7987.078125	3925.273438	43.025852
388.007782	912.483826	8053.068359	4130.070313	45.060547
388.372101	930.687988	8196.425781	4157.376465	44.409645
388.736450	983.024963	8089.476563	4257.499512	46.077492
389.100739	971.647400	8175.946289	4262.050293	45.672771
389.464966	892.004150	7996.180176	4259.774902	47.405510
389.829163	841.942688	7802.760742	4419.061523	51.389347
390.193329	912.483826	7714.015625	4389.479492	51.120773
390.557495	969.371887	7896.057129	4532.837402	51.445469
390.921570	1010.331238	8134.986816	4587.449707	50.207596
391.285614	937.514587	8200.976563	4803.624512	53.226822
391.649597	873.799988	8842.673828	5140.401367	53.540833
392.013550	944.341125	9313.707031	5570.475098	55.274601
392.377502	978.473938	9325.083984	5463.525391	53.735001
392.741455	964.820801	9393.349609	5697.904297	56.155510
393.105316	898.830688	9432.034180	5661.495605	55.813332
393.469086	983.024963	9020.164063	5497.658203	56.172142
393.832886	942.065613	8824.469727	5622.812012	59.382217
394.196655	973.922913	9006.511719	5829.884277	60.453255
394.560333	853.320313	9195.379883	5684.250977	57.910526
394.924042	878.351013	9391.074219	6273.610840	63.378773
395.287659	948.892151	9290.951172	6269.059570	63.775234
395.651245	1001.229126	9409.278320	6198.518555	61.813267
396.014771	898.830688	8956.450195	6134.804199	64.981644
396.378296	928.412476	8460.386719	5948.211426	66.646523
396.741791	921.585938	8303.375000	6052.885254	69.512947
397.105255	930.687988	8353.436523	5943.660156	67.535255
397.468628	983.024963	8155.466797	6116.600098	71.573601
397.832001	955.718750	8128.160156	5893.598633	68.845177
398.195313	951.167725	8132.711426	6209.896484	73.225601
398.558624	937.514587	8353.436523	6469.305664	74.593437
398.921844	917.034912	8266.966797	6271.335449	72.848305
399.285095	903.381775	8419.426758	6501.163086	74.477753
399.648254	887.453125	8458.110352	6494.336426	74.060722
400.011383	912.483826	8346.610352	6560.326660	75.971840
400.374451	912.483826	8119.058105	6599.010254	78.907486
400.737549	939.790100	8567.335938	6726.439453	75.865150
401.100586	882.902100	8018.935547	6771.949707	82.525513
401.463562	921.585938	8246.487305	6835.664551	80.739365
401.826508	928.412476	8451.284180	7192.921387	83.272842
402.189392	983.024963	8137.262207	6828.837891	81.711197
402.552246	971.647400	8330.681641	6851.593262	79.901054
402.915070	855.595825	8367.089844	7195.196777	84.398666
403.277893	948.892151	8756.204102	7397.718262	82.599823
403.640656	985.300537	8758.479492	7527.422852	84.162766
404.003326	907.932800	9031.541992	7914.261230	86.246498
404.366028	946.616638	9131.665039	7916.537109	85.154297
404.728699	955.718750	9582.217773	8414.875977	86.467957
405.091248	1003.504700	9750.606445	8788.061523	88.995842
405.453857	942.065613	9789.290039	8674.285156	87.397125
405.816345	983.024963	9832.525391	8355.711914	83.311905
406.178833	882.902100	9834.800781	8687.938477	87.188614
406.541260	1008.055725	9841.627930	8860.877930	88.897469
406.903687	992.127075	9680.065430	8530.927734	86.773186
407.266052	967.096313	9213.583984	8362.539063	89.679916
407.628387	1028.535400	9163.522461	8444.458008	91.160843
407.990662	955.718750	9170.348633	8175.946289	87.894737
408.352905	896.555176	9163.522461	8489.967773	91.852463
408.715118	914.759338	9256.818359	8414.875977	89.907265
409.077332	937.514587	8901.836914	8462.662109	94.485725
409.439484	914.759338	9197.655273	8592.366211	92.692307
409.801575	898.830688	9347.839844	8712.968750	92.485855
410.163605	980.749451	9466.166992	8651.530273	90.399567
410.525635	989.851563	9618.625977	9063.399414	93.565407
410.887604	912.483826	9702.820313	9254.542969	94.900337
411.249573	892.004150	9655.035156	9290.951172	95.845230
411.611481	948.892151	9689.167969	9115.736328	93.439209
411.973328	921.585938	9347.839844	9047.470703	96.435318
412.335144	976.198425	9457.064453	9081.603516	95.572845
412.696930	973.922913	9411.553711	9065.674805	95.900757
413.058685	939.790100	9611.799805	9011.062500	93.072685
413.420410	919.310425	9470.717773	8888.184570	93.187866
413.782104	889.728638	9591.320313	9111.185547	94.482216
414.143707	912.483826	9645.932617	9122.562500	94.007294
414.505310	882.902100	9709.647461	9209.032227	94.328430
414.866852	930.687988	9862.107422	9327.359375	94.012733
415.228394	921.585938	9748.331055	9561.738281	97.886055
415.589874	948.892151	10046.424805	9418.380859	93.096542
415.951324	951.167725	10230.741211	9748.331055	94.801376
416.312683	935.239075	10326.313477	10041.873047	96.971161
416.674072	1046.739624	10745.008789	10390.028320	96.339752
417.035370	923.861450	10838.305664	10424.161133	95.822815
417.396667	942.065613	11159.154297	10836.030273	96.837418
417.757935	951.167725	11131.847656	10972.561523	98.435410
418.119141	880.626526	11607.431641	11316.165039	97.284683
418.480286	896.555176	11741.687500	11734.860352	99.937042
418.841400	882.902100	12503.986328	11957.861328	95.300568
419.202484	946.616638	12779.325195	12460.751953	97.307693
419.563568	957.994263	13320.898438	12854.416992	96.226768
419.924591	973.922913	14374.464844	13687.257813	94.871796
420.285553	957.994263	14201.525391	13826.064453	97.164948
420.646484	996.678101	15457.613281	14763.579102	95.200630
421.007355	960.269775	15459.888672	15227.785156	98.399246
421.368225	946.616638	16247.218750	16042.421875	98.661514
421.729065	912.483826	16852.507813	16310.933594	96.602425
422.089874	942.065613	17362.224609	16684.119141	95.870293
422.450592	930.687988	17107.365234	16499.800781	96.244194
422.811279	937.514587	17086.884766	16360.994141	95.505142
423.171936	960.269775	16920.773438	16590.822266	97.932701
423.532593	1017.157776	16888.916016	16167.575195	95.455193
423.893127	953.443237	17055.029297	16470.218750	96.367996
424.253723	930.687988	17330.367188	16672.740234	95.989998
424.614197	996.678101	16875.261719	16574.892578	98.108337
424.974670	948.892151	17899.246094	17080.058594	95.167137
425.335052	919.310425	18165.482422	17330.367188	95.157677
425.695496	923.861450	16827.476563	16415.607422	97.410217
426.055817	928.412476	17532.888672	16604.474609	94.408653
426.416168	944.341125	17125.570313	16515.730469	96.231186
426.776398	889.728638	16201.708008	15409.827148	94.828354
427.136627	989.851563	15475.817383	14863.702148	95.774429
427.496826	998.953613	15198.203125	14786.333984	97.099358
427.856995	962.545288	14620.220703	14090.024414	96.117958
428.217102	873.799988	13951.217773	13630.369141	97.546547
428.577179	932.963501	13871.575195	13780.553711	99.296516
428.937195	905.657288	13673.604492	13632.645508	99.679207
429.297180	944.341125	13259.459961	12847.590820	96.655579
429.657135	937.514587	13168.438477	12924.958008	98.009308
430.017059	905.657288	13539.348633	13009.152344	95.803314
430.376984	869.248962	13245.806641	12674.650391	95.385178
430.736786	1003.504700	13063.764648	12647.344727	96.547173
431.096588	885.177612	12936.335938	12392.486328	95.487160
431.456360	967.096313	12949.989258	12558.599609	96.733765
431.816071	907.932800	12788.426758	12021.576172	93.545296
432.175781	955.718750	12906.753906	12260.505859	94.592537
432.535400	860.146851	12949.989258	12467.578125	96.009781
432.895020	930.687988	12893.100586	12337.874023	95.358574
433.254578	996.678101	12865.794922	12745.192383	98.983894
433.614105	907.932800	13391.439453	12811.181641	95.351807
433.973602	960.269775	13612.165039	13050.111328	95.557556
434.333038	951.167725	13621.267578	12934.060547	94.576149
434.692444	1026.259888	13430.124023	13004.601563	96.569435
435.051819	998.953613	13714.563477	13325.450195	96.939880
435.411133	917.034912	13723.666016	13213.949219	96.019897
435.770416	923.861450	13132.030273	12865.794922	97.819206
436.129669	962.545288	13684.982422	13516.593750	98.676445
436.488861	989.851563	13427.848633	12847.590820	95.334801
436.848083	989.851563	13662.226563	12708.783203	92.476204
437.207184	996.678101	13605.338867	13000.050781	95.199425
437.566254	978.473938	13837.442383	13450.603516	96.991684
437.925293	939.790100	13546.175781	13304.969727	98.086639
438.284363	955.718750	13644.022461	13557.552734	99.318512
438.643311	953.443237	14151.463867	13439.225586	94.603447
439.002258	866.973450	14372.189453	13746.420898	95.366470
439.361145	914.759338	14747.650391	14144.637695	95.640732
439.719971	948.892151	15084.427734	14353.985352	94.832581
440.078827	892.004150	15307.428711	14886.457031	97.079712
440.437592	985.300537	15739.777344	14947.896484	94.632942
440.796295	942.065613	16017.390625	15509.950195	96.633965
441.155029	998.953613	17264.376953	16015.115234	92.319527
441.513672	928.412476	17243.896484	16763.761719	97.057182
441.872253	878.351013	17064.130859	16467.943359	96.316597
442.230865	903.381775	16638.607422	15933.196289	95.516991
442.589386	944.341125	16777.414063	15853.553711	94.164993
442.947876	928.412476	16597.648438	15769.359375	94.713913
443.306335	894.279663	15971.880859	15635.103516	97.766373
443.664764	962.545288	15471.265625	14911.488281	96.141785
444.023102	921.585938	15612.348633	15175.448242	97.026016
444.381500	921.585938	15607.796875	15189.101563	97.149055
444.739777	955.718750	15573.664063	15223.234375	97.602745
445.098022	951.167725	16090.208008	15234.611328	94.348412
445.456238	930.687988	15876.308594	15723.848633	98.979897
445.814423	921.585938	16679.568359	16087.931641	96.245476
446.172577	937.514587	17330.367188	17034.548828	98.195435
446.530701	930.687988	17437.316406	17089.162109	97.890823
446.888733	962.545288	17799.123047	17389.529297	97.567238
447.246765	967.096313	18898.201172	18145.001953	95.799484
447.604736	957.994263	18215.544922	17116.466797	93.631317
447.962677	894.279663	18741.189453	17714.929688	94.249649
448.320587	935.239075	18732.087891	18001.644531	95.895660
448.678436	989.851563	18361.177734	17571.572266	95.454544
449.036255	996.678101	17869.664063	17350.845703	96.925156
449.394043	926.136963	16852.507813	16269.973633	96.342331
449.751770	939.790100	17264.376953	16310.933594	94.159462
450.109467	1008.055725	16652.261719	15990.084961	95.767273
450.467163	951.167725	16424.708984	16172.125977	98.367645
450.824768	948.892151	16411.056641	16008.289063	97.395142
451.182343	923.861450	16126.616211	15828.522461	98.039215
451.539886	937.514587	15573.664063	14768.129883	94.496269
451.897369	1017.157776	15889.961914	15100.356445	94.690941
452.254822	898.830688	15393.898438	15186.826172	98.571426
452.612274	942.065613	16176.677734	15296.050781	94.219566
452.969635	919.310425	15978.707031	15302.876953	95.512238
453.326965	921.585938	15942.298828	15325.632813	95.894562
453.684326	914.759338	15562.287109	15025.263672	96.333694
454.041534	942.065613	15245.989258	14747.650391	96.516068
454.398773	967.096313	14900.110352	14276.617188	95.525063
454.755951	976.198425	14602.016602	14174.218750	96.860390
455.113098	980.749451	14247.036133	13355.031250	93.276154
455.470215	1001.229126	14390.393555	14010.381836	97.161797
455.827240	930.687988	14363.086914	13898.880859	96.544136
456.184265	996.678101	13764.625000	13750.972656	99.893074
456.541260	935.239075	14162.841797	13646.297852	96.094955
456.898193	926.136963	14181.045898	13587.134766	95.519310
457.255096	910.208313	14274.341797	13898.880859	97.190536
457.611969	880.626526	14208.351563	13603.063477	95.458427
457.968781	953.443237	14347.158203	13632.645508	94.665314
458.325531	976.198425	14460.934570	14121.881836	97.485657
458.682312	989.851563	15207.305664	14963.825195	98.287453
459.039001	953.443237	15837.625000	15473.541016	97.553886
459.395630	951.167725	16599.923828	15976.431641	96.015709
459.752289	996.678101	18215.544922	17139.222656	93.749168
460.108856	955.718750	19514.867188	18775.322266	96.015198
460.465363	932.963501	19967.695313	19091.619141	95.397484
460.821899	948.892151	20136.083984	18902.751953	93.572105
461.178345	951.167725	19271.384766	18604.658203	96.360703
461.534760	964.820801	19114.375000	18397.585938	96.050652
461.891144	905.657288	18195.064453	17004.966797	93.116615
462.247467	960.269775	17105.089844	16372.372070	95.461594
462.603760	951.167725	16891.191406	16529.382813	97.730186
462.960052	894.279663	16115.238281	15680.614258	97.144569
463.316254	914.759338	15644.205078	14997.958008	95.612549
463.672424	967.096313	15300.601563	14900.110352	97.205910
464.028564	914.759338	14902.385742	14299.373047	95.688957
464.384644	942.065613	15022.988281	14226.555664	94.343887
464.740723	873.799988	15170.897461	14652.078125	96.371155
465.096741	896.555176	14872.803711	14358.536133	96.320419
465.452698	951.167725	14683.935547	14262.964844	96.934555
465.808655	1053.566162	14777.232422	14351.709961	96.899353
466.164520	928.412476	14647.527344	14228.832031	96.948090
466.520355	921.585938	15398.449219	15154.968750	98.318138
466.876190	937.514587	16094.758789	15286.949219	94.670471
467.231964	926.136963	15555.459961	15061.671875	96.624672
467.587677	960.269775	16208.535156	15521.327148	95.493202
467.943390	1003.504700	16279.076172	15935.472656	97.750633
468.299011	898.830688	15819.420898	15048.019531	94.829956
468.654633	939.790100	15619.174805	15107.182617	96.512169
469.010223	896.555176	15587.317383	15150.417969	97.026031
469.365723	969.371887	15123.111328	14743.099609	97.315117
469.721191	964.820801	15491.746094	14747.650391	94.877815
470.076660	964.820801	14708.966797	14115.055664	95.678802
470.432068	946.616638	15002.508789	14588.364258	97.053589
470.787445	905.657288	14918.314453	14315.301758	95.696655
471.142792	862.422363	14668.006836	14112.780273	95.978249
471.498016	955.718750	15191.376953	14749.925781	96.898979
471.853271	939.790100	15054.845703	14456.383789	95.760117
472.208496	957.994263	15111.733398	14481.414063	95.546623
472.563660	951.167725	15412.102539	14622.497070	94.539734
472.918762	969.371887	15521.327148	14840.946289	95.324471
473.273865	907.932800	15751.155273	15314.254883	97.056564
473.628876	907.932800	16433.810547	15632.828125	94.840988
473.983917	912.483826	16206.258789	15626.000977	96.205925
474.338837	942.065613	16169.850586	15398.449219	94.934250
474.693787	971.647400	16137.993164	15717.022461	97.224312
475.048645	1028.535400	15742.052734	15284.672852	96.891434
475.403503	880.626526	16213.085938	15846.726563	97.610565
475.758270	923.861450	16454.291016	16037.871094	97.318687
476.113037	971.647400	16313.208984	15742.052734	96.277069
476.467773	987.576050	16820.650391	16258.595703	96.450119
476.822418	996.678101	17623.908203	16970.833984	96.072258
477.177063	955.718750	17312.162109	16599.923828	95.645515
477.531647	923.861450	17673.970703	16959.457031	95.734276
477.886200	992.127075	18115.421875	17314.437500	95.322250
478.240723	971.647400	18568.250000	17862.837891	95.991203
478.595184	923.861450	18800.353516	18126.798828	96.232178
478.949585	923.861450	19319.171875	18488.607422	95.484909
479.303986	960.269775	19457.978516	18502.259766	94.833313
479.658325	1026.259888	19442.048828	18893.648438	97.022118
480.012634	930.687988	19603.611328	18945.986328	96.478188
480.366913	951.167725	20386.390625	19576.304688	95.831863
480.721130	989.851563	20914.312500	19630.917969	93.558701
481.075317	912.483826	21253.365234	20190.695313	94.775696
481.429474	919.310425	22197.705078	21558.283203	96.994972
481.783569	889.728638	23358.220703	22948.626953	98.177032
482.137604	969.371887	24639.339844	23724.580078	96.135361
482.491669	955.718750	26657.726563	25795.304688	96.644531
482.845612	921.585938	29668.240234	28375.744141	95.503838
483.199554	967.096313	33365.960938	31950.587891	95.631409
483.553436	926.136963	38749.843750	38096.769531	98.273376
483.907318	994.402588	46288.644531	44188.339844	95.362976
484.261139	973.922913	52205.000000	50423.265625	96.522163
484.614899	944.341125	54667.113281	53112.929688	97.107033
484.968628	912.483826	54116.437500	52409.796875	96.792267
485.322357	969.371887	51265.207031	49886.242188	97.258293
485.675964	885.177612	47594.792969	45674.253906	95.888344
486.029572	928.412476	43378.253906	42235.941406	97.309029
486.383148	948.892151	40620.320313	38968.292969	95.835724
486.736694	903.381775	38790.804688	37179.734375	95.747742
487.090149	946.616638	39154.886719	37696.277344	96.182480
487.443604	919.310425	40167.492188	38428.996094	95.570503
487.796997	873.799988	42199.535156	40567.984375	96.051971
488.150360	973.922913	43610.355469	41976.531250	96.168007
488.503693	939.790100	43660.417969	42015.214844	96.148926
488.856964	989.851563	42836.679688	40954.824219	95.502991
489.210175	996.678101	40602.117188	38813.558594	95.484055
489.563416	946.616638	38014.851563	36549.414063	96.046646
489.916565	967.096313	35768.910156	34446.832031	96.201126
490.269653	1053.566162	33482.011719	31982.445313	95.375771
490.622772	951.167725	32835.765625	31099.542969	94.554665
490.975769	882.902100	32824.386719	31292.962891	95.205536
491.328735	976.198425	34474.140625	32919.960938	95.360374
491.681732	892.004150	36585.824219	34663.007813	94.613029
492.034607	989.851563	38167.308594	36915.773438	96.633621
492.387482	967.096313	39232.253906	37389.082031	95.183159
492.740326	901.106262	38372.105469	35937.300781	93.502159
493.093079	957.994263	36462.945313	34428.628906	94.270332
493.445862	930.687988	32983.675781	31149.603516	94.278000
493.798523	921.585938	30585.275391	29165.349609	95.213249
494.151215	846.493713	28170.947266	27010.431641	95.752831
494.503815	917.034912	26241.306641	24791.798828	94.276215
494.856384	898.830688	24477.777344	23476.548828	95.753716
495.208923	955.718750	23940.753906	22677.839844	94.505493
495.561432	919.310425	23201.210938	21970.154297	94.475082
495.913879	973.922913	22336.511719	21556.007813	96.346397
496.266296	1003.504700	23110.189453	22095.306641	95.409157
496.618683	946.616638	23171.628906	22022.490234	94.829529
496.970978	946.616638	23879.314453	22652.810547	94.651726
497.323273	894.279663	23672.242188	22880.361328	96.523476
497.675507	964.820801	24120.519531	22868.984375	94.595131
498.027710	948.892151	24172.857422	22950.902344	94.738388
498.379852	921.585938	23870.212891	22702.871094	94.913239
498.731995	921.585938	23221.689453	22352.441406	96.102043
499.084076	928.412476	22894.015625	21845.000000	95.224281
499.436096	957.994263	22841.677734	21719.845703	94.873657
499.788086	921.585938	22238.664063	21310.251953	95.644753
500.140106	1035.361938	21908.714844	20916.587891	95.246918
500.491943	912.483826	21476.365234	20570.708984	95.595886
500.843842	923.861450	21305.701172	20331.779297	95.221619
501.195679	980.749451	20584.361328	19790.205078	95.948929
501.547455	873.799988	20231.656250	19303.242188	95.203941
501.899231	1001.229126	19924.460938	19098.445313	95.634911
502.250885	864.697876	19995.001953	19282.763672	96.276909
502.602600	1014.882263	19715.111328	18852.689453	95.388176
502.954193	892.004150	19863.021484	19091.619141	95.933784
503.305786	942.065613	19844.816406	19023.353516	95.654266
503.657379	948.892151	20204.349609	19257.732422	95.083900
504.008820	1035.361938	19876.673828	18993.771484	95.314011
504.360291	957.994263	20349.982422	19248.630859	94.320587
504.711700	907.932800	20288.542969	19273.662109	94.763420
505.063080	942.065613	20538.851563	19469.355469	94.542496
505.414368	973.922913	20459.207031	19244.080078	93.763870
505.765656	994.402588	20136.083984	19030.179688	94.222534
506.116943	926.136963	20179.318359	19241.804688	95.130608
506.468109	1003.504700	20111.052734	18654.718750	92.378227
506.819305	1001.229126	19776.550781	18934.609375	95.515701
507.170410	923.861450	19837.990234	19096.169922	96.077957
507.521484	976.198425	19913.082031	18991.496094	95.133385
507.872559	964.820801	20115.603516	19011.976563	94.237167
508.223480	912.483826	20415.972656	19121.201172	93.361336
508.574493	985.300537	20450.105469	19699.183594	96.142159
508.925385	901.106262	20764.126953	19890.328125	95.600876
509.276245	983.024963	21073.597656	19951.765625	94.416130
509.627045	985.300537	21235.160156	20108.777344	94.437576
509.977814	948.892151	21576.488281	20354.533203	94.076118
510.328613	953.443237	21649.304688	20543.402344	94.656410
510.679260	1026.259888	21840.449219	20677.658203	94.413467
511.029999	962.545288	22029.316406	20716.341797	93.767555
511.380585	985.300537	22309.205078	20993.955078	93.832039
511.731140	983.024963	22473.042969	21041.740234	93.339684
512.081726	969.371887	22609.574219	21030.363281	92.702423
512.432129	889.728638	22730.177734	21533.253906	94.519691
512.782654	992.127075	23114.740234	21626.548828	93.272987
513.133057	935.239075	22909.943359	21371.691406	92.999901
513.483398	892.004150	22725.626953	21285.220703	93.402809
513.833801	937.514587	22859.882813	21647.029297	94.467506
514.183960	898.830688	22532.207031	21285.220703	94.235825
514.534302	994.402588	22338.787109	21282.945313	95.053307
514.884460	932.963501	22400.226563	20861.974609	92.834427
515.234619	871.524475	22211.359375	20925.689453	93.975258
515.584717	928.412476	22099.857422	20952.996094	94.582977
515.934753	921.585938	22395.675781	20971.199219	93.366531
516.284851	953.443237	22493.523438	21408.099609	94.960915
516.634766	903.381775	22816.646484	21483.191406	93.914848
516.984741	885.177612	22711.972656	21997.458984	96.726440
517.334595	896.555176	23606.251953	22206.806641	93.837677
517.684448	1005.780212	24593.828125	22955.453125	93.054214
518.034363	1012.606750	25588.230469	24154.652344	94.166664
518.384094	901.106262	26298.193359	24903.298828	94.507660
518.733826	946.616638	27722.669922	25861.292969	93.048355
519.083496	901.106262	28175.498047	26423.347656	93.575844
519.433167	932.963501	28450.835938	26559.878906	93.128258
519.782776	980.749451	27954.773438	26516.644531	94.668465
520.132324	892.004150	27854.650391	25767.998047	92.260948
520.481873	919.310425	27131.035156	25474.455078	93.680000
520.831299	903.381775	26502.990234	24737.187500	93.102226
521.180786	905.657288	25560.925781	24177.408203	94.388550
521.530151	998.953613	25533.619141	23715.478516	92.589500
521.879517	957.994263	25080.791016	23360.496094	92.868591
522.228882	928.412476	24575.625000	23412.833984	95.082756
522.578064	955.718750	24891.921875	23239.894531	93.098206
522.927307	894.279663	24814.554688	23337.742188	93.826103
523.276489	969.371887	24725.808594	23394.628906	94.396553
523.625610	980.749451	25042.105469	23537.986328	93.748817
523.974792	930.687988	25433.496094	23915.722656	93.805717
524.323792	905.657288	25990.998047	24561.970703	94.303337
524.672852	896.555176	26853.421875	25117.199219	93.311127
525.021790	964.820801	27781.833984	25808.957031	92.643188
525.370728	907.932800	28746.654297	27187.921875	94.400848
525.719604	939.790100	30480.601563	28719.347656	94.037895
526.068420	957.994263	32041.609375	30275.804688	94.319176
526.417297	980.749451	33274.941406	31368.054688	94.095261
526.765991	905.657288	34094.128906	32319.222656	94.652031
527.114746	951.167725	35347.941406	33325.003906	94.118813
527.463379	973.922913	36383.300781	34246.589844	93.965691
527.812012	951.167725	38768.046875	36381.027344	93.687950
528.160706	998.953613	42026.593750	39696.460938	94.320580
528.509155	948.892151	46812.015625	44161.031250	94.219788
528.857727	946.616638	51590.609375	48573.265625	94.042053
529.206177	955.718750	54471.417969	51583.781250	94.604134
529.554565	955.718750	54412.253906	52057.089844	95.594246
529.902893	971.647400	53010.531250	49949.957031	94.118675
530.251221	910.208313	49868.039063	47303.527344	94.761795
530.599548	901.106262	45956.417969	43257.652344	94.010109
530.947876	930.687988	42479.421875	39976.347656	93.975571
531.296021	955.718750	39432.500000	36783.792969	93.116089
531.644165	942.065613	36918.050781	34631.152344	93.643265
531.992249	946.616638	35259.195313	33083.796875	93.660057
532.340454	948.892151	34246.589844	31936.933594	93.063614
532.688354	955.718750	34417.253906	32681.029297	94.811279
533.036438	953.443237	35850.832031	33591.238281	93.525032
533.384338	948.892151	37823.707031	35891.789063	94.760872
533.732239	882.902100	39896.707031	37416.386719	93.642456
534.080139	987.576050	40165.218750	38203.718750	94.993317
534.427917	976.198425	39487.113281	37022.722656	93.600800
534.775757	907.932800	37568.847656	35379.796875	94.028923
535.123474	901.106262	35800.769531	33482.011719	93.355934
535.471191	896.555176	34123.710938	31620.636719	92.466782
535.818848	901.106262	32644.621094	30532.937500	93.347672
536.166382	957.994263	32000.648438	29841.179688	93.043541
536.513977	962.545288	31848.189453	29902.619141	93.700729
536.861511	1008.055725	32558.152344	30212.089844	92.564011
537.208984	971.647400	32373.833984	30346.345703	93.543480
537.556396	885.177612	32442.099609	30116.517578	92.630516
537.903809	939.790100	31304.339844	29279.126953	93.330338
538.251160	944.341125	30808.275391	28764.859375	93.157578
538.598389	953.443237	29247.269531	27263.015625	92.986969
538.945740	905.657288	28630.603516	26377.837891	91.874588
539.292969	905.657288	28175.498047	25981.896484	91.955940
539.640137	910.208313	28091.304688	25852.191406	91.762238
539.987244	955.718750	28177.773438	26209.449219	92.769379
540.334351	939.790100	28826.296875	27185.646484	94.116684
540.681458	964.820801	30853.787109	28801.267578	93.132851
541.028442	951.167725	33766.453125	31475.003906	93.017128
541.375366	905.657288	37179.734375	34754.027344	93.312836
541.722290	951.167725	39869.398438	37484.652344	93.872421
542.069153	948.892151	41678.437500	38661.097656	92.591766
542.416016	917.034912	41632.929688	38683.855469	92.756943
542.762756	932.963501	40044.613281	37566.574219	93.664192
543.109558	887.453125	38617.863281	36233.117188	93.679512
543.456299	937.514587	37439.144531	34747.203125	92.625145
543.802917	921.585938	35916.820313	33158.890625	92.119125
544.149536	903.381775	34207.902344	31802.679688	92.778091
544.496094	953.443237	31763.994141	29777.464844	93.552437
544.842651	928.412476	30214.365234	28252.867188	93.302254
545.189148	992.127075	28510.000000	26832.941406	93.905563
545.535583	935.239075	27916.089844	26279.990234	93.936073
545.882019	926.136963	27299.423828	25574.578125	93.459877
546.228333	1010.331238	26939.890625	24891.921875	92.101799
546.574707	978.473938	27046.839844	25310.617188	93.339737
546.920898	910.208313	27144.687500	25519.964844	93.806915
547.267212	903.381775	27272.117188	25440.322266	93.053154
547.613342	910.208313	27005.880859	25012.525391	92.361359
547.959473	976.198425	26309.572266	24532.390625	92.984818
548.305664	994.402588	25727.039063	24038.601563	93.173241
548.651611	962.545288	24448.195313	22807.544922	93.014244
548.997742	935.239075	23883.867188	22002.009766	91.799698
549.343689	973.922913	22737.003906	20939.341797	91.739853
549.689575	894.279663	21719.845703	20236.207031	92.875877
550.035522	930.687988	21178.271484	19637.744141	92.391548
550.381287	917.034912	20429.625000	19057.486328	92.967934
550.727173	976.198425	19888.052734	18597.832031	93.177711
551.072876	898.830688	19462.529297	18304.289063	93.760727
551.418640	887.453125	19505.763672	18224.646484	93.119049
551.764282	885.177612	19291.865234	18149.554688	93.794044
552.109863	960.269775	19510.314453	18245.125000	93.179588
552.455505	898.830688	19694.632813	17924.277344	90.581116
552.801025	964.820801	19910.806641	18229.197266	91.124191
553.146545	930.687988	20411.421875	18666.097656	91.040771
553.491943	973.922913	20447.830078	18666.097656	90.850670
553.837341	926.136963	20445.554688	18927.781250	92.224289
554.182800	901.106262	19794.755859	18679.750000	94.098518
554.528015	978.473938	19428.396484	18395.310547	94.400597
554.873352	998.953613	19050.660156	17810.501953	93.129967
555.218628	1014.882263	19157.609375	17589.775391	91.358330
555.563721	887.453125	18595.556641	17410.009766	93.305061
555.908875	903.381775	18445.371094	17007.242188	91.801788
556.254028	935.239075	18147.279297	16804.720703	92.199883
556.599121	914.759338	18131.349609	16795.619141	92.241608
556.944031	951.167725	17751.337891	16456.566406	92.293106
557.289063	914.759338	17762.714844	16492.974609	92.463531
557.633972	978.473938	17557.917969	15951.400391	90.310188
557.978882	935.239075	17387.253906	16065.176758	91.964035
558.323792	964.820801	17503.306641	16137.993164	91.744621
558.668518	996.678101	17362.224609	15978.707031	91.546158
559.013306	978.473938	17232.519531	15960.502930	92.174156
559.358032	960.269775	17346.294922	15812.593750	90.640190
559.702637	901.106262	17141.498047	15926.370117	92.517868
560.047363	953.443237	17055.029297	15737.501953	91.817406
560.391846	930.687988	17284.855469	15874.033203	91.373314
560.736450	960.269775	16902.568359	15783.012695	92.977455
561.080933	892.004150	17373.601563	15830.797852	90.639236
561.425354	987.576050	17450.968750	15999.186523	91.181755
561.769775	944.341125	17655.765625	15942.298828	89.746742
562.114136	923.861450	17519.234375	16401.953125	93.267517
562.458496	921.585938	17596.601563	16069.727539	90.843346
562.802673	894.279663	17548.816406	16074.279297	91.146332
563.146912	953.443237	17400.908203	16060.625977	91.851135
563.491150	942.065613	17430.490234	15994.635742	91.291748
563.835266	960.269775	17255.273438	15812.593750	91.146492
564.179443	1012.606750	17389.529297	15971.880859	91.343620
564.523438	964.820801	16954.906250	15871.757813	93.226128
564.867493	905.657288	17353.121094	15919.543945	91.283905
565.211426	901.106262	17519.234375	16308.657227	92.715317
565.555359	901.106262	17412.285156	16333.688477	93.467468
565.899231	937.514587	17899.246094	16688.669922	92.862892
566.243042	948.892151	18572.800781	17241.621094	92.446739
566.586914	983.024963	18734.363281	17603.429688	93.629021
566.930603	962.545288	19460.253906	17774.093750	90.884491
567.274292	937.514587	19391.988281	17771.818359	91.220718
567.617981	946.616638	19494.386719	17972.062500	91.792412
567.961609	971.647400	18788.974609	17669.419922	93.716484
568.305237	898.830688	18518.187500	17139.222656	92.173576
568.648682	919.310425	18563.699219	17152.875000	92.004120
568.992188	860.146851	18031.226563	16731.904297	92.433075
569.335632	926.136963	18172.308594	16386.025391	89.642433
569.679016	942.065613	17947.033203	16524.832031	91.636559
570.022461	960.269775	17956.134766	16194.881836	89.637169
570.365662	942.065613	18076.736328	16492.974609	90.756981
570.708984	887.453125	17917.451172	16492.974609	91.635483
571.052185	935.239075	18033.501953	16781.966797	92.680328
571.395386	951.167725	18245.125000	16993.589844	92.763168
571.738525	951.167725	18748.015625	17198.386719	91.292679
572.081604	880.626526	19159.884766	17685.347656	91.933273
572.424683	923.861450	19605.886719	17764.990234	90.146164
572.767578	946.616638	19428.396484	18013.023438	92.341789
573.110596	985.300537	19640.019531	17951.583984	90.949013
573.453552	964.820801	19580.857422	17730.857422	90.062332
573.796387	896.555176	19237.251953	17507.857422	90.570724
574.139282	939.790100	19041.558594	17710.378906	92.646133
574.481995	928.412476	19112.099609	17111.916016	89.000122
574.824768	866.973450	18445.371094	17082.333984	92.245949
575.167480	946.616638	18668.373047	17111.916016	91.217255
575.510132	946.616638	18543.218750	17032.273438	91.413429
575.852722	921.585938	18854.964844	16993.589844	89.620613
576.195251	937.514587	18206.441406	16645.435547	90.960602
576.537842	923.861450	18019.849609	16722.802734	92.413147
576.880188	946.616638	17881.042969	16317.759766	90.768616
577.222717	978.473938	17498.755859	16069.727539	91.349861
577.565063	930.687988	17478.275391	15534.980469	88.256325
577.907410	978.473938	16711.423828	15428.031250	91.842644
578.249756	978.473938	16597.648438	15057.121094	90.136948
578.591919	1017.157776	16360.994141	14806.813477	89.870979
578.934204	973.922913	15908.166016	14385.842773	89.806496
579.276306	955.718750	15471.265625	14276.617188	91.769867
579.618469	955.718750	15232.335938	13885.227539	90.564232
579.960571	996.678101	14959.273438	13830.615234	91.916557
580.302551	967.096313	14765.854492	13484.736328	90.715698
580.644531	1023.984375	14865.977539	13443.777344	89.725464
580.986511	935.239075	14490.516602	13416.470703	92.076546
581.328369	917.034912	14590.639648	13193.469727	89.781990
581.670227	901.106262	14265.240234	13054.663086	90.941597
582.012024	928.412476	14358.536133	13291.317383	92.053543
582.353821	907.932800	14253.862305	13102.449219	91.372551
582.695496	907.932800	14313.025391	13004.601563	90.239349
583.037231	962.545288	14112.780273	12786.151367	89.911751
583.378845	942.065613	14090.024414	13097.897461	92.454140
583.720398	944.341125	14260.688477	12701.957031	88.294601
584.062012	864.697876	13769.176758	12428.894531	89.613823
584.403442	923.861450	14051.340820	12538.119141	88.472870
584.744934	969.371887	13823.789063	12469.853516	89.467155
585.086365	1003.504700	13721.390625	12617.762695	91.322235
585.427734	942.065613	13632.645508	12306.016602	89.546349
585.768982	1033.086426	13928.462891	12426.619141	88.353630
586.110291	1005.780212	13796.482422	12351.527344	88.703079
586.451599	951.167725	13443.777344	12381.108398	91.493622
586.792725	955.718750	13578.032227	12474.405273	91.256538
587.133850	937.514587	13646.297852	12540.395508	91.298126
587.474915	951.167725	13823.789063	12622.313477	90.666428
587.815979	976.198425	13521.144531	12615.487305	92.780701
588.157043	1012.606750	13737.319336	12660.998047	91.541489
588.497925	987.576050	13732.767578	12708.783203	91.965721
588.838867	989.851563	14071.820313	12565.425781	88.484955
589.179749	923.861450	14117.331055	12674.650391	89.065193
589.520569	869.248962	14037.687500	12936.335938	91.636429
589.861450	951.167725	14003.554688	13111.550781	93.165970
590.202087	942.065613	14429.077148	13120.653320	90.298637
590.542847	892.004150	14212.903320	13118.376953	91.783386
590.883484	960.269775	14376.740234	13323.173828	92.147217
591.224121	912.483826	14053.616211	12833.937500	90.718620
591.564636	987.576050	14365.363281	12990.948242	89.726143
591.905151	921.585938	14060.443359	12777.048828	90.232071
592.245667	903.381775	13871.575195	12783.875977	91.612564
592.585999	928.412476	13805.584961	12654.170898	91.058487
592.926453	1008.055725	13518.869141	12517.639648	91.997086
593.266724	946.616638	13805.584961	12503.986328	89.877892
593.607056	1026.259888	13655.400391	12503.986328	90.882881
593.947388	967.096313	13958.044922	12620.038086	89.700470
594.287476	889.728638	13771.452148	12554.047852	90.549370
594.627686	967.096313	14210.626953	12754.293945	89.003441
594.967773	969.371887	14353.985352	13041.009766	90.190414
595.307861	948.892151	14383.567383	13248.082031	91.548096
595.647888	976.198425	14394.944336	13041.009766	89.910126
595.987854	892.004150	14724.895508	13236.704102	89.241646
596.327820	953.443237	14788.609375	13630.369141	91.628288
596.667725	885.177612	14986.580078	13887.503906	92.205910
597.007568	946.616638	15919.543945	14404.046875	89.878418
597.347351	912.483826	16158.473633	14695.313477	90.402985
597.687073	969.371887	16611.302734	15116.285156	90.442245
598.026794	1010.331238	16474.771484	14765.854492	88.949379
598.366455	942.065613	16087.931641	14433.628906	89.077530
598.706116	937.514587	15332.458984	13946.666992	90.373062
599.045654	985.300537	15057.121094	13750.972656	90.717987
599.385193	944.341125	14408.597656	13079.693359	90.130135
599.724731	878.351013	14058.167969	12711.059570	89.779007
600.064087	957.994263	13955.769531	12542.670898	89.128151
600.403564	957.994263	13575.756836	12467.578125	91.217316
600.742920	930.687988	13248.082031	11932.831055	89.321999
601.082153	953.443237	13111.550781	12076.188477	91.484184
601.421387	992.127075	13307.246094	11800.850586	87.767921
601.760620	964.820801	13179.816406	11728.034180	88.114746
602.099854	962.545288	13136.582031	12010.199219	90.747665
602.438843	871.524475	13095.622070	11864.565430	89.929260
602.778015	894.279663	13694.083984	12098.944336	87.537781
603.117065	960.269775	13830.615234	12331.046875	88.348656
603.456055	937.514587	13923.912109	12683.752930	90.450325
603.794983	967.096313	14342.607422	13095.622070	90.677101
604.133850	914.759338	14943.344727	13655.400391	90.819145
604.472778	983.024963	15682.889648	13896.605469	87.848297
604.811584	917.034912	16056.075195	14422.250977	89.207878
605.150330	880.626526	16454.291016	14520.098633	87.580360
605.489075	930.687988	16552.138672	14829.569336	88.973045
605.827698	907.932800	16367.821289	14718.068359	89.328819
606.166382	935.239075	16219.912109	14306.199219	87.479530
606.504883	989.851563	15744.328125	14244.759766	89.836517
606.843445	957.994263	15161.794922	13616.716797	89.122078
607.181946	964.820801	14624.772461	13273.113281	90.104958
607.520386	921.585938	14292.545898	12818.008789	88.972092
607.858826	944.341125	13898.880859	12538.119141	89.495872
608.197083	873.799988	13757.798828	12344.700195	89.032143
608.535461	923.861450	13434.674805	12271.883789	90.705711
608.873718	992.127075	13675.879883	12437.997070	90.240402
609.211914	937.514587	14017.208008	12554.047852	88.813499
609.550171	910.208313	14442.730469	12781.600586	87.724907
609.888245	889.728638	14863.702148	13047.835938	87.005371
610.226318	960.269775	14854.599609	13564.379883	90.714058
610.564392	951.167725	15280.122070	13566.655273	88.041924
610.902344	926.136963	14586.087891	13598.512695	92.770287
611.240295	957.994263	14840.946289	13632.645508	91.296516
611.578247	998.953613	14435.904297	13172.990234	90.601189
611.916138	855.595825	14237.933594	13138.857422	91.787117
612.253845	937.514587	13930.738281	12695.130859	90.490372
612.591675	917.034912	13318.623047	12244.577148	91.339447
612.929382	960.269775	12990.948242	12128.525391	92.831467
613.267090	948.892151	12554.047852	11844.085938	93.882355
613.604736	898.830688	12645.069336	11407.185547	89.461449
613.942261	939.790100	12324.220703	11368.501953	91.605034
614.279785	942.065613	12269.608398	10904.295898	87.946968
614.617310	894.279663	11962.413086	10870.163086	90.131577
614.954712	976.198425	11809.953125	10849.683594	91.136322
615.292175	905.657288	11894.147461	10499.252930	87.305855
615.629517	935.239075	11805.402344	10717.703125	89.993721
615.966797	880.626526	11714.380859	10610.753906	89.813072
616.304138	907.932800	11611.982422	10708.600586	91.560371
616.641296	921.585938	11773.544922	10653.988281	89.683365
616.978516	962.545288	11759.891602	10608.477539	89.336136
617.315552	932.963501	11577.849609	10362.721680	88.584869
617.652771	1033.086426	11671.146484	10462.844727	88.641701
617.989685	944.341125	11916.902344	10647.162109	88.428040
618.326721	901.106262	11530.063477	10556.140625	90.837082
618.663696	912.483826	11491.379883	10542.488281	91.030334
619.000549	957.994263	11566.472656	10542.488281	90.347488
619.337463	930.687988	11746.238281	10403.680664	87.586777
619.674194	932.963501	11382.155273	10519.732422	91.746513
620.010986	985.300537	11377.604492	10426.436523	90.847382
620.347778	992.127075	11461.797852	10376.375000	89.632690
620.684387	976.198425	11475.451172	10269.425781	88.513229
621.020996	1053.566162	11338.919922	10035.046875	87.323013
621.357605	992.127075	11425.389648	10112.414063	87.415482
621.694214	976.198425	11470.900391	10094.209961	86.882042
622.030579	951.167725	11250.174805	10044.148438	88.289879
622.367065	923.861450	11077.235352	9959.954102	88.995964
622.703430	942.065613	11068.132813	9893.964844	88.404503
623.039795	926.136963	11218.317383	10085.108398	88.989609
623.376160	1008.055725	11040.827148	10082.833008	90.451347
623.712402	907.932800	10797.346680	9680.065430	88.702248
624.048645	946.616638	10906.571289	9873.484375	89.627594
624.384766	942.065613	10963.458984	9832.525391	88.714806
624.720886	1012.606750	10824.652344	10082.833008	92.439705
625.057007	953.443237	11284.307617	10053.250977	88.083702
625.392944	953.443237	11159.154297	9843.903320	87.112595
625.729004	948.892151	11288.858398	10085.108398	88.358276
626.064941	978.473938	11466.349609	10242.119141	88.327187
626.400818	994.402588	11737.136719	10547.039063	88.921837
626.736633	935.239075	11730.309570	10551.589844	89.080948
627.072449	953.443237	11746.238281	10788.244141	91.123764
627.408264	969.371887	11900.973633	10840.581055	90.299751
627.743896	971.647400	12085.291016	11031.724609	90.520065
628.079590	937.514587	12119.423828	10861.060547	88.746437
628.415161	946.616638	11976.066406	10635.784180	87.848152
628.750793	912.483826	11885.044922	10722.253906	89.402740
629.086365	957.994263	11755.340820	10258.047852	86.132767
629.421753	955.718750	11514.135742	10071.455078	86.336205
629.757263	973.922913	11313.889648	9957.678711	86.883797
630.092651	962.545288	11022.623047	9918.995117	89.029625
630.427917	976.198425	10958.908203	9918.995117	89.582855
630.763184	969.371887	10979.387695	9871.208984	88.929298
631.098511	841.942688	10779.141602	9630.003906	88.435997
631.433716	896.555176	10526.559570	9693.718750	91.351616
631.768799	901.106262	10456.018555	9441.135742	89.378418
632.103943	923.861450	10499.252930	9354.666016	88.046577
632.438965	969.371887	10371.824219	9074.777344	86.205231
632.773987	967.096313	10066.904297	9152.144531	89.947487
633.109070	939.790100	10192.057617	9038.368164	87.530739
633.443848	935.239075	10096.485352	8992.858398	87.953308
633.778870	926.136963	10137.445313	9124.838867	89.006920
634.113708	1035.361938	10522.007813	9197.655273	86.039825
634.448425	930.687988	10358.170898	9011.062500	85.710838
634.783264	960.269775	10296.731445	9184.001953	88.081894
635.117859	942.065613	10201.160156	8979.205078	86.802650
635.452576	973.922913	10303.558594	8949.623047	85.487801
635.787170	976.198425	9925.821289	8785.786133	87.261642
636.121704	953.443237	10178.404297	8835.847656	85.446480
636.456177	907.932800	9652.758789	8765.305664	89.851677
636.790588	892.004150	9896.240234	8699.316406	86.707100
637.125122	962.545288	9630.003906	8474.039063	86.663155
637.459412	901.106262	9545.809570	8569.611328	88.707558
637.793762	973.922913	9472.993164	8221.457031	85.274437
638.128052	887.453125	9356.941406	8389.844727	88.581406
638.462280	928.412476	9341.012695	8153.190918	85.880440
638.796509	978.473938	9031.541992	7943.843262	86.493362
639.130615	960.269775	9129.389648	8112.231445	87.548744
639.464722	919.310425	8735.724609	7955.220703	90.014549
639.798767	937.514587	9074.777344	8139.538086	88.506706
640.132751	892.004150	8883.632813	7900.608398	87.699326
640.466736	866.973450	8769.857422	7880.128418	88.741714
640.800598	980.749451	8644.703125	7973.424805	91.241096
641.134521	967.096313	8619.672852	7795.934082	89.235802
641.468262	898.830688	8601.468750	7834.618164	90.044312
641.802063	948.892151	8644.703125	7641.198730	86.960381
642.135803	939.790100	8678.835938	7757.250488	88.091743
642.469421	951.167725	8512.723633	7714.015625	89.437256
642.803101	964.820801	8282.895508	7677.607422	91.728859
643.136658	937.514587	8346.610352	7570.657715	89.527023
643.470215	998.953613	8519.549805	7516.045410	86.656586
643.803711	912.483826	8419.426758	7306.697266	85.177330
644.137085	994.402588	8467.212891	7607.065918	88.489639
644.470581	914.759338	8510.448242	7427.299805	85.739960
644.803833	973.922913	8298.824219	7470.534668	88.692139
645.137207	919.310425	8303.375000	7516.045410	89.337448
645.470459	953.443237	8385.293945	7320.350586	85.670547
645.803589	1003.504700	8196.425781	7245.258301	86.776337
646.136780	971.647400	8464.937500	7374.962891	85.453995
646.469849	964.820801	8130.436035	7406.820313	89.901558
646.802979	917.034912	8449.008789	7304.421875	84.803627
647.135986	939.790100	8282.895508	7436.401855	88.472267
647.468994	939.790100	8307.926758	7516.045410	89.252625
647.801941	944.341125	8239.661133	7431.851074	88.927010
648.134766	976.198425	8571.886719	7302.146484	83.283409
648.467651	885.177612	8474.039063	7484.187988	86.956528
648.800354	926.136963	8282.895508	7463.708008	88.864830
649.133179	914.759338	8198.701172	7418.197754	89.284599
649.465881	932.963501	8203.252930	7411.371094	89.107971
649.798462	957.994263	8237.385742	7488.738770	89.715530
650.131104	912.483826	8414.875977	7311.248535	85.289658
650.463623	937.514587	8412.600586	7365.860840	85.996956
650.796143	973.922913	8373.916992	7302.146484	85.516602
651.128662	962.545288	8471.763672	7438.677734	86.242432
651.461060	953.443237	8376.192383	7415.922363	87.063148
651.793396	914.759338	8360.263672	7536.524902	88.936424
652.125732	921.585938	8344.334961	7354.483398	86.664619
652.458008	967.096313	8137.262207	7440.953125	90.288803
652.790222	957.994263	8517.274414	7422.749023	85.520775
653.122437	885.177612	8271.518555	7454.605957	88.940224
653.454529	971.647400	8289.722656	7343.105469	87.064667
653.786621	896.555176	8276.069336	7431.851074	88.559975
654.118713	937.514587	8173.670898	7188.370117	86.383644
654.450623	917.034912	8091.751953	7040.461426	85.347298
654.782654	926.136963	8214.629883	7188.370117	85.919449
655.114502	903.381775	7993.904785	7063.216797	86.874199
655.446350	973.922913	7930.189941	7085.971680	87.863914
655.778198	953.443237	8100.854004	7070.042969	85.577843
656.109863	962.545288	7939.291992	7165.615234	88.910637
656.441650	978.473938	7859.648926	6981.297852	87.235451
656.773254	901.106262	7741.321777	7040.461426	89.753830
657.104919	921.585938	8000.730957	7115.553711	87.495987
657.436462	939.790100	7798.209961	7070.042969	89.382874
657.767944	923.861450	7998.455566	7208.850098	88.838860
658.099548	917.034912	7996.180176	7268.013672	89.713913
658.430908	955.718750	8228.283203	7502.392090	90.018776
658.762268	914.759338	8378.467773	7536.524902	88.719513
659.093628	928.412476	8692.489258	7650.300781	86.576790
659.424927	862.422363	8733.449219	7886.955078	89.245445
659.756226	942.065613	9247.716797	8155.466797	86.849312
660.087341	992.127075	9161.247070	8332.957031	89.860718
660.418518	923.861450	9270.471680	8342.059570	88.876778
660.749573	912.483826	9193.104492	8169.119629	87.633957
661.080627	957.994263	9172.624023	8289.722656	89.252083
661.411621	912.483826	9040.644531	8023.486328	87.486000
661.742554	907.932800	8690.213867	8068.996582	92.017540
662.073547	923.861450	8542.304688	7547.902344	86.947433
662.404297	994.402588	8398.947266	7541.076172	88.414261
662.735229	926.136963	8312.477539	7277.115723	85.982742
663.065979	957.994263	8073.547852	7281.666504	88.871124
663.396667	932.963501	8014.384277	6965.369141	85.186378
663.727417	976.198425	7641.198730	6926.685547	89.279625
664.057922	935.239075	7668.504883	6808.358398	87.225418
664.388611	869.248962	7579.759766	6630.867676	85.859612
664.719116	928.412476	7575.208984	6503.438477	83.875381
665.049622	969.371887	7388.616211	6558.050781	87.061317
665.380005	996.678101	7306.697266	6478.407715	86.873421
665.710388	885.177612	7379.514160	6401.040039	84.933426
666.040771	971.647400	7245.258301	6612.663574	89.916580
666.371033	930.687988	7320.350586	6394.213379	85.505692
666.701294	930.687988	7117.829102	6467.030273	89.481430
667.031555	939.790100	7145.135254	6369.182617	87.495415
667.361633	919.310425	7402.269043	6589.908203	87.469292
667.691772	889.728638	7445.503906	6412.417480	84.241585
668.021790	857.871338	7249.809082	6378.284668	86.365257
668.351807	926.136963	7249.809082	6507.989258	88.269165
668.681763	969.371887	7233.880859	6369.182617	86.196869
669.011719	901.106262	7318.074707	6350.978516	84.929077
669.341614	942.065613	7268.013672	6398.764648	86.258995
669.671387	932.963501	7258.911133	6398.764648	86.402885
670.001221	967.096313	7293.043945	6696.857910	90.575546
670.330933	928.412476	7295.319824	6560.326660	88.456039
670.660583	896.555176	7172.441406	6521.642578	89.630165
670.990173	905.657288	7131.482422	6487.509766	89.656425
671.319763	889.728638	7026.808105	6203.069824	86.577682
671.649292	937.514587	7060.940918	6389.662598	89.037537
671.978821	1001.229126	7115.553711	6294.090332	86.564934
672.308289	964.820801	6933.511719	6298.641602	89.363327
672.637695	989.851563	6938.062988	6073.365234	85.462898
672.966980	946.616638	7017.706055	6282.712891	87.893555
673.296326	914.759338	6926.685547	6234.926758	88.493561
673.625610	926.136963	6915.307617	6225.824707	88.487831
673.954773	914.759338	6856.144043	5909.527344	84.067406
674.283936	960.269775	6737.816895	5941.384766	86.215057
674.613037	921.585938	6744.643555	6059.711914	88.237595
674.942078	919.310425	6694.582031	5948.211426	87.076439
675.271118	932.963501	6765.123535	5911.803223	85.368706
675.600098	869.248962	6690.031250	5884.496582	86.161057
675.928955	912.483826	6594.459473	5868.568359	87.224670
676.257813	919.310425	6605.836914	5902.701172	87.635056
676.586670	978.473938	6649.071777	5904.976563	86.878014
676.915466	921.585938	6530.744629	5904.976563	88.843819
677.244141	955.718750	6498.887207	5889.047852	88.998360
677.572876	953.443237	6569.428711	5945.936035	88.897896
677.901489	957.994263	6592.183594	5936.833984	88.368340
678.230042	932.963501	6562.602051	5907.251953	88.358932
678.558594	951.167725	6585.357422	6000.548340	89.620361
678.887085	942.065613	6796.980469	5952.762207	85.581032
679.215515	917.034912	6703.684082	5955.038086	87.062523
679.543945	969.371887	6862.970703	6116.600098	87.335907
679.872253	912.483826	6915.307617	6109.773438	86.580750
680.200562	907.932800	7001.777344	6162.110352	86.221062
680.528809	917.034912	7277.115723	6168.937012	82.576027
680.856995	960.269775	7347.656738	6539.846680	87.353050
681.185120	951.167725	7404.544922	6553.500000	86.812408
681.513306	866.973450	7327.176758	6382.835938	85.382179
681.841309	914.759338	7356.758789	6421.519531	85.482162
682.169373	996.678101	7204.298828	6410.142090	87.206741
682.497314	928.412476	7381.789551	6373.733887	84.379410
682.825134	957.994263	7170.166016	6264.508789	85.421249
683.153076	946.616638	7022.257324	6205.345215	86.554306
683.480896	928.412476	7090.522949	6153.008301	84.785820
683.808655	969.371887	6928.960938	6091.569336	85.948837
684.136414	873.799988	6767.398926	5927.731445	85.752892
684.464050	960.269775	6571.704102	5884.496582	87.753433
684.791626	930.687988	6507.989258	5707.006348	85.638519
685.119263	1001.229126	6546.673340	5697.904297	84.694298
685.446838	912.483826	6558.050781	5829.884277	87.101974
685.774292	980.749451	6362.355957	5615.985352	86.131081
686.101685	960.269775	6287.264160	5618.260742	87.441269
686.429077	957.994263	6241.753418	5504.484863	86.046516
686.756348	937.514587	6407.866699	5511.311523	83.610649
687.083679	962.545288	6223.549316	5650.118164	89.100349
687.410950	896.555176	6275.886230	5595.505859	87.351952
687.738159	1001.229126	6259.957520	5666.046875	88.706192
688.065308	992.127075	6207.620605	5545.444336	87.303673
688.392395	921.585938	6366.907227	5549.995117	84.997910
688.719421	926.136963	6544.397949	5611.434082	83.394081
689.046448	1014.882263	6296.366211	5504.484863	85.006462
689.373413	919.310425	6262.233398	5520.413574	86.115845
689.700317	962.545288	6184.865723	5586.403809	88.540306
690.027100	978.473938	6100.671387	5529.515625	88.849396
690.353943	882.902100	6036.956543	5281.483887	85.342171
690.680725	935.239075	5986.895020	5281.483887	86.036041
691.007446	930.687988	5980.068848	5290.585938	86.345200
691.334106	964.820801	5970.966797	5163.156738	83.863632
691.660645	960.269775	5875.394531	5288.310547	88.055565
691.987244	983.024963	5752.516602	4981.115234	83.826340
692.313721	955.718750	5775.271973	5006.145996	84.041550
692.640259	973.922913	5597.781250	5056.207031	88.287399
692.966675	907.932800	5647.842773	4944.706543	85.165619
693.293030	832.840637	5606.883301	4799.073242	83.079124
693.619324	857.871338	5590.954590	4862.788086	84.615395
693.945618	996.678101	5470.352051	4842.308105	85.961342
694.271851	944.341125	5361.126953	4862.788086	88.717163
694.598083	901.106262	5593.229980	4876.440918	84.723572
694.924194	871.524475	5454.423340	4846.859375	86.742805
695.250244	894.279663	5538.617676	4692.124023	81.773643
695.576294	960.269775	5440.770020	4669.368652	82.783150
695.902283	855.595825	5443.045898	4887.818848	87.896828
696.228210	962.545288	5356.576172	4821.828613	87.830139
696.554138	923.861450	5402.086426	4833.206055	87.296745
696.879944	894.279663	5584.127930	4890.094238	85.201363
697.205750	903.381775	5593.229980	4835.481934	83.842804
697.531433	962.545288	5750.241211	5067.584961	85.741447
697.857178	971.647400	5798.026855	5144.952637	86.468651
698.182739	962.545288	5889.047852	5381.606934	89.699776
698.508423	971.647400	6232.651367	5406.637207	84.299309
698.833984	985.300537	6385.111328	5452.147949	82.722305
699.159485	978.473938	6710.510742	5955.038086	86.820168
699.484924	960.269775	6769.674316	6043.783203	87.504906
699.810303	960.269775	6935.787598	5957.313477	83.625290
700.135681	953.443237	6851.593262	6068.813965	86.728394
700.460999	987.576050	6774.225586	5775.271973	82.736923
700.786255	1001.229126	6505.713867	5788.924805	86.978088
701.111450	998.953613	6485.234375	5524.964355	82.496887
701.436646	889.728638	6271.335449	5472.627441	85.158562
701.761719	889.728638	6011.925781	5288.310547	85.872955
702.086792	1044.463989	5916.354004	5053.931641	82.297989
702.411865	919.310425	5700.179688	4953.808594	84.388382
702.736816	978.473938	5456.698730	4803.624512	85.416679
703.061646	1001.229126	5413.463867	4801.349121	86.126877
703.386536	948.892151	5210.942871	4714.878906	88.360909
703.711365	976.198425	5081.237793	4530.562012	86.585365
704.036194	885.177612	5019.798828	4450.918457	86.241051
704.360901	948.892151	4969.737305	4366.724609	85.002838
704.685547	994.402588	5115.370605	4485.051270	84.704582
705.010132	989.851563	4885.542969	4321.213867	85.514023
705.334717	1023.984375	4739.909668	4246.121582	86.711571
705.659302	903.381775	4810.451172	4239.295410	85.381477
705.983765	889.728638	4892.369629	4216.540039	83.115410
706.308228	892.004150	4883.267578	4350.795898	86.659073
706.632568	926.136963	4685.297363	4161.927734	86.077484
706.956909	935.239075	4796.797852	4282.530273	86.682381
707.281189	989.851563	4708.052734	4305.285156	89.167679
707.605408	980.749451	4667.093262	4271.152344	89.259254
707.929626	905.657288	4830.930664	4239.295410	84.927544
708.253784	1010.331238	4862.788086	4316.663086	85.823982
708.577820	951.167725	4783.144531	4171.029785	84.026138
708.901855	973.922913	4844.583984	4237.019531	84.303345
709.225830	921.585938	4855.961426	4291.632324	85.656448
709.549805	919.310425	4867.338867	4248.397461	84.322769
709.873718	837.391663	4849.134766	4205.162598	83.947823
710.197510	1028.535400	4824.104004	4284.805664	85.791367
710.521362	935.239075	4906.022949	4423.612305	87.850998
710.845093	964.820801	5088.064453	4423.612305	83.885208
711.168701	987.576050	5053.931641	4462.296387	85.450478
711.492432	948.892151	4985.666016	4257.499512	81.961670
711.816040	921.585938	4997.043457	4585.174316	89.893913
712.139587	942.065613	5138.125977	4475.949219	84.219078
712.463074	898.830688	5201.840332	4551.041504	84.875732
712.786499	937.514587	5065.309082	4526.010742	86.934952
713.109924	1001.229126	5065.309082	4473.673828	85.442329
713.433350	971.647400	5119.921875	4328.040527	80.910583
713.756592	921.585938	4960.635254	4416.785645	86.535210
714.079834	907.932800	4983.390625	4366.724609	84.868790
714.403015	973.922913	4744.460938	4275.703613	87.567894
714.726196	1001.229126	4953.808594	4252.948242	82.268280
715.049255	869.248962	4833.206055	4259.774902	85.533867
715.372375	905.657288	4735.358887	4243.846191	87.165771
715.695435	998.953613	4710.328125	4145.999023	84.794609
716.018311	967.096313	4774.042480	4218.815430	85.415421
716.341248	983.024963	4880.992188	4389.479492	87.390541
716.664063	946.616638	4769.491699	4284.805664	87.321426
716.987000	953.443237	4680.746094	4252.948242	88.522591
717.309692	864.697876	4744.460938	4155.101074	84.809387
717.632385	978.473938	4767.216309	4341.693848	88.768768
717.955078	937.514587	4571.521484	4171.029785	88.979332
718.277649	932.963501	4594.276367	4025.396240	84.462395
718.600220	983.024963	4505.531250	4059.529053	87.338501
718.922791	901.106262	4425.888184	3870.660889	84.247894
719.245300	971.647400	4441.816406	3795.568604	81.377052
719.567688	919.310425	4341.693848	3759.160400	82.978729
719.890015	912.483826	4177.855957	3775.089111	87.665512
720.212341	967.096313	4127.794922	3779.640137	88.984879
720.534607	928.412476	4080.008789	3699.996826	87.942245
720.856873	994.402588	4175.580566	3583.945313	81.402008
721.179016	937.514587	4114.141602	3586.220703	83.381088
721.501160	980.749451	4202.886719	3599.874023	81.285316
721.823242	905.657288	4027.671875	3490.648926	82.798836
722.145264	983.024963	3927.548828	3463.342773	84.234940
722.467224	971.647400	3932.099854	3495.199951	85.242126
722.789185	973.922913	3957.130615	3574.843262	87.185356
723.111023	921.585938	3838.803711	3406.454590	85.179405
723.432861	919.310425	3909.344727	3495.199951	86.149170
723.754578	973.922913	3932.099854	3445.138428	83.538460
724.076294	937.514587	3843.354736	3476.995850	87.392326
724.397949	960.269775	3779.640137	3374.597412	85.633575
724.719666	946.616638	3982.161377	3438.312012	82.083961
725.041260	892.004150	3731.854004	3381.423828	87.660255
725.362732	971.647400	3893.416016	3385.974854	82.632401
725.684265	912.483826	3920.722412	3451.965088	84.417549
726.005676	912.483826	3841.079102	3404.179199	85.081589
726.327087	912.483826	3829.701416	3465.618164	87.519501
726.648438	994.402588	3938.926514	3495.199951	84.930450
726.969666	969.371887	3943.477539	3363.219727	80.489670
727.290894	976.198425	3904.793701	3465.618164	85.003883
727.612061	978.473938	3936.650879	3399.628174	81.846161
727.933228	971.647400	4009.467773	3479.271240	82.546814
728.254395	903.381775	4070.906738	3515.679688	82.471268
728.575378	987.576050	4130.070313	3572.567627	82.259239
728.896301	957.994263	4034.498291	3620.353516	86.538467
729.217285	935.239075	4084.559814	3668.139648	86.777458
729.538147	912.483826	4093.661865	3504.302002	81.473534
729.858948	1033.086426	4084.559814	3558.914551	82.774048
730.179810	953.443237	4107.314941	3649.935303	85.497841
730.500549	980.749451	4159.651855	3556.638916	81.030785
730.821228	962.545288	4086.835449	3599.874023	84.413696
731.141846	942.065613	4098.212891	3597.598389	84.138428
731.462402	892.004150	4016.294189	3622.629150	87.399857
731.782898	921.585938	4193.784668	3654.486328	83.518776
732.103455	973.922913	4280.254395	3686.343750	82.037170
732.423889	955.718750	4166.478516	3736.405273	86.605247
732.744263	971.647400	4141.447754	3677.241699	85.355354
733.064636	921.585938	4186.958496	3599.874023	82.020905
733.384888	962.545288	4271.152344	3761.435791	84.594231
733.705200	942.065613	4248.397461	3734.129639	84.445969
734.025330	953.443237	4145.999023	3659.037354	84.746971
734.345520	923.861450	4280.254395	3565.741211	78.711876
734.665527	976.198425	4234.744141	3577.118652	79.818436
734.985596	923.861450	4082.284424	3690.894775	87.608070
735.305542	967.096313	3918.446777	3581.669678	88.589043
735.625549	953.443237	3882.038574	3381.423828	82.905975
735.945435	907.932800	3932.099854	3542.985840	87.133186
736.265259	964.820801	3861.558838	3381.423828	83.424980
736.585083	930.687988	3861.558838	3408.730225	84.549690
736.904785	937.514587	3759.160400	3456.516113	89.274193
737.224426	930.687988	3852.456787	3415.556641	85.046722
737.544128	944.341125	3752.333740	3260.821289	82.495949
737.863708	978.473938	3720.476563	3274.474365	83.734436
738.183289	905.657288	3695.445801	3333.637939	87.030991
738.502808	1003.504700	3777.364502	3265.372314	81.542244
738.822205	823.738525	3763.711426	3308.607178	84.520119
739.141541	971.647400	3841.079102	3438.312012	85.963524
739.460938	1010.331238	3918.446777	3420.107666	82.863846
739.780212	973.922913	3995.814453	3458.791504	82.228912
740.099426	960.269775	3913.895752	3390.525879	82.280426
740.418640	937.514587	3954.855225	3488.373291	84.539963
740.737793	921.585938	3845.630127	3495.199951	88.015564
741.056885	928.412476	3920.722412	3381.423828	81.977173
741.375977	946.616638	3845.630127	3315.433838	81.711151
741.694946	951.167725	3754.609375	3401.903564	87.418831
742.013855	928.412476	3718.200928	3272.198975	84.013054
742.332703	907.932800	3688.619141	3210.759766	82.815056
742.651550	905.657288	3606.700439	3253.994629	86.941864
742.970398	919.310425	3558.914551	3115.187988	83.189651
743.289124	892.004150	3606.700439	3115.187988	81.894386
743.607788	957.994263	3563.465576	3076.504150	81.310043
743.926453	935.239075	3470.169189	3188.004639	88.868942
744.245056	967.096313	3492.924316	3106.085938	84.684692
744.563599	985.300537	3417.832275	3046.922363	84.752106
744.882141	971.647400	3454.240479	2955.901611	79.926682
745.200500	907.932800	3438.312012	3108.361328	86.960426
745.518860	896.555176	3451.965088	2949.074951	80.320572
745.837219	919.310425	3517.955078	3005.962891	80.297722
746.155518	901.106262	3440.587402	3003.687500	82.795700
746.473755	919.310425	3411.005615	2914.942139	80.091324
746.791992	923.861450	3365.495361	3110.636963	89.561974
747.110107	964.820801	3370.046387	2953.625977	82.686844
747.428162	964.820801	3281.301025	2953.625977	85.854614
747.746216	919.310425	3445.138428	2958.177002	80.720718
748.064148	887.453125	3392.801514	3037.820313	85.831062
748.382080	930.687988	3322.260254	3028.718262	87.725983
748.700073	1008.055725	3417.832275	2990.034424	82.247406
749.017822	951.167725	3404.179199	2960.452637	81.910950
749.335632	1001.229126	3331.362549	2930.870850	82.812500
749.653320	939.790100	3438.312012	2921.768799	79.326050
749.971008	930.687988	3399.628174	2933.146240	81.105988
750.288696	948.892151	3385.974854	3015.064941	84.780579
750.606262	983.024963	3458.791504	2944.523926	79.227943
750.923828	921.585938	3349.566650	2919.493164	82.286781
751.241272	876.075500	3304.056152	2960.452637	85.848175
751.558716	946.616638	3358.668701	2944.523926	82.830193
751.876038	946.616638	3420.107666	2946.799316	80.864761
752.193481	951.167725	3354.117676	2867.156250	79.734848
752.510681	987.576050	3322.260254	2928.595215	83.138405
752.827942	992.127075	3326.811523	2773.859863	76.315781
753.145081	903.381775	3272.198975	2823.921387	81.075890
753.462219	937.514587	3263.096924	2980.932129	87.866920
753.779297	1001.229126	3226.688477	2885.360352	84.662575
754.096375	976.198425	3224.413086	3001.411865	90.080963
754.413330	973.922913	3210.759766	2894.462402	85.859612
754.730286	983.024963	3190.280273	2853.503174	84.742271
755.047119	953.443237	3137.943115	2883.084961	88.333336
755.363892	935.239075	3142.494141	2855.778564	87.010307
755.680725	983.024963	3162.973877	2798.890625	83.298546
755.997498	957.994263	3331.362549	2846.676514	79.578140
756.314148	962.545288	3267.647949	2844.401123	81.638702
756.630737	935.239075	3213.035400	3030.993652	92.007988
756.947327	946.616638	3192.555664	2689.665527	77.608917
757.263855	914.759338	3194.831299	2755.655762	80.738525
757.580261	910.208313	3096.983887	2760.206787	84.599373
757.896729	887.453125	3128.841064	2705.594238	81.116753
758.213074	989.851563	3228.964111	2794.339600	80.589432
758.529419	930.687988	3249.443604	2828.472412	81.844955
758.845642	910.208313	3199.382324	2914.942139	87.574547
759.161865	946.616638	3381.423828	2946.799316	82.149529
759.478149	967.096313	3367.770752	2946.799316	82.464455
759.794189	894.279663	3365.495361	2862.605225	79.650085
760.110229	957.994263	3322.260254	2769.308838	76.612129
760.426270	985.300537	3324.535889	2880.809326	81.031128
760.742249	917.034912	3329.086914	2917.217773	82.924530
761.058105	989.851563	3276.750000	2871.707275	82.288559
761.374023	955.718750	3354.117676	2951.350586	83.206833
761.689819	942.065613	3299.505127	2933.146240	84.459457
762.005554	930.687988	3351.842041	2903.564453	81.484962
762.321289	955.718750	3242.617188	2924.044189	86.069649
762.636902	948.892151	3290.403076	2903.564453	83.479103
762.952515	983.024963	3449.689453	2883.084961	77.029526
763.268127	946.616638	3463.342773	3124.290039	86.528023
763.583618	917.034912	3618.078125	3267.647949	87.026115
763.899048	962.545288	4036.773926	3508.853027	82.827530
764.214478	976.198425	4378.102051	3679.517090	79.464882
764.529785	973.922913	4696.674805	4009.467773	81.540352
764.845093	1033.086426	4796.797852	4243.846191	85.308342
765.160400	910.208313	4769.491699	4109.590332	82.900932
765.475586	971.647400	4541.939453	3932.099854	82.919052
765.790771	976.198425	4423.612305	3697.721191	78.943893
766.105835	960.269775	4262.050293	3581.669678	79.393524
766.420837	889.728638	3847.905762	3599.874023	91.615387
766.735840	932.963501	3845.630127	3360.944336	83.359390
767.050842	912.483826	3761.435791	3249.443604	82.028755
767.365662	939.790100	3583.945313	3122.014648	82.530121
767.680542	912.483826	3529.332764	2976.381104	78.869560
767.995300	894.279663	3470.169189	3058.300049	84.010605
768.309998	896.555176	3533.883789	2960.452637	78.257118
768.624817	853.320313	3461.067139	2912.666504	78.970329
768.939392	910.208313	3308.607178	2860.329590	81.309296
769.254028	937.514587	3310.882813	2823.921387	79.482262
769.568481	948.892151	3101.534912	2789.788574	85.517975
769.882935	914.759338	3108.361328	2839.849854	87.759338
770.197388	935.239075	3233.515137	2694.216553	76.534645
770.511841	932.963501	3256.270264	2687.390137	75.514206
770.826172	944.341125	3099.259277	2767.033203	84.582893
771.140442	892.004150	3112.912354	2650.981689	79.200821
771.454651	951.167725	2976.381104	2703.318604	86.516853
771.768860	946.616638	3083.330566	2685.114502	81.363152
772.082886	896.555176	2965.003662	2628.226563	83.718369
772.397034	973.922913	3005.962891	2528.103516	76.483765
772.711060	957.994263	2951.350586	2578.165039	81.278534
773.025024	887.453125	2994.585449	2676.012451	84.881203
773.338928	946.616638	2919.493164	2537.205811	80.622841
773.652771	923.861450	2805.717041	2575.889648	87.787193
773.966614	971.647400	2839.849854	2562.236328	85.140076
774.280457	955.718750	2848.952148	2482.593262	80.649040
774.594116	910.208313	2892.187012	2528.103516	81.630302
774.907776	887.453125	2805.717041	2496.246338	83.867149
775.221375	848.769287	2780.686523	2400.674561	80.329803
775.534912	953.443237	2746.553711	2541.756836	88.578682
775.848450	894.279663	2730.625000	2400.674561	82.032227
776.161926	967.096313	2748.829102	2416.603027	81.353767
776.475342	917.034912	2614.573486	2448.460449	90.214478
776.788696	946.616638	2771.584229	2361.990479	77.556107
777.101990	944.341125	2737.451416	2468.940186	85.025391
777.415283	971.647400	2737.451416	2346.062012	77.835060
777.728516	921.585938	2851.227539	2439.358398	78.655670
778.041626	967.096313	2616.848877	2487.144287	92.137939
778.354736	962.545288	2705.594238	2393.847900	82.114883
778.667725	951.167725	2723.798340	2459.837891	85.109108
778.980774	932.963501	2707.869873	2387.021240	81.923065
779.293640	921.585938	2694.216553	2296.000488	77.535301
779.606567	987.576050	2653.257324	2439.358398	87.158470
779.919434	967.096313	2721.522949	2409.776611	82.230873
780.232239	946.616638	2698.767578	2407.500977	83.376625
780.544983	907.932800	2744.278076	2300.551514	75.836433
780.857666	860.146851	2619.124512	2405.225586	87.839592
781.170227	953.443237	2707.869873	2314.204590	77.561600
781.482849	978.473938	2607.746826	2300.551514	81.145248
781.795410	976.198425	2519.001465	2314.204590	86.725662
782.107910	985.300537	2578.165039	2264.143311	80.285721
782.420288	944.341125	2498.521729	2282.347412	86.090782
782.732666	1008.055725	2591.818115	2257.316650	78.879318
783.044983	912.483826	2471.215576	2259.592041	86.423347
783.357300	948.892151	2550.858887	2207.255127	78.551132
783.669495	969.371887	2514.450439	2170.846924	77.761421
783.981689	914.759338	2623.675537	2209.530762	75.765648
784.293762	983.024963	2425.705078	2168.571289	82.176659
784.605835	923.861450	2539.481201	2220.908203	80.281685
784.917908	882.902100	2521.277100	2207.255127	80.833328
785.229858	905.657288	2464.388916	2164.020264	80.729935
785.541748	876.075500	2489.419678	2132.163086	77.856148
785.853577	967.096313	2434.807373	2168.571289	81.860458
786.165405	844.218201	2443.909424	2179.948975	83.499290
786.477173	953.443237	2503.072998	2148.091553	77.092499
786.788879	935.239075	2371.092773	2098.030273	80.982567
787.100525	967.096313	2396.123291	2129.887451	81.369431
787.412109	967.096313	2427.980713	2050.244141	74.143295
787.723694	1035.361938	2382.470215	2109.407715	79.729729
788.035156	921.585938	2450.735840	2141.265137	79.761909
788.346558	919.310425	2432.531738	2161.744873	82.105270
788.658081	985.300537	2459.837891	2138.989502	78.240746
788.969360	962.545288	2539.481201	2257.316650	82.106781
789.280640	971.647400	2580.440674	2330.133301	84.441299
789.591919	996.678101	2687.390137	2366.541748	81.022881
789.903076	937.514587	2712.420898	2366.541748	80.512825
790.214172	955.718750	2628.226563	2214.081787	75.238098
790.525269	967.096313	2528.103516	2236.836914	81.341110
790.836365	953.443237	2534.930176	2325.582275	86.762589
791.147339	983.024963	2473.491211	2252.765625	85.190834
791.458191	957.994263	2437.082764	2134.438477	79.538460
791.769104	957.994263	2402.949951	2186.775391	85.039368
792.079895	960.269775	2430.256104	2050.244141	74.148605
792.390686	892.004150	2412.052002	2070.723877	77.544907
792.701416	882.902100	2509.899414	2098.030273	74.685318
793.012085	944.341125	2289.173828	2136.714111	88.663292
793.322693	928.412476	2341.510986	2047.968750	79.227051
793.633240	973.922913	2327.857666	1993.356201	75.294121
793.943787	948.892151	2282.347412	2032.040039	81.228668
794.254272	944.341125	2266.418701	2002.458252	80.034424
794.564636	912.483826	2243.663574	1986.529663	80.683769
794.875000	967.096313	2371.092773	1988.805176	72.771469
795.185303	903.381775	2334.684326	2052.519775	80.286171
795.495544	937.514587	2175.397949	2002.458252	86.029404
795.805786	937.514587	2339.235352	2007.009399	76.298714
796.115906	994.402588	2368.817139	2025.213501	75.000000
796.426025	980.749451	2355.164063	2077.550537	79.801323
796.736023	971.647400	2352.888428	2079.825928	80.230637
797.045959	901.106262	2346.062012	2088.927979	82.204712
797.355896	921.585938	2264.143311	2245.938965	98.644058
797.665833	953.443237	2359.715088	2141.265137	84.466026
797.975708	955.718750	2364.266113	2116.234375	82.390953
798.285461	885.177612	2446.184814	2013.835938	72.303207
798.595154	903.381775	2323.306641	1954.672363	74.038467
798.904846	919.310425	2311.929199	2038.866699	80.392159
799.214478	930.687988	2298.276123	2113.958740	86.522446
799.524109	957.994263	2327.857666	2066.172852	80.897011
799.833557	1012.606750	2218.632813	2011.560425	82.830185
800.143005	942.065613	2220.908203	2018.386963	84.163712
800.452393	951.167725	2166.295898	1966.049927	83.520592
800.761780	869.248962	2189.051025	1968.325439	83.275856
801.071106	1003.504700	2277.796387	1963.774414	75.357132
801.380371	896.555176	2107.132324	1975.152100	89.097740
801.689575	917.034912	2152.642578	1929.641602	81.952118
801.998718	873.799988	2164.020264	2036.591064	90.123451
802.307800	919.310425	2104.856689	1909.161987	83.493286
802.616882	996.678101	2138.989502	1911.437500	80.079689
802.925903	946.616638	2216.357178	1915.988525	76.344093
803.234863	942.065613	2107.132324	1909.161987	83.007813
803.543701	892.004150	2204.979736	2007.009399	84.922012
803.852539	992.127075	2104.856689	1954.672363	86.503075
804.161316	944.341125	2050.244141	1904.610962	86.831284
804.470032	928.412476	2123.060791	1959.223389	86.285721
804.778809	944.341125	2143.540527	1813.590088	72.485771
805.087341	903.381775	2118.509766	1968.325439	87.640450
805.395935	926.136963	2170.846924	1918.264038	79.707489
805.704468	985.300537	2066.172852	1961.498901	90.315788
806.012939	969.371887	2086.652588	1818.141113	75.967407
806.321350	951.167725	2138.989502	1947.845825	83.908051
806.629761	937.514587	2161.744873	1895.508789	78.252785
806.938049	928.412476	2191.326416	1966.049927	82.162163
807.246277	896.555176	2195.877686	2007.009399	85.464096
807.554504	969.371887	2223.183838	1888.682251	73.321228
807.862671	1010.331238	2111.683350	1909.161987	81.611572
808.170715	948.892151	2209.530762	1875.029175	73.465698
808.478821	953.443237	2154.918213	1875.029175	76.704544
808.786804	1008.055725	2104.856689	1966.049927	87.344391
809.094727	953.443237	2068.448486	1952.396851	89.591827
809.402649	1019.433350	2134.438477	1941.019287	82.653069
809.710510	996.678101	2123.060791	1886.406738	78.989906
810.018311	996.678101	2134.438477	1911.437500	80.400002
810.326050	960.269775	2032.040039	1843.171875	82.377922
810.633667	930.687988	2107.132324	1793.110352	73.307533
810.941345	898.830688	2041.142212	1815.865601	80.278885
811.248901	914.759338	2054.795166	1886.406738	85.229546
811.556396	944.341125	1927.366089	1756.702026	82.638885
811.863892	955.718750	1993.356201	1770.355225	78.508774
812.171326	885.177612	1991.080688	1804.488037	83.127579
812.478699	969.371887	2025.213501	1761.253052	75.000000
812.786011	944.341125	1906.886475	1715.742676	80.141838
813.093262	939.790100	2000.182739	1813.590088	82.403442
813.400391	932.963501	1959.223389	1802.212524	84.700676
813.707642	987.576050	1929.641602	1752.151001	81.159424
814.014709	921.585938	1920.539551	1736.222412	81.548981
814.321716	978.473938	1959.223389	1738.497925	77.494202
814.628723	985.300537	1847.722900	1686.160889	81.266487
814.935669	989.851563	1972.876587	1786.283813	81.018509
815.242554	928.412476	1877.304688	1786.283813	90.407669
815.549438	944.341125	2047.968750	1779.457275	75.670097
815.856201	992.127075	1945.570313	1656.579102	69.689728
816.162964	957.994263	1988.805176	1683.885376	70.419426
816.469604	996.678101	1977.427612	1688.436401	70.533638
816.776184	871.524475	1979.703125	1754.426514	79.671448
817.082825	889.728638	2050.244141	1772.630737	76.078438
817.389343	957.994263	2011.560425	1779.457275	77.969757
817.695801	957.994263	2018.386963	1820.416626	81.330467
818.002197	946.616638	2009.284912	1781.732788	78.586723
818.308533	939.790100	2022.937988	1818.141113	81.092430
818.614868	953.443237	1943.294800	1720.293701	77.471260
818.921143	978.473938	2009.284912	1856.824951	85.209702
819.227356	901.106262	2013.835938	1815.865601	82.208580
819.533447	823.738525	2000.182739	1815.865601	84.332695
819.839539	919.310425	2068.448486	1895.508789	84.950485
820.145569	919.310425	2134.438477	1911.437500	81.647942
820.451538	889.728638	2204.979736	1979.703125	82.871971
820.757568	903.381775	2309.653564	2127.612061	87.055023
821.063416	994.402588	2496.246338	2088.927979	72.878777
821.369263	932.963501	2721.522949	2257.316650	74.045799
821.675049	946.616638	2660.083740	2323.306641	80.345284
821.980713	878.351013	2767.033203	2489.419678	85.301201
822.286438	964.820801	3213.035400	2767.033203	80.161942
822.592102	932.963501	4059.529053	3488.373291	81.732170
822.897583	937.514587	5884.496582	4865.063477	79.392830
823.203125	935.239075	8271.518555	6967.644531	82.227043
823.508545	932.963501	9903.066406	8189.599121	80.898026
823.813965	957.994263	10421.885742	8385.293945	78.480400
824.119263	978.473938	9375.145508	7522.871582	77.940376
824.424622	962.545288	7884.679688	6599.010254	81.426689
824.729858	887.453125	6753.745605	5509.035645	78.781998
825.035095	987.576050	5838.986328	4899.196289	80.628517
825.340149	887.453125	5072.135742	4259.774902	80.587280
825.645264	892.004150	4689.848145	3929.824463	79.988022
825.950256	942.065613	4200.611328	3606.700439	81.773743
826.255310	967.096313	4082.284424	3422.383301	78.816658
826.560242	987.576050	3797.844238	3226.688477	79.676109
826.865112	971.647400	3597.598389	3090.157227	80.675911
827.169922	892.004150	3338.188965	3053.749023	88.372101
827.474670	935.239075	3618.078125	3135.667725	82.018661
827.779419	948.892151	4177.855957	3347.291016	74.277664
828.084045	996.678101	4651.164551	3911.620361	79.763397
828.388672	921.585938	5012.972168	4184.682617	79.755280
828.693176	855.595825	4974.288574	4164.203125	80.331490
828.997681	903.381775	4305.285156	3693.170166	82.006691
829.302124	896.555176	3811.497314	3294.954102	82.279472
829.606567	946.616638	3467.893799	2946.799316	79.332123
829.910828	919.310425	3128.841064	2682.839111	79.814621
830.215149	960.269775	2839.849854	2525.828125	83.292984
830.519348	910.208313	2682.839111	2289.173828	77.792030
830.823547	937.514587	2682.839111	2277.796387	76.792694
831.127686	928.412476	2473.491211	2095.754639	75.552277
831.431763	896.555176	2391.572266	2047.968750	77.016747
831.735779	917.034912	2220.908203	2013.835938	84.118683
832.039734	967.096313	2161.744873	1875.029175	76.000000
832.343628	971.647400	2214.081787	1947.845825	78.571434
832.647461	973.922913	2161.744873	1836.345337	72.605354
832.951233	957.994263	2057.070801	1913.713013	86.956520
833.255127	946.616638	2098.030273	1884.131226	81.422920
833.558777	969.371887	2132.163086	1920.539551	81.800377
833.862366	967.096313	2257.316650	2043.417725	83.421516
834.165955	946.616638	2587.267090	2170.846924	74.618591
834.469482	1010.331238	3008.238525	2559.960938	77.562645
834.773010	948.892151	3347.291016	2878.533936	80.455414
835.076416	1012.606750	3479.271240	2949.074951	78.505539
835.379822	946.616638	3415.556641	2876.258301	78.156685
835.683105	998.953613	3115.187988	2714.696289	81.075264
835.986389	946.616638	2899.013428	2441.633789	76.573425
836.289612	910.208313	2803.441650	2327.857666	74.879799
836.592773	928.412476	2582.716064	2173.122314	75.240715
836.895874	939.790100	2393.847900	2027.489014	74.804382
837.198914	1008.055725	2284.622803	1952.396851	73.975044
837.501892	910.208313	2232.285889	1936.468262	77.624794
837.804871	939.790100	2070.723877	1813.590088	77.263580
838.107666	955.718750	2032.040039	1849.998413	83.086685
838.410583	992.127075	1984.254150	1745.324463	75.917435
838.713379	914.759338	1856.824951	1679.334351	81.159424
839.016052	953.443237	1811.314575	1611.068726	76.657822
839.318787	973.922913	1822.692139	1681.609863	83.378014
839.621338	919.310425	1886.406738	1547.354126	64.941177
839.923889	923.861450	1770.355225	1570.109375	76.344086
840.226440	996.678101	1699.814087	1579.211426	82.847893
840.528931	907.932800	1859.100464	1656.579102	78.708130
840.831299	910.208313	1952.396851	1733.946899	79.039314
841.133606	903.381775	2075.274902	1813.590088	77.669914
841.435913	973.922913	2075.274902	1813.590088	76.239670
841.738220	942.065613	1972.876587	1781.732788	81.456947
842.040405	901.106262	1877.304688	1702.089600	82.051285
842.342529	876.075500	1740.773438	1565.558350	79.736847
842.644592	930.687988	1831.794189	1490.466064	62.121208
842.946594	980.749451	1722.569214	1638.375000	88.650314
843.248596	960.269775	1681.609863	1538.252075	80.126183
843.550598	953.443237	1677.058838	1565.558350	84.591202
843.852478	946.616638	1622.446289	1490.466064	80.471375
844.154236	951.167725	1535.976563	1495.017212	92.996117
844.455994	969.371887	1556.456177	1476.812988	86.434113
844.757690	919.310425	1547.354126	1422.200562	80.072472
845.059326	967.096313	1526.874512	1356.210449	69.512199
845.360962	1001.229126	1533.701050	1463.159912	86.752136
845.662476	953.443237	1515.496826	1344.832764	69.635628
845.963989	905.657288	1474.537476	1483.639526	101.599991
846.265381	910.208313	1463.159912	1374.414551	83.950607
846.566772	921.585938	1488.190552	1303.873413	67.469887
846.868042	985.300537	1415.373901	1265.189575	65.079369
847.169373	987.576050	1479.088501	1258.363037	55.092598
847.470581	946.616638	1465.435425	1308.424438	69.736832
847.771729	846.493713	1490.466064	1351.659302	78.445229
848.072815	967.096313	1417.649414	1299.322388	73.737389
848.373901	942.065613	1435.853638	1269.740601	66.359444
848.674866	964.820801	1474.537476	1312.975464	68.303566
848.975891	926.136963	1454.057739	1335.730713	77.586212
849.276794	939.790100	1469.986450	1274.291626	63.090122
849.577637	923.861450	1451.782227	1322.077637	75.431053
849.878357	971.647400	1363.036987	1349.383789	96.511612
850.179077	983.024963	1397.169800	1310.699951	79.120865
850.479736	946.616638	1374.414551	1265.189575	74.468094
850.780396	953.443237	1401.720825	1324.353149	82.741127
851.080994	994.402588	1429.027100	1203.750488	48.167530
851.381470	973.922913	1403.996338	1303.873413	76.719574
851.681946	948.892151	1369.863525	1294.771362	82.162170
851.982361	955.718750	1394.894287	1190.097412	53.367878
852.282715	985.300537	1390.343262	1287.944824	74.719101
852.583008	903.381775	1322.077637	1385.792114	115.217361
852.883240	930.687988	1433.578125	1249.260864	63.348404
853.183411	939.790100	1322.077637	1292.495850	92.261902
853.483521	901.106262	1333.455200	1299.322388	92.105263
853.783630	917.034912	1399.445313	1308.424438	81.132065
854.083679	964.820801	1381.241089	1185.546387	53.005482
854.383667	896.555176	1401.720825	1249.260864	69.819809
854.683533	955.718750	1333.455200	1256.087524	79.518082
854.983337	998.953613	1381.241089	1301.597900	79.166679
855.283203	935.239075	1392.618774	1210.577026	60.198990
855.582886	962.545288	1324.353149	1287.944824	89.937111
855.882629	964.820801	1388.067749	1315.250977	82.795677
856.182312	996.678101	1413.098389	1301.597900	73.224052
856.481873	932.963501	1403.996338	1228.781250	62.801937
856.781372	923.861450	1351.659302	1253.812012	77.127678
857.080872	1030.810913	1331.179688	1244.709839	71.212105
857.380310	960.269775	1356.210449	1146.862427	47.126415
857.679688	926.136963	1403.996338	1258.363037	69.523819
857.979004	876.075500	1342.557251	1187.821899	66.829277
858.278259	992.127075	1331.179688	1190.097412	58.389267
858.577454	994.402588	1417.649414	1231.056763	55.913986
858.876648	1021.708862	1317.526489	1274.291626	85.384621
859.175720	1019.433350	1408.547363	1237.883301	56.140347
859.474792	912.483826	1372.139038	1210.577026	64.851479
859.773743	980.749451	1278.842651	1228.781250	83.206123
860.072693	960.269775	1326.628662	1151.413574	52.173923
860.371521	989.851563	1365.312500	1278.842651	76.969681
860.670349	1005.780212	1253.812012	1267.465088	105.504570
860.969116	951.167725	1294.771362	1246.985352	86.092697
861.267883	976.198425	1328.904175	1228.781250	71.612900
861.566589	946.616638	1265.189575	1210.577026	82.857132
861.865112	987.576050	1308.424438	1192.372925	63.829796
862.163635	937.514587	1406.271851	1219.679199	60.194183
862.462158	967.096313	1394.894287	1237.883301	63.297867
862.760620	944.341125	1353.934937	1283.393677	82.777756
863.059021	914.759338	1294.771362	1258.363037	90.419167
863.357361	935.239075	1349.383789	1237.883301	73.076927
863.655640	919.310425	1356.210449	1260.638550	78.124992
863.953857	898.830688	1358.485962	1317.526489	91.089088
864.251953	937.514587	1285.669312	1312.975464	107.843109
864.550110	962.545288	1388.067749	1224.230225	61.497326
864.848206	980.749451	1440.404663	1249.260864	58.415833
865.146179	969.371887	1303.873413	1246.985352	82.993187
865.444092	878.351013	1340.281738	1301.597900	91.625618
865.741943	942.065613	1344.832764	1253.812012	77.401146
866.039795	896.555176	1363.036987	1203.750488	65.853653
866.337646	876.075500	1342.557251	1276.567139	85.853653
866.635376	914.759338	1351.659302	1269.740601	81.250008
866.933044	953.443237	1297.046875	1187.821899	68.211929
867.230652	992.127075	1324.353149	1176.444214	55.479431
867.528198	976.198425	1317.526489	1180.995239	59.999992
867.825745	996.678101	1292.495850	1187.821899	64.615395
868.123230	873.799988	1322.077637	1187.821899	70.050766
868.420593	914.759338	1331.179688	1155.964600	57.923504
868.717896	951.167725	1367.588013	1251.536499	72.131157
869.015198	928.412476	1299.322388	1210.577026	76.073608
869.312439	980.749451	1351.659302	1240.158813	69.938652
869.609619	992.127075	1342.557251	1224.230225	66.233780
869.906738	873.799988	1331.179688	1253.812012	83.084587
870.203796	994.402588	1312.975464	1219.679199	70.714310
870.500854	942.065613	1310.699951	1226.505737	77.160507
870.797791	926.136963	1349.383789	1201.474976	65.053772
871.094666	905.657288	1272.016113	1303.873413	108.695656
871.391602	953.443237	1308.424438	1217.403687	74.358994
871.688293	967.096313	1331.179688	1221.954712	70.000008
871.985107	946.616638	1360.761475	1231.056763	68.681313
872.281738	955.718750	1326.628662	1242.434326	77.300598
872.578369	926.136963	1292.495850	1244.709839	86.956505
872.874939	928.412476	1331.179688	1196.923950	66.666664
873.171509	862.422363	1358.485962	1151.413574	58.256886
873.467957	994.402588	1397.169800	1267.465088	67.796608
873.764343	914.759338	1331.179688	1258.363037	82.513664
874.060669	907.932800	1331.179688	1219.679199	73.655922
874.356995	967.096313	1306.148926	1306.148926	100.000000
874.653198	971.647400	1328.904175	1233.332275	73.248398
874.949463	973.922913	1363.036987	1312.975464	87.134483
875.245544	937.514587	1294.771362	1281.118164	96.178322
875.541626	901.106262	1358.485962	1183.270874	61.691547
875.837646	928.412476	1344.832764	1272.016113	82.513664
876.133606	907.932800	1347.108276	1219.679199	70.984474
876.429565	885.177612	1349.383789	1158.240112	58.823540
876.725403	992.127075	1310.699951	1237.883301	77.142860
877.021179	946.616638	1249.260864	1269.740601	106.766937
877.316956	964.820801	1285.669312	1217.403687	78.723412
877.612610	919.310425	1360.761475	1219.679199	68.041245
877.908203	885.177612	1310.699951	1226.505737	80.213913
878.203857	928.412476	1312.975464	1228.781250	78.106522
878.499390	905.657288	1283.393677	1324.353149	110.843399
878.794800	992.127075	1365.312500	1265.189575	73.170731
879.090271	889.728638	1326.628662	1303.873413	94.791656
879.385559	980.749451	1319.802124	1235.607788	75.167770
879.680847	948.892151	1429.027100	1269.740601	66.824638
879.976196	932.963501	1442.680176	1342.557251	80.357140
880.271301	951.167725	1567.833862	1385.792114	70.479691
880.566467	917.034912	1485.915039	1356.210449	77.200012
880.861572	978.473938	1697.538574	1515.496826	74.683533
881.156555	957.994263	1797.661377	1535.976563	68.834694
881.451477	887.453125	1993.356201	1729.395752	76.131683
881.746460	932.963501	2537.205811	2170.846924	77.163124
882.041321	1003.504700	3372.321777	2742.002686	73.390976
882.336121	926.136963	4132.345703	3367.770752	76.153297
882.630798	907.932800	4478.225098	3763.711426	79.987251
882.925537	998.953613	4528.286621	3572.567627	72.920692
883.220215	937.514587	4159.651855	3404.179199	76.553680
883.514771	1010.331238	3813.772949	3222.137451	78.896103
883.809326	1001.229126	3622.629150	3030.993652	77.430557
884.103760	914.759338	3306.331787	2792.063965	78.496666
884.398132	1037.637451	3135.667725	2689.665527	78.741859
884.692505	1035.361938	2924.044189	2584.991699	82.048195
884.986816	962.545288	2848.952148	2389.296875	75.633293
885.281067	907.932800	2664.634766	2236.836914	75.647667
885.575256	964.820801	2473.491211	2120.785400	76.621414
885.869385	971.647400	2257.316650	1913.713013	73.274338
886.163452	1008.055725	2020.662476	1763.528564	74.606735
886.457458	948.892151	1975.152100	1724.844727	75.609741
886.751465	964.820801	1849.998413	1595.140137	71.208237
887.045410	926.136963	1747.599976	1624.721802	85.041542
887.339233	866.973450	1681.609863	1463.159912	73.184364
887.632996	939.790100	1613.344238	1431.302612	72.972977
887.926758	935.239075	1561.007324	1408.547363	75.636353
888.220398	960.269775	1488.190552	1399.445313	83.189667
888.514099	937.514587	1438.129150	1347.108276	81.818176
888.807678	983.024963	1385.792114	1303.873413	79.661026
889.101196	928.412476	1474.537476	1326.628662	72.916672
889.394653	862.422363	1422.200562	1231.056763	65.853653
889.688049	951.167725	1385.792114	1269.740601	73.298431
889.981384	987.576050	1369.863525	1233.332275	64.285713
890.274719	889.728638	1365.312500	1206.026001	66.507172
890.567932	932.963501	1372.139038	1206.026001	62.176163
>>>>>End Processed Spectral Data<<<<<
