Jaz Data File
++++++++++++++++++++++++++++++++++++
Date: Wed Feb 07 06:55:24 2024
User: jaz
Dark Spectrum Present: Yes
Reference Spectrum Present: Yes
Processed Spectrum Present: Yes
Spectrometers: JAZA3692
Integration Time (usec): 43800 (JAZA3692)
Spectra Averaged: 1 (JAZA3692)
Boxcar Smoothing: 0 (JAZA3692)
Correct for Electrical Dark: No (JAZA3692)
Strobe/Lamp Enabled: Yes (JAZA3692)
Correct for Detector Non-linearity: No (JAZA3692)
Correct for Stray Light: No (JAZA3692)
Number of Pixels in Processed Spectrum: 2048
>>>>>Begin Processed Spectral Data<<<<<
W	D	R	S	P
190.244385	0.000000	0.000000	0.000000	0.000000
190.627136	0.000000	0.000000	0.000000	0.000000
191.009842	892.004150	873.799988	912.483826	-112.499962
191.392532	855.595825	892.004150	862.422363	18.749937
191.775177	960.269775	844.218201	907.932800	45.098030
192.157791	967.096313	969.371887	880.626526	-3799.911377
192.540390	892.004150	894.279663	964.820801	3200.010742
192.922943	939.790100	935.239075	946.616638	-150.000000
193.305481	980.749451	928.412476	880.626526	191.304382
193.687958	917.034912	937.514587	917.034912	0.000000
194.070419	967.096313	905.657288	932.963501	55.555588
194.452866	948.892151	935.239075	907.932800	300.000885
194.835251	932.963501	985.300537	896.555176	-69.565125
195.217621	917.034912	907.932800	907.932800	100.000000
195.599960	962.545288	939.790100	839.667175	540.000427
195.982254	932.963501	944.341125	857.871338	-659.998596
196.364517	973.922913	955.718750	907.932800	362.500122
196.746750	967.096313	976.198425	912.483826	-599.997986
197.128952	967.096313	892.004150	873.799988	124.242424
197.511139	864.697876	919.310425	939.790100	137.499939
197.893280	962.545288	889.728638	912.483826	68.750023
198.275391	953.443237	907.932800	948.892151	10.000093
198.657471	903.381775	937.514587	896.555176	-20.000107
199.039520	948.892151	935.239075	937.514587	83.333336
199.421539	917.034912	998.953613	873.799988	-52.777843
199.803513	951.167725	973.922913	907.932800	-190.000290
200.185471	953.443237	983.024963	903.381775	-169.231033
200.567383	967.096313	985.300537	939.790100	-149.999329
200.949265	951.167725	1010.331238	917.034912	-57.692337
201.331131	898.830688	964.820801	907.932800	13.793145
201.712967	923.861450	898.830688	878.351013	181.818024
202.094742	903.381775	942.065613	832.840637	-182.352997
202.476517	944.341125	887.453125	919.310425	43.999966
202.858231	976.198425	973.922913	948.892151	1200.005371
203.239944	1044.463989	903.381775	816.911987	161.290359
203.621582	937.514587	1030.810913	896.555176	-43.902493
204.003235	953.443237	955.718750	864.697876	-3900.016113
204.384827	951.167725	932.963501	871.524475	437.498749
204.766388	969.371887	903.381775	919.310425	75.862068
205.147934	873.799988	901.106262	1017.157776	524.999451
205.529449	923.861450	910.208313	960.269775	-266.666382
205.910904	910.208313	955.718750	907.932800	-4.999980
206.292343	903.381775	978.473938	914.759338	15.151465
206.673767	885.177612	907.932800	914.759338	129.999924
207.055115	871.524475	985.300537	871.524475	0.000000
207.436462	948.892151	896.555176	953.443237	-8.695739
207.817780	955.718750	917.034912	1035.361938	-205.882339
208.199051	853.320313	910.208313	901.106262	84.000053
208.580307	832.840637	976.198425	919.310425	60.317467
208.961517	903.381775	957.994263	896.555176	-12.500070
209.342712	905.657288	905.657288	903.381775	0.000000
209.723846	955.718750	969.371887	832.840637	-899.999084
210.104965	969.371887	957.994263	876.075500	819.998840
210.486069	914.759338	946.616638	885.177612	-92.856979
210.867111	912.483826	962.545288	912.483826	0.000000
211.248123	905.657288	885.177612	971.647400	-322.222443
211.629120	926.136963	917.034912	912.483826	150.000671
212.010071	873.799988	971.647400	880.626526	6.976718
212.390991	857.871338	946.616638	846.493713	-12.820538
212.771881	946.616638	937.514587	812.360901	1475.005371
213.152756	876.075500	973.922913	885.177612	9.302353
213.533569	864.697876	930.687988	846.493713	-27.586197
213.914368	876.075500	951.167725	905.657288	39.393940
214.295135	903.381775	896.555176	880.626526	333.332153
214.675858	923.861450	967.096313	878.351013	-105.263283
215.056549	866.973450	901.106262	914.759338	139.999863
215.437225	832.840637	907.932800	932.963501	133.333313
215.817841	910.208313	932.963501	905.657288	-19.999947
216.198441	973.922913	855.595825	857.871338	98.076927
216.579025	880.626526	932.963501	860.146851	-39.130413
216.959549	942.065613	878.351013	864.697876	121.428589
217.340057	932.963501	1003.504700	832.840637	-141.935303
217.720535	889.728638	860.146851	862.422363	92.307724
218.100967	953.443237	923.861450	878.351013	253.846130
218.481369	939.790100	948.892151	912.483826	-300.001343
218.861740	910.208313	939.790100	864.697876	-153.846130
219.242065	912.483826	944.341125	948.892151	114.285660
219.622391	869.248962	935.239075	882.902100	20.689671
220.002670	896.555176	896.555176	928.412476	0.000000
220.382919	926.136963	928.412476	903.381775	-1000.002686
220.763123	944.341125	937.514587	905.657288	566.668457
221.143295	873.799988	973.922913	967.096313	93.181786
221.523453	921.585938	928.412476	885.177612	-533.335144
221.903549	848.769287	942.065613	878.351013	31.707279
222.283630	892.004150	926.136963	964.820801	213.333282
222.663696	932.963501	1001.229126	955.718750	33.333393
223.043701	980.749451	939.790100	973.922913	16.666616
223.423676	862.422363	930.687988	951.167725	130.000076
223.803635	944.341125	946.616638	955.718750	500.002686
224.183548	980.749451	955.718750	880.626526	400.000488
224.563431	935.239075	1012.606750	935.239075	0.000000
224.943283	946.616638	987.576050	914.759338	-77.777725
225.323105	951.167725	960.269775	912.483826	-425.002014
225.702881	901.106262	898.830688	848.769287	2299.946289
226.082642	853.320313	903.381775	885.177612	63.636375
226.462357	905.657288	1046.739624	876.075500	-20.967747
226.842041	907.932800	1055.841675	910.208313	1.538456
227.221695	857.871338	980.749451	928.412476	57.407406
227.601318	935.239075	978.473938	864.697876	-163.158142
227.980911	921.585938	1028.535400	914.759338	-6.383014
228.360474	917.034912	939.790100	876.075500	-180.000320
228.739990	905.657288	957.994263	905.657288	0.000000
229.119476	946.616638	1042.188477	887.453125	-61.904755
229.498932	971.647400	1119.556274	907.932800	-43.076927
229.878372	871.524475	1171.893188	876.075500	1.515146
230.257736	928.412476	1171.893188	864.697876	-26.168232
230.637115	855.595825	1112.729614	905.657288	19.469032
231.016449	946.616638	1158.240112	919.310425	-12.903206
231.395737	853.320313	1115.005249	860.146851	2.608686
231.774994	912.483826	1083.147949	876.075500	-21.333321
232.154221	921.585938	1183.270874	928.412476	2.608686
232.533417	894.279663	1051.290649	892.004150	-1.449270
232.912582	926.136963	1037.637451	930.687988	4.081619
233.291702	821.463013	1030.810913	896.555176	35.869556
233.670792	910.208313	1049.015137	926.136963	11.475409
234.049866	926.136963	1058.117188	914.759338	-8.620704
234.428894	853.320313	1074.045776	860.146851	3.092773
234.807892	932.963501	1089.974487	880.626526	-33.333321
235.186874	880.626526	1135.484863	851.044800	-11.607125
235.565781	989.851563	1046.739624	921.585938	-119.999916
235.944687	957.994263	1103.627563	1003.504700	31.250021
236.323547	917.034912	1105.903076	896.555176	-10.843403
236.702377	960.269775	1039.912964	907.932800	-65.714317
237.081177	873.799988	1101.352051	928.412476	23.999996
237.459946	869.248962	1178.719727	930.687988	19.852934
237.838669	969.371887	1149.138062	926.136963	-24.050646
238.217361	955.718750	1140.035889	980.749451	13.580235
238.596039	953.443237	1083.147949	921.585938	-24.561405
238.974670	937.514587	1133.209351	946.616638	4.651147
239.353271	901.106262	1126.382813	921.585938	9.090904
239.731842	930.687988	1169.617676	905.657288	-10.476178
240.110367	901.106262	1158.240112	841.942688	-23.008863
240.488876	871.524475	1167.342163	835.116150	-12.307691
240.867340	896.555176	1235.607788	962.545288	19.463089
241.245789	894.279663	1119.556274	912.483826	8.080805
241.624176	910.208313	1233.332275	964.820801	16.901405
242.002548	955.718750	1319.802124	907.932800	-13.125002
242.380890	882.902100	1308.424438	942.065613	13.903738
242.759186	907.932800	1454.057739	889.728638	-3.333333
243.137451	894.279663	1481.364014	921.585938	4.651167
243.515686	917.034912	1556.456177	926.136963	1.423483
243.893890	885.177612	1658.854614	882.902100	-0.294117
244.272049	948.892151	1479.088501	887.453125	-11.587976
244.650192	926.136963	1567.833862	882.902100	-6.737583
245.028290	844.218201	1415.373901	853.320313	1.593631
245.406357	901.106262	1369.863525	814.636475	-18.446602
245.784393	907.932800	1372.139038	917.034912	1.960791
246.162384	928.412476	1365.312500	923.861450	-1.041663
246.540359	919.310425	1454.057739	944.341125	4.680846
246.918289	901.106262	1636.099487	864.697876	-4.953568
247.296204	894.279663	1656.579102	955.718750	8.059705
247.674057	926.136963	1952.396851	876.075500	-4.878049
248.051895	844.218201	2207.255127	921.585938	5.676129
248.429703	914.759338	2129.887451	832.840637	-6.741569
248.807465	942.065613	2079.825928	905.657288	-3.200000
249.185196	835.116150	2002.458252	907.932800	6.237816
249.562897	917.034912	1781.732788	914.759338	-0.263164
249.940567	921.585938	1695.262939	951.167725	3.823532
250.318192	919.310425	1595.140137	892.004150	-4.040408
250.695801	901.106262	1567.833862	914.759338	2.047774
251.073349	885.177612	1522.323364	942.065613	8.928570
251.450882	937.514587	1495.017212	917.034912	-3.673467
251.828400	937.514587	1469.986450	957.994263	3.846152
252.205872	935.239075	1510.945801	937.514587	0.395256
252.583313	907.932800	1599.691162	967.096313	8.552628
252.960693	896.555176	1590.588989	983.024963	12.459017
253.338074	812.360901	1604.242188	889.728638	9.770118
253.715408	848.769287	1677.058838	1010.331238	19.505491
254.092682	944.341125	1615.619751	946.616638	0.338982
254.469955	903.381775	1504.119263	951.167725	7.954548
254.847198	848.769287	1456.333252	912.483826	10.486886
255.224365	887.453125	1449.506714	830.565063	-10.121466
255.601563	869.248962	1415.373901	944.341125	13.749997
255.978683	960.269775	1424.476074	901.106262	-12.745090
256.355743	814.636475	1458.608887	992.127075	27.561832
256.732819	962.545288	1410.822876	944.341125	-4.060913
257.109894	951.167725	1454.057739	882.902100	-13.574663
257.486877	914.759338	1451.782227	948.892151	6.355933
257.863831	930.687988	1583.762451	939.790100	1.393733
258.240753	901.106262	1670.232300	841.942688	-7.692312
258.617645	898.830688	1663.405762	848.769287	-6.547611
258.994507	914.759338	1795.385864	921.585938	0.775198
259.371307	923.861450	1947.845825	914.759338	-0.888892
259.748108	1019.433350	1929.641602	944.341125	-8.250005
260.124878	896.555176	2145.816162	957.994263	4.918035
260.501617	946.616638	2327.857666	896.555176	-3.624383
260.878296	912.483826	2685.114502	978.473938	3.722722
261.254944	887.453125	2778.410889	928.412476	2.166064
261.631561	912.483826	2569.062988	955.718750	2.609892
262.008179	914.759338	2264.143311	946.616638	2.360877
262.384735	907.932800	2154.918213	848.769287	-4.744524
262.761261	937.514587	1997.907227	885.177612	-4.935623
263.137695	901.106262	1881.855713	917.034912	1.624130
263.514191	855.595825	1815.865601	926.136963	7.345971
263.890594	912.483826	1745.324463	878.351013	-4.098361
264.267029	962.545288	1795.385864	946.616638	-1.912569
264.643341	880.626526	1672.507813	892.004150	1.436784
265.019653	885.177612	1758.977539	905.657288	2.343749
265.395935	857.871338	1763.528564	1030.810913	19.095478
265.772217	935.239075	1740.773438	907.932800	-3.389834
266.148407	917.034912	1779.457275	905.657288	-1.319264
266.524597	928.412476	1818.141113	983.024963	6.138106
266.900726	928.412476	1849.998413	948.892151	2.222221
267.276855	896.555176	1929.641602	912.483826	1.541851
267.652924	944.341125	1991.080688	926.136963	-1.739130
268.028992	976.198425	2027.489014	898.830688	-7.359311
268.404999	1003.504700	2032.040039	930.687988	-7.079650
268.781006	914.759338	2034.315552	1014.882263	8.943091
269.156921	919.310425	2011.560425	894.279663	-2.291670
269.532837	928.412476	2000.182739	892.004150	-3.397027
269.908661	921.585938	1991.080688	892.004150	-2.765959
270.284546	923.861450	2009.284912	932.963501	0.838571
270.660339	919.310425	2050.244141	980.749451	5.432593
271.036133	905.657288	2068.448486	951.167725	3.913896
271.411835	892.004150	2063.897461	914.759338	1.941746
271.787537	869.248962	2266.418701	910.208313	2.931595
272.163239	894.279663	2571.338623	919.310425	1.492539
272.538849	960.269775	2598.644775	992.127075	1.944445
272.914459	960.269775	2453.011475	964.820801	0.304877
273.290070	905.657288	2430.256104	914.759338	0.597013
273.665588	866.973450	2387.021240	973.922913	7.035927
274.041046	932.963501	2323.306641	885.177612	-3.436985
274.416565	889.728638	2325.582275	917.034912	1.901745
274.791962	951.167725	2216.357178	967.096313	1.258988
275.167389	889.728638	2264.143311	944.341125	3.973509
275.542755	928.412476	2136.714111	930.687988	0.188323
275.918060	971.647400	2179.948975	948.892151	-1.883243
276.293365	939.790100	2179.948975	919.310425	-1.651375
276.668640	917.034912	2220.908203	962.545288	3.490399
277.043854	942.065613	2341.510986	910.208313	-2.276423
277.419037	944.341125	2323.306641	935.239075	-0.660064
277.794189	914.759338	2291.449463	876.075500	-2.809916
278.169312	860.146851	2330.133301	923.861450	4.334366
278.544373	910.208313	2261.867676	937.514587	2.020204
278.919464	892.004150	2236.836914	926.136963	2.538071
279.294464	896.555176	2318.755615	869.248962	-1.919998
279.669464	862.422363	2236.836914	901.106262	2.814573
280.044403	889.728638	2239.112549	962.545288	5.396288
280.419312	926.136963	2302.827148	912.483826	-0.991736
280.794189	896.555176	2380.194824	980.749451	5.674847
281.169037	896.555176	2366.541748	969.371887	4.953563
281.543854	953.443237	2566.787354	971.647400	1.128350
281.918671	885.177612	2603.195801	928.412476	2.516554
282.293365	951.167725	2701.043213	878.351013	-4.161251
282.668091	980.749451	2746.553711	894.279663	-4.896907
283.042786	917.034912	2960.452637	946.616638	1.447659
283.417419	857.871338	2892.187012	964.820801	5.257270
283.792053	889.728638	2842.125488	969.371887	4.079255
284.166595	905.657288	2682.839111	953.443237	2.688861
284.541138	919.310425	2664.634766	939.790100	1.173402
284.915619	919.310425	2594.093750	948.892151	1.766302
285.290100	898.830688	2687.390137	957.994263	3.307890
285.664520	880.626526	2776.135498	960.269775	4.201681
286.038940	805.534363	2862.605225	921.585938	5.641593
286.413300	876.075500	2846.676514	969.371887	4.734413
286.787628	887.453125	2935.421875	937.514587	2.444445
287.161896	889.728638	3147.045166	953.443237	2.822582
287.536194	835.116150	3108.361328	1003.504700	7.407408
287.910400	901.106262	3005.962891	903.381775	0.108108
288.284607	869.248962	2869.431641	942.065613	3.640500
288.658752	921.585938	2812.543701	951.167725	1.564381
289.032867	951.167725	2662.359375	887.453125	-3.723405
289.406921	946.616638	2851.227539	901.106262	-2.389484
289.781006	957.994263	2778.410889	1001.229126	2.374998
290.154999	889.728638	2792.063965	969.371887	4.186604
290.529022	898.830688	2883.084961	917.034912	0.917434
290.902954	928.412476	3165.249512	910.208313	-0.813835
291.276825	930.687988	3192.555664	969.371887	1.710264
291.650757	930.687988	3044.646729	896.555176	-1.614640
292.024597	928.412476	3081.055176	903.381775	-1.162789
292.398407	885.177612	3071.953125	964.820801	3.642038
292.772156	889.728638	2912.666504	930.687988	2.024746
293.145905	871.524475	2807.992676	919.310425	2.467686
293.519592	821.463013	2726.073975	1012.606750	10.035842
293.893280	871.524475	2924.044189	939.790100	3.325942
294.266907	878.351013	2880.809326	919.310425	2.045456
294.640533	857.871338	2994.585449	932.963501	3.514376
295.014069	928.412476	3210.759766	932.963501	0.199401
295.387604	860.146851	3283.576416	973.922913	4.694837
295.761078	932.963501	3345.015625	994.402588	2.547171
296.134552	903.381775	3363.219727	969.371887	2.682702
296.507996	869.248962	3360.944336	946.616638	3.105021
296.881378	921.585938	3504.302002	921.585938	0.000000
297.254730	903.381775	3549.812500	887.453125	-0.601892
297.628021	894.279663	3863.834229	953.443237	1.992338
298.001282	942.065613	3868.385254	937.514587	-0.155520
298.374573	942.065613	3813.772949	1019.433350	2.694137
298.747803	939.790100	3745.507324	917.034912	-0.811029
299.121002	880.626526	3581.669678	860.146851	-0.758214
299.494141	967.096313	3335.913574	960.269775	-0.288183
299.867188	928.412476	3281.301025	955.718750	1.160543
300.240265	942.065613	3304.056152	955.718750	0.578035
300.613312	894.279663	3092.432861	930.687988	1.656314
300.986328	937.514587	3124.290039	939.790100	0.104058
301.359314	910.208313	3249.443604	912.483826	0.097276
301.732239	887.453125	3115.187988	912.483826	1.123594
302.105103	896.555176	3217.586426	960.269775	2.745099
302.477997	932.963501	3140.218750	987.576050	2.474229
302.850830	919.310425	3122.014648	951.167725	1.446281
303.223602	917.034912	2976.381104	917.034912	0.000000
303.596375	905.657288	2930.870850	964.820801	2.921347
303.969116	887.453125	2894.462402	928.412476	2.040815
304.341766	930.687988	2873.982666	1010.331238	4.098362
304.714478	866.973450	2933.146240	1051.290649	8.920706
305.087067	857.871338	2860.329590	964.820801	5.340909
305.459656	841.942688	3026.442627	1012.606750	7.812500
305.832214	928.412476	2878.533936	1028.535400	5.134189
306.204681	964.820801	2962.728027	976.198425	0.569477
306.577148	919.310425	2876.258301	1071.770264	7.790695
306.949646	892.004150	2949.074951	1115.005249	10.840711
307.322021	935.239075	2914.942139	1069.494751	6.781607
307.694397	876.075500	2903.564453	1112.729614	11.672276
308.066742	869.248962	2896.738037	1133.209351	13.019078
308.439026	903.381775	2930.870850	1128.658325	11.111111
308.811279	951.167725	3008.238525	1226.505737	13.384955
309.183502	898.830688	3188.004639	1331.179688	18.886683
309.555695	919.310425	3240.341553	1215.128052	12.745094
309.927887	935.239075	3308.607178	1242.434326	12.943430
310.299988	887.453125	3217.586426	1285.669312	17.089846
310.672058	882.902100	3258.545898	1338.006226	19.157085
311.044128	939.790100	3397.352539	1315.250977	15.277776
311.416168	853.320313	3420.107666	1338.006226	18.882978
311.788147	944.341125	3358.668701	1285.669312	14.137609
312.160065	930.687988	3306.331787	1358.485962	18.007666
312.531982	905.657288	3399.628174	1319.802124	16.605841
312.903870	957.994263	3372.321777	1397.169800	18.190388
313.275696	910.208313	3151.596191	1203.750488	13.096447
313.647491	907.932800	3299.505127	1269.740601	15.128449
314.019318	942.065613	3076.504150	1308.424438	17.164179
314.391022	955.718750	3151.596191	1237.883301	12.849740
314.762726	855.595825	3201.657715	1467.710938	26.091173
315.134369	800.983337	3231.239502	1388.067749	24.157307
315.505981	914.759338	3449.689453	1340.281738	16.786356
315.877594	955.718750	3488.373291	1422.200562	18.418692
316.249146	914.759338	3326.811523	1399.445313	20.094339
316.620636	948.892151	3240.341553	1383.516602	18.967228
316.992157	919.310425	3096.983887	1383.516602	21.316612
317.363586	878.351013	2978.656738	1351.659302	22.535210
317.735016	919.310425	2999.136475	1303.873413	18.490150
318.106354	905.657288	2990.034424	1308.424438	19.323141
318.477722	878.351013	2955.901611	1308.424438	20.700985
318.849060	955.718750	3062.851074	1292.495850	15.982722
319.220306	841.942688	3019.616211	1201.474976	16.509926
319.591522	921.585938	3094.708252	1285.669312	16.753929
319.962738	1001.229126	3142.494141	1328.904175	15.302872
320.333923	857.871338	3253.994629	1249.260864	16.334282
320.705017	980.749451	3156.147461	1301.597900	14.748955
321.076111	962.545288	3117.463379	1265.189575	14.044353
321.447144	882.902100	3122.014648	1303.873413	18.800810
321.818176	885.177612	2844.401123	1251.536499	18.699188
322.189178	816.911987	2892.187012	1303.873413	23.464912
322.560120	887.453125	2933.146240	1269.740601	18.687429
322.931030	939.790100	3126.565674	1269.740601	15.088448
323.301910	898.830688	3149.320801	1292.495850	17.492418
323.672729	880.626526	3294.954102	1360.761475	19.886902
324.043549	857.871338	3495.199951	1315.250977	17.342535
324.414337	832.840637	3772.813477	1369.863525	18.266253
324.785095	882.902100	3900.242676	1385.792114	16.666664
325.155792	1014.882263	3845.630127	1429.027100	14.630227
325.526428	923.861450	3897.967041	1335.730713	13.848509
325.897034	894.279663	3777.364502	1365.312500	16.337807
326.267670	901.106262	3665.864014	1378.965576	17.283949
326.638184	892.004150	3811.497314	1360.761475	16.056120
327.008728	896.555176	3868.385254	1397.169800	16.845331
327.379211	962.545288	3841.079102	1331.179688	12.806326
327.749634	873.799988	3677.241699	1287.944824	14.772729
328.120026	921.585938	3613.527100	1221.954712	11.158073
328.490417	921.585938	3602.149414	1297.046875	14.006791
328.860748	921.585938	3511.128662	1360.761475	16.959579
329.231079	862.422363	3422.383301	1253.812012	15.288892
329.601318	901.106262	3333.637939	1240.158813	13.938258
329.971558	896.555176	3472.444824	1312.975464	16.166077
330.341736	928.412476	3481.546875	1287.944824	14.081999
330.711914	939.790100	3476.995850	1278.842651	13.363226
331.082062	914.759338	3533.883789	1335.730713	16.072981
331.452148	921.585938	3422.383301	1360.761475	17.561420
331.822174	946.616638	3520.230713	1301.597900	13.793104
332.192200	889.728638	3581.669678	1317.526489	15.891799
332.562134	928.412476	3729.578613	1363.036987	15.515842
332.932129	905.657288	3706.823486	1312.975464	14.541021
333.302063	948.892151	3806.946289	1322.077637	13.057327
333.671906	885.177612	4000.365479	1372.139038	15.631847
334.041718	926.136963	3843.354736	1383.516602	15.678625
334.411499	973.922913	3984.437012	1324.353149	11.640212
334.781281	935.239075	4002.641113	1385.792114	14.688424
335.151001	1037.637451	3966.232666	1356.210449	10.878014
335.520721	898.830688	3797.844238	1383.516602	16.718994
335.890350	957.994263	3816.048340	1324.353149	12.818472
336.259979	919.310425	3847.905762	1287.944824	12.587414
336.629547	921.585938	3995.814453	1365.312500	14.433753
336.999084	889.728638	3850.181152	1367.588013	16.141430
337.368622	928.412476	3847.905762	1315.250977	13.250194
337.738098	983.024963	3975.334961	1392.618774	13.688214
338.107513	830.565063	3963.957275	1326.628662	15.831520
338.476898	912.483826	3922.997803	1237.883301	10.808768
338.846252	887.453125	3886.589600	1390.343262	16.767832
339.215576	907.932800	4045.875977	1367.588013	14.648296
339.584869	873.799988	4023.120850	1285.669312	13.078036
339.954132	885.177612	3973.059326	1374.414551	15.843771
340.323334	841.942688	3806.946289	1265.189575	14.274751
340.692505	973.922913	3827.426025	1274.291626	10.526315
341.061646	923.861450	3686.343750	1283.393677	13.014824
341.430786	851.044800	3788.742188	1310.699951	15.646784
341.799896	887.453125	3845.630127	1283.393677	13.384613
342.168915	871.524475	3988.988037	1317.526489	14.306567
342.537903	873.799988	4007.192139	1333.455200	14.669572
342.906830	951.167725	3948.028564	1292.495850	11.389522
343.275757	946.616638	4116.416992	1326.628662	11.988516
343.644684	814.636475	4291.632324	1394.894287	16.688482
344.013550	914.759338	4155.101074	1374.414551	14.185392
344.382355	930.687988	4312.111816	1451.782227	15.410498
344.751129	957.994263	4760.389648	1422.200562	12.208260
345.119873	923.861450	4844.583984	1422.200562	12.710389
345.488586	935.239075	5049.380859	1506.394775	13.882743
345.857269	928.412476	4924.227051	1449.506714	13.041002
346.225891	955.718750	5078.962402	1472.261963	12.527594
346.594482	978.473938	5210.942871	1533.701050	13.118280
346.963043	903.381775	4974.288574	1540.527588	15.651201
347.331543	878.351013	4885.542969	1570.109375	17.262920
347.700043	896.555176	4694.399414	1458.608887	14.799283
348.068512	892.004150	4607.929688	1353.934937	12.431109
348.436951	937.514587	4528.286621	1472.261963	14.892268
348.805328	919.310425	4564.694824	1338.006226	11.485642
349.173645	921.585938	4421.336914	1413.098389	14.044212
349.541931	876.075500	4332.591797	1403.996338	15.273205
349.910217	932.963501	4623.858398	1413.098389	13.008631
350.278473	939.790100	4803.624512	1576.935913	16.489986
350.646667	912.483826	4701.226074	1499.568237	15.495497
351.014801	832.840637	4865.063477	1517.772339	16.986454
351.382935	957.994263	4744.460938	1567.833862	16.105768
351.751007	907.932800	4821.828613	1540.527588	16.162790
352.119049	882.902100	4726.256836	1426.751587	14.150385
352.487091	892.004150	4753.562988	1547.354126	16.971125
352.855072	857.871338	4956.084473	1501.843750	15.713493
353.222992	948.892151	4969.737305	1520.047852	14.204866
353.590881	926.136963	5090.339844	1549.629639	14.972677
353.958740	889.728638	5122.197266	1674.783325	18.548388
354.326599	939.790100	5370.229004	1535.976563	13.456600
354.694397	935.239075	5527.240234	1640.650513	15.361744
355.062134	917.034912	5647.842773	1617.895264	14.814814
355.429840	1003.504700	5663.771484	1615.619751	13.134765
355.797516	992.127075	5693.353027	1604.242188	13.020329
356.165192	919.310425	5961.864258	1724.844727	15.974730
356.532776	894.279663	5895.874512	1626.997314	14.649680
356.900360	921.585938	6114.324219	1713.467163	15.249782
357.267883	903.381775	6284.988281	1708.916138	14.968288
357.635376	917.034912	6644.520508	1950.121338	18.037348
358.002808	848.769287	6892.552734	1829.518677	16.227409
358.370270	846.493713	7149.686523	1936.468262	17.292421
358.737640	892.004150	7324.901367	2043.417725	17.898832
359.105011	937.514587	7070.042969	1968.325439	16.808905
359.472321	944.341125	6724.164063	1904.610962	16.614174
359.839569	882.902100	6646.796387	1820.416626	16.265297
360.206787	876.075500	6660.449219	1838.620850	16.640442
360.574005	851.044800	7013.155273	2007.009399	18.759232
360.941193	912.483826	7229.329590	1950.121338	16.426512
361.308319	894.279663	7582.035156	2109.407715	18.169445
361.675415	907.932800	8216.905273	2204.979736	17.745953
362.042450	894.279663	8924.592773	2289.173828	17.370359
362.409424	928.412476	9202.206055	2380.194824	17.546755
362.776428	932.963501	9491.197266	2396.123291	17.096516
363.143402	851.044800	9024.715820	2309.653564	17.845211
363.510284	962.545288	8387.569336	2318.755615	18.265400
363.877136	942.065613	7372.687500	2113.958740	18.223635
364.243988	980.749451	7138.308594	2016.111450	16.814489
364.610779	964.820801	6699.133301	2095.754639	19.722221
364.977539	921.585938	6489.785156	1938.743774	18.267267
365.344269	923.861450	6478.407715	1920.539551	17.943466
365.710938	910.208313	6121.150879	1961.498901	20.174671
366.077576	953.443237	6107.498047	1909.161987	18.543047
366.444183	878.351013	6018.752441	1906.886475	20.008854
366.810760	905.657288	5995.997070	1977.427612	21.054985
367.177277	912.483826	6218.998535	1929.641602	19.168095
367.543823	901.106262	6316.845703	1968.325439	19.705883
367.910248	892.004150	6300.916992	2034.315552	21.119057
368.276642	894.279663	6080.191406	1993.356201	21.193506
368.643036	887.453125	6032.405762	1986.529663	21.362228
369.009399	932.963501	5836.710938	1920.539551	20.139210
369.375671	878.351013	5791.200684	1927.366089	21.352478
369.741974	901.106262	5850.363770	1997.907227	22.160921
370.108215	964.820801	6014.201660	1922.815063	18.972509
370.474396	898.830688	5980.068848	1977.427612	21.227049
370.840546	919.310425	6050.609863	2009.284912	21.241686
371.206665	923.861450	6077.916016	1952.396851	19.955849
371.572784	998.953613	6068.813965	2111.683350	21.947937
371.938843	873.799988	6385.111328	2113.958740	22.502062
372.304840	912.483826	6307.743652	2275.520752	25.263601
372.670807	905.657288	6275.886230	2166.295898	23.474579
373.036713	928.412476	6287.264160	2145.816162	22.717623
373.402649	876.075500	6121.150879	2150.367188	24.295013
373.768524	912.483826	6153.008301	2234.561523	25.227964
374.134308	889.728638	6244.029297	2198.153076	24.436888
374.500122	864.697876	6266.784180	2232.285889	25.315922
374.865875	896.555176	6280.437500	2175.397949	23.753172
375.231567	898.830688	6421.519531	2173.122314	23.073753
375.597260	871.524475	6530.744629	2243.663574	24.246082
375.962891	869.248962	6642.245117	2380.194824	26.172646
376.328461	905.657288	6940.338379	2493.970703	26.319757
376.694031	871.524475	7017.706055	2578.165039	27.767494
377.059540	910.208313	7274.839844	2548.583252	25.741867
377.425049	942.065613	7650.300781	2712.420898	26.390774
377.790497	873.799988	8053.068359	2714.696289	25.641836
378.155945	942.065613	8059.894531	2687.390137	24.520460
378.521301	955.718750	7959.771973	2844.401123	26.965563
378.886597	901.106262	7641.198730	2762.482178	27.616476
379.251892	880.626526	7456.881836	2719.247314	27.958477
379.617157	948.892151	7088.247070	2637.328613	27.501856
379.982422	955.718750	6840.215332	2630.501953	28.460943
380.347595	919.310425	6883.450195	2646.430664	28.958414
380.712738	903.381775	6785.603027	2569.062988	28.317213
381.077820	812.360901	6924.409668	2798.890625	32.501865
381.442902	923.861450	6928.960938	2739.727051	30.238726
381.807953	901.106262	7138.308594	2726.073975	29.259398
382.172974	942.065613	6951.715820	2819.370361	31.238169
382.537933	971.647400	7045.012207	2728.349365	28.924690
382.902832	896.555176	6792.429688	2819.370361	32.612892
383.267700	866.973450	6867.521973	2846.676514	32.992039
383.632538	919.310425	7170.166016	2889.911377	31.525301
383.997345	998.953613	7349.932129	2983.207764	31.243282
384.362152	898.830688	7568.382324	3158.422852	33.879223
384.726898	889.728638	7481.912598	3165.249512	34.518467
385.091553	869.248962	7591.137207	3094.708252	33.107651
385.456238	864.697876	7552.453613	3101.534912	33.446751
385.820862	944.341125	7456.881836	3263.096924	35.604473
386.185425	957.994263	7652.576660	3233.515137	33.990482
386.549988	855.595825	7820.964844	3420.107666	36.818031
386.914490	860.146851	7698.086914	3508.853027	38.735439
387.278961	928.412476	7864.199707	3643.108887	39.140423
387.643372	944.341125	7850.546875	3549.812500	37.726524
388.007782	942.065613	8114.507324	3684.068115	38.229691
388.372101	896.555176	8248.762695	3811.497314	39.647167
388.736450	944.341125	7930.189941	3804.670898	40.944630
389.100739	896.555176	7871.026367	3713.649902	40.391518
389.464966	914.759338	8034.863770	3743.231689	39.725155
389.829163	921.585938	7764.077148	3870.660889	43.099434
390.193329	889.728638	7832.342773	3736.405273	41.002953
390.557495	898.830688	7786.832031	3943.477539	44.202183
390.921570	880.626526	7937.016602	4116.416992	45.856174
391.285614	957.994263	8255.589844	4268.876953	45.369503
391.649597	862.422363	8590.090820	4409.959473	45.906952
392.013550	910.208313	9215.859375	4767.216309	46.438358
392.377502	932.963501	9404.727539	4908.298340	46.924526
392.741455	917.034912	9275.022461	4926.502441	47.971687
393.105316	932.963501	9174.899414	4885.542969	47.956936
393.469086	976.198425	8956.450195	4853.686035	48.588535
393.832886	905.657288	8697.040039	4972.013184	52.190426
394.196655	948.892151	9024.715820	5113.095215	51.563820
394.560333	967.096313	8951.898438	5313.341309	54.431469
394.924042	896.555176	9311.430664	5313.341309	52.487839
395.287659	880.626526	9252.267578	5622.812012	56.645832
395.651245	928.412476	9099.807617	5449.872559	55.332779
396.014771	889.728638	8883.632813	5395.259766	56.362087
396.378296	971.647400	8567.335938	5349.749512	57.639305
396.741791	985.300537	8269.242188	5315.616699	59.450180
397.105255	903.381775	8317.028320	5220.044922	58.225910
397.468628	851.044800	8062.170410	5206.391602	60.397598
397.832001	926.136963	8023.486328	5183.636230	59.987167
398.195313	944.341125	8348.885742	5322.443359	59.127232
398.558624	923.861450	8266.966797	5477.178711	62.008060
398.921844	926.136963	8305.651367	5527.240234	62.349678
399.285095	921.585938	8046.241699	5461.250000	63.717663
399.648254	896.555176	8182.772949	5543.168457	63.772636
400.011383	919.310425	8226.007813	5722.935059	65.742760
400.374451	930.687988	8150.915527	5688.802246	65.899780
400.737549	942.065613	8339.784180	5945.936035	67.640724
401.100586	841.942688	8207.803711	5782.098145	67.068268
401.463562	901.106262	8212.354492	5955.038086	69.125427
401.826508	841.942688	8344.334961	6102.946777	70.124352
402.189392	923.861450	8255.589844	5959.588867	68.684044
402.552246	844.218201	8617.397461	6284.988281	69.994141
402.915070	946.616638	8210.079102	6221.273926	72.619049
403.277893	896.555176	8617.397461	6526.193848	72.914825
403.640656	937.514587	8785.786133	6721.888672	73.702522
404.003326	903.381775	9240.889648	6942.613770	72.434502
404.366028	926.136963	9022.440430	6953.991699	74.451935
404.728699	848.769287	9523.054688	7370.412109	75.183632
405.091248	880.626526	9889.413086	7657.127441	75.221024
405.453857	876.075500	9680.065430	7404.544922	74.153526
405.816345	860.146851	9470.717773	7361.309570	75.502106
406.178833	944.341125	9657.310547	7620.719238	76.625748
406.541260	923.861450	9807.495117	7547.902344	74.564545
406.903687	896.555176	9404.727539	7329.452637	75.608459
407.266052	905.657288	9318.257813	7450.055176	77.792809
407.628387	919.310425	9341.012695	7297.595215	75.736290
407.990662	869.248962	9106.633789	7272.564453	77.734810
408.352905	910.208313	9140.766602	7334.003418	78.048103
408.715118	898.830688	9277.297852	7352.207520	77.023361
409.077332	985.300537	8942.796875	7290.768555	79.239342
409.439484	957.994263	9391.074219	7648.025391	79.330818
409.801575	944.341125	9090.706055	7479.636719	80.223457
410.163605	951.167725	9479.819336	7789.107910	80.176102
410.525635	955.718750	9634.554688	7857.373535	79.522820
410.887604	898.830688	9925.821289	8005.282227	78.724487
411.249573	876.075500	9882.586914	7973.424805	78.802422
411.611481	889.728638	9750.606445	7966.598145	79.866463
411.973328	930.687988	9609.524414	7914.261230	80.466705
412.335144	998.953613	9716.473633	7716.291016	77.055603
412.696930	912.483826	9570.840820	7729.944336	78.738495
413.058685	914.759338	9432.034180	7691.260254	79.561852
413.420410	980.749451	9416.105469	7632.096680	78.850815
413.782104	946.616638	9686.891602	7679.882813	77.037231
414.143707	917.034912	9673.239258	7868.750977	79.391891
414.505310	921.585938	9586.769531	8043.965820	82.195374
414.866852	878.351013	9604.973633	7861.924316	80.026070
415.228394	885.177612	9832.525391	8128.160156	80.951164
415.589874	896.555176	10039.597656	8332.957031	81.333992
415.951324	896.555176	10098.761719	8335.232422	80.835793
416.312683	944.341125	10558.416992	8585.540039	79.479279
416.674072	921.585938	10522.007813	8863.153320	82.721024
417.035370	892.004150	10904.295898	9163.522461	82.613640
417.396667	910.208313	11150.051758	9261.370117	81.555565
417.757935	896.555176	11172.807617	9315.982422	81.930923
418.119141	887.453125	11798.575195	9584.493164	79.708023
418.480286	876.075500	12133.077148	9953.127930	80.634727
418.841400	1005.780212	12551.772461	10139.720703	79.109184
419.202484	885.177612	13034.183594	10749.560547	81.194977
419.563568	937.514587	13361.858398	11090.888672	81.721611
419.924591	937.514587	14260.688477	11784.921875	81.417595
420.285553	889.728638	14219.729492	11796.299805	81.819733
420.646484	898.830688	15389.347656	12499.435547	80.056526
421.007355	878.351013	15753.430664	12856.692383	80.526237
421.368225	853.320313	16620.404297	13505.215820	80.242455
421.729065	892.004150	16961.732422	13992.177734	81.520813
422.089874	860.146851	17610.255859	14365.363281	80.627632
422.450592	942.065613	17207.488281	14260.688477	81.883041
422.811279	851.044800	17189.283203	14406.322266	82.966576
423.171936	953.443237	16948.078125	14069.544922	82.003136
423.532593	876.075500	16868.435547	13648.574219	79.866257
423.893127	935.239075	17287.130859	14181.045898	81.004738
424.253723	928.412476	17521.509766	14313.025391	80.663742
424.614197	985.300537	17291.681641	14210.626953	81.105217
424.974670	955.718750	18163.207031	14715.792969	79.965614
425.335052	978.473938	18185.962891	14918.314453	81.010315
425.695496	953.443237	17214.314453	14208.351563	81.514137
426.055817	989.851563	17341.744141	14292.545898	81.352631
426.416168	969.371887	17255.273438	14137.810547	80.857903
426.776398	939.790100	16233.565430	13220.775391	80.300545
427.136627	887.453125	15805.767578	12581.354492	78.386208
427.496826	939.790100	15589.592773	12549.497070	79.248215
427.856995	955.718750	15164.070313	12180.863281	79.003845
428.217102	903.381775	14529.200195	11684.798828	79.124916
428.577179	967.096313	14192.422852	11518.686523	79.783211
428.937195	828.289551	13976.249023	11295.685547	79.612328
429.297180	862.422363	13291.317383	10879.264648	80.593185
429.657135	926.136963	13418.746094	11297.960938	83.023682
430.017059	996.678101	13600.788086	11131.847656	80.411621
430.376984	923.861450	13423.296875	10922.500000	79.992722
430.736786	907.932800	12945.437500	10842.856445	82.533081
431.096588	955.718750	12977.294922	10756.386719	81.525650
431.456360	876.075500	12972.744141	10886.091797	82.750191
431.816071	957.994263	12738.365234	10289.905273	79.215767
432.175781	926.136963	12879.447266	10706.325195	81.819916
432.535400	930.687988	13029.631836	10663.090820	80.440102
432.895020	866.973450	12697.406250	10535.661133	81.727249
433.254578	923.861450	13034.183594	10663.090820	80.420891
433.614105	989.851563	13534.797852	10947.530273	79.376015
433.973602	892.004150	13514.318359	11040.827148	80.403824
434.333038	876.075500	13846.543945	11024.898438	78.245613
434.692444	894.279663	13737.319336	11045.377930	79.039688
435.051819	901.106262	13973.973633	11434.492188	80.574409
435.411133	921.585938	14046.790039	11443.593750	80.166435
435.770416	967.096313	13075.142578	10751.835938	80.811874
436.129669	919.310425	14026.310547	11671.146484	82.031250
436.488861	917.034912	13527.970703	11104.541992	80.783119
436.848083	907.932800	13562.103516	10899.745117	78.960625
437.207184	903.381775	13564.379883	11054.480469	80.176132
437.566254	851.044800	13769.176758	11534.615234	82.702133
437.925293	857.871338	13862.472656	11459.522461	81.522308
438.284363	896.555176	14165.117188	11584.676758	80.552216
438.643311	926.136963	14342.607422	11516.411133	78.934875
439.002258	962.545288	14240.208984	11632.461914	80.359894
439.361145	901.106262	14888.732422	11803.125977	77.940460
439.719971	903.381775	15325.632813	12440.272461	79.993690
440.078827	937.514587	15557.735352	12592.732422	79.719849
440.437592	932.963501	16090.208008	12818.008789	78.411652
440.796295	855.595825	16153.921875	13154.786133	80.395660
441.155029	887.453125	17064.130859	13801.033203	79.828384
441.513672	948.892151	17375.876953	14274.341797	81.119263
441.872253	864.697876	17205.212891	14187.872070	81.534607
442.230865	903.381775	17075.507813	13905.708008	80.399612
442.589386	932.963501	17048.201172	13603.063477	78.621864
442.947876	905.657288	16386.025391	13553.001953	81.699249
443.306335	862.422363	16399.677734	13238.980469	79.657303
443.664764	885.177612	15828.522461	12940.886719	80.676109
444.023102	882.902100	15726.124023	12959.090820	81.358269
444.381500	910.208313	15553.184570	12749.743164	80.854706
444.739777	873.799988	15783.012695	12968.193359	81.120270
445.098022	932.963501	16247.218750	13129.754883	79.643387
445.456238	880.626526	16413.332031	13159.336914	79.050690
445.814423	880.626526	16677.291016	13621.267578	80.653992
446.172577	912.483826	17821.878906	14290.270508	79.114525
446.530701	957.994263	17901.521484	14404.046875	79.358047
446.888733	907.932800	18104.042969	14925.140625	81.513832
447.246765	903.381775	19371.507813	15519.051758	79.139969
447.604736	964.820801	18572.800781	14975.202148	79.568359
447.962677	896.555176	18768.496094	15216.407227	80.124771
448.320587	894.279663	18971.017578	15541.806641	81.029701
448.678436	926.136963	18231.472656	14888.732422	80.683762
449.036255	882.902100	18135.900391	14706.691406	80.123985
449.394043	887.453125	17089.162109	13973.973633	80.772469
449.751770	919.310425	17455.519531	14183.321289	80.211922
450.109467	876.075500	17139.222656	13659.951172	78.606407
450.467163	876.075500	16954.906250	13675.879883	79.606560
450.824768	892.004150	16747.833984	13350.480469	78.573471
451.182343	901.106262	16508.904297	13373.235352	79.909599
451.539886	846.493713	15787.563477	12761.121094	79.744141
451.897369	889.728638	15821.696289	13045.560547	81.408104
452.254822	955.718750	15910.441406	13004.601563	80.569084
452.612274	889.728638	16365.545898	13070.591797	78.709015
452.969635	937.514587	16042.421875	12979.570313	79.722801
453.326965	826.014038	16147.095703	12945.437500	79.102921
453.684326	839.667175	15985.533203	12738.365234	78.560699
454.041534	905.657288	15421.204102	12437.997070	79.448196
454.398773	989.851563	15239.163086	12196.791016	78.648987
454.755951	903.381775	14704.415039	11885.044922	79.571312
455.113098	953.443237	14333.505859	11589.227539	79.489792
455.470215	878.351013	14886.457031	11723.483398	77.420403
455.827240	905.657288	14467.761719	11596.053711	78.825500
456.184265	939.790100	14344.882813	11441.318359	78.339844
456.541260	853.320313	14563.333008	11532.339844	77.892120
456.898193	905.657288	14338.056641	11534.615234	79.129257
457.255096	816.911987	14451.833008	11916.902344	81.408539
457.611969	910.208313	14347.158203	11548.268555	79.170204
457.968781	894.279663	14338.056641	11666.594727	80.128639
458.325531	930.687988	15052.570313	11989.718750	78.311310
458.682312	928.412476	15685.165039	12176.311523	76.222046
459.039001	939.790100	16511.179688	13125.204102	78.255150
459.395630	892.004150	16929.875000	13819.238281	80.604431
459.752289	876.075500	18545.494141	14786.333984	78.725052
460.108856	914.759338	19642.294922	15855.829102	79.781288
460.465363	926.136963	20502.443359	16333.688477	78.705101
460.821899	876.075500	20427.349609	16174.402344	78.247215
461.178345	848.769287	19778.826172	15771.634766	78.831596
461.534760	994.402588	19205.396484	15439.408203	79.320251
461.891144	889.728638	18263.330078	14631.598633	79.096268
462.247467	901.106262	17312.162109	14351.709961	81.960617
462.603760	962.545288	17223.416016	13719.115234	78.449486
462.960052	910.208313	16577.169922	13166.163086	78.228027
463.316254	910.208313	16010.564453	12695.130859	78.044006
463.672424	896.555176	15864.930664	12595.007813	78.154465
464.028564	878.351013	15259.642578	12230.923828	78.939873
464.384644	930.687988	15182.274414	12192.240234	79.019646
464.740723	901.106262	15448.510742	12465.302734	79.493195
465.096741	914.759338	15384.795898	12221.822266	78.141220
465.452698	871.524475	15296.050781	12103.495117	77.867172
465.808655	969.371887	15293.775391	12151.281250	78.061951
466.164520	901.106262	15225.509766	12210.444336	78.951546
466.520355	889.728638	15871.757813	12786.151367	79.404617
466.876190	937.514587	16067.452148	12902.203125	79.079559
467.231964	973.922913	16215.361328	12970.468750	78.710060
467.587677	857.871338	16661.363281	13182.091797	77.984161
467.943390	871.524475	16588.546875	13785.105469	82.163025
468.299011	907.932800	16153.921875	12856.692383	78.373138
468.654633	928.412476	16035.594727	12977.294922	79.755989
469.010223	923.861450	16190.330078	12736.089844	77.373680
469.365723	896.555176	15539.531250	12276.434570	77.715614
469.721191	903.381775	15596.419922	12535.843750	79.169891
470.076660	901.106262	15139.040039	11914.626953	77.353363
470.432068	901.106262	15500.847656	12367.455078	78.538025
470.787445	923.861450	14993.406250	12046.607422	79.055481
471.142792	903.381775	15107.182617	12276.434570	80.070488
471.498016	896.555176	15343.836914	12476.680664	80.154358
471.853271	903.381775	15626.000977	12117.148438	76.166924
472.208496	896.555176	15337.009766	12412.965820	79.751022
472.563660	903.381775	15687.440430	12569.976563	78.913345
472.918762	905.657288	15717.022461	12765.671875	80.073746
473.273865	939.790100	16420.158203	13122.928711	78.700577
473.628876	907.932800	16577.169922	13193.469727	78.405457
473.983917	919.310425	16845.679688	13157.061523	76.839554
474.338837	898.830688	16690.945313	13432.399414	79.365990
474.693787	869.248962	16456.566406	13380.062500	80.262772
475.048645	951.167725	16502.076172	12949.989258	77.158333
475.403503	957.994263	16643.158203	13370.959961	79.138260
475.758270	889.728638	16795.619141	13414.195313	78.741058
476.113037	898.830688	16827.476563	13427.848633	78.657143
476.467773	948.892151	17202.937500	13518.869141	77.334450
476.822418	937.514587	18122.248047	14328.954102	77.926369
477.177063	889.728638	17742.236328	14128.708984	78.557922
477.531647	807.809875	18110.869141	14479.138672	79.011055
477.886200	896.555176	18891.373047	15048.019531	78.641891
478.240723	932.963501	19030.179688	15159.519531	78.611839
478.595184	866.973450	19457.978516	15555.459961	79.008560
478.949585	905.657288	19592.234375	15705.644531	79.201172
479.303986	873.799988	19685.531250	15760.256836	79.133904
479.658325	969.371887	19931.287109	16040.146484	79.479172
480.012634	873.799988	20090.572266	16003.738281	78.732986
480.366913	887.453125	20579.810547	16413.332031	78.842155
480.721130	926.136963	21146.414063	16989.039063	79.439575
481.075317	844.218201	22136.265625	17457.794922	78.027145
481.429474	937.514587	23082.882813	17908.349609	76.633789
481.783569	914.759338	24038.601563	19137.130859	78.803391
482.137604	926.136963	25083.066406	19931.287109	78.673698
482.491669	923.861450	27929.742188	21995.183594	78.024940
482.845612	866.973450	30978.939453	24254.775391	77.669464
483.199554	951.167725	34697.140625	27176.544922	77.714096
483.553436	896.555176	40647.628906	32344.251953	79.111565
483.907318	857.871338	47194.300781	37846.460938	79.826157
484.261139	928.412476	53442.882813	43273.578125	80.635231
484.614899	860.146851	55315.636719	45558.203125	82.081818
484.968628	869.248962	55247.371094	45351.128906	81.801056
485.322357	907.932800	52143.558594	42128.992188	80.453903
485.675964	932.963501	48812.195313	39184.468750	79.891640
486.029572	914.759338	44577.453125	35461.714844	79.122368
486.383148	894.279663	41990.183594	33081.519531	78.322266
486.736694	939.790100	39962.695313	31463.626953	78.220306
487.090149	962.545288	39990.003906	31329.371094	77.808876
487.443604	903.381775	41186.925781	32401.140625	78.190140
487.796997	914.759338	42966.382813	34531.027344	79.940475
488.150360	880.626526	44199.714844	35409.378906	79.707939
488.503693	955.718750	45096.269531	35407.105469	78.049294
488.856964	942.065613	44233.847656	34783.609375	78.170822
489.210175	901.106262	41532.804688	32842.589844	78.612228
489.563416	910.208313	39173.089844	30328.140625	76.883728
489.916565	898.830688	37065.957031	29056.125000	77.853287
490.269653	989.851563	34660.734375	27119.656250	77.603561
490.622772	946.616638	33559.378906	26559.878906	78.537544
490.975769	871.524475	33727.769531	26266.335938	77.290665
491.328735	855.595825	35097.632813	28093.580078	79.545464
491.681732	853.320313	37154.703125	29461.167969	78.806496
492.034607	946.616638	39655.500000	31176.910156	78.096527
492.387482	935.239075	40040.062500	31875.496094	79.121330
492.740326	901.106262	39107.101563	30660.367188	77.891602
493.093079	864.697876	36990.867188	29461.167969	79.157219
493.445862	848.769287	33832.441406	26589.460938	78.040710
493.798523	917.034912	31297.513672	24618.859375	78.016624
494.151215	923.861450	28680.664063	22265.970703	76.889656
494.503815	960.269775	26939.890625	21107.730469	77.551018
494.856384	919.310425	25576.853516	19674.152344	76.061279
495.208923	976.198425	24252.500000	18977.843750	77.338943
495.561432	964.820801	23756.437500	18358.902344	76.317894
495.913879	873.799988	23333.189453	18399.861328	78.034454
496.266296	871.524475	23847.457031	18718.433594	77.676537
496.618683	853.320313	23688.171875	18695.679688	78.136528
496.970978	910.208313	24309.388672	19007.425781	77.341248
497.323273	896.555176	24543.767578	19125.751953	77.088142
497.675507	912.483826	24869.166016	19382.886719	77.099167
498.027710	923.861450	24885.095703	19205.396484	76.296303
498.379852	885.177612	24334.419922	19091.619141	77.641914
498.731995	835.116150	24263.878906	18934.609375	77.253304
499.084076	898.830688	23697.273438	18572.800781	77.522705
499.436096	903.381775	23563.017578	18531.841797	77.796753
499.788086	928.412476	22828.025391	17926.552734	77.618454
500.140106	937.514587	22605.023438	17580.673828	76.811600
500.491943	903.381775	22097.582031	17380.427734	77.743187
500.843842	885.177612	21731.224609	16941.251953	77.022156
501.195679	844.218201	21267.017578	16809.271484	78.172699
501.547455	855.595825	20795.984375	16536.208984	78.637451
501.899231	912.483826	20807.361328	16203.983398	76.861496
502.250885	917.034912	20695.861328	16131.166992	76.921310
502.602600	855.595825	20666.279297	15967.329102	76.280724
502.954193	978.473938	20331.779297	16197.157227	78.636101
503.305786	898.830688	20097.400391	16251.769531	79.969177
503.657379	994.402588	20600.289063	16133.442383	77.216812
504.008820	898.830688	20283.992188	16213.085938	78.999878
504.360291	923.861450	20916.587891	16329.137695	77.054405
504.711700	903.381775	21280.669922	16461.117188	76.348404
505.063080	898.830688	20957.546875	16433.810547	77.447525
505.414368	862.422363	21121.384766	16208.535156	75.749748
505.765656	944.341125	20893.832031	16126.616211	76.103577
506.116943	896.555176	20570.708984	16115.238281	77.353683
506.468109	878.351013	20477.412109	16147.095703	77.905495
506.819305	917.034912	20709.515625	16026.493164	76.339386
507.170410	919.310425	20472.861328	15958.227539	76.911438
507.521484	846.493713	20830.117188	15951.400391	75.586426
507.872559	944.341125	20468.310547	15965.053711	76.934731
508.223480	955.718750	20802.810547	16051.523438	76.060539
508.574493	951.167725	21201.027344	16465.667969	76.615349
508.925385	866.973450	21619.722656	16488.423828	75.274124
509.276245	905.657288	21692.539063	16675.015625	75.862068
509.627045	928.412476	21826.794922	17068.681641	77.232147
509.977814	903.381775	22104.408203	17312.162109	77.396164
510.328613	889.728638	22493.523438	17428.212891	76.553604
510.679260	878.351013	22404.777344	17516.958984	77.293869
511.029999	851.044800	22498.074219	17728.582031	77.966988
511.380585	926.136963	23010.066406	17571.572266	75.373520
511.731140	917.034912	22960.005859	17892.419922	77.010422
512.081726	896.555176	23219.414063	17856.011719	75.973495
512.432129	821.463013	23360.496094	18468.126953	78.293793
512.782654	876.075500	23592.599609	18261.054688	76.530106
513.133057	967.096313	23685.896484	18402.136719	76.742790
513.483398	921.585938	23326.363281	18395.310547	77.991066
513.833801	976.198425	23510.681641	18424.892578	77.431084
514.183960	992.127075	23180.730469	18047.156250	76.863914
514.534302	887.453125	23062.404297	17689.898438	75.772186
514.884460	939.790100	23101.087891	17853.736328	76.321999
515.234619	914.759338	22700.595703	17835.531250	77.668678
515.584717	903.381775	22630.054688	17400.908203	75.932137
515.934753	955.718750	22812.095703	18060.808594	78.261322
516.284851	932.963501	22800.718750	17992.542969	78.012489
516.634766	955.718750	23353.669922	17967.511719	75.952454
516.984741	901.106262	23531.160156	18117.697266	76.078438
517.334595	903.381775	24561.970703	18900.476563	76.070030
517.684448	946.616638	25192.291016	19610.437500	76.977943
518.034363	953.443237	26371.009766	19960.869141	74.780670
518.384094	889.728638	27592.964844	20839.218750	74.708138
518.733826	905.657288	28503.173828	22074.828125	76.706795
519.083496	869.248962	29174.453125	22507.175781	76.445045
519.433167	869.248962	29190.380859	22593.646484	76.707375
519.782776	951.167725	28798.992188	22400.226563	77.022385
520.132324	896.555176	28682.939453	21794.937500	75.210876
520.481873	882.902100	28089.029297	21628.826172	76.254601
520.831299	887.453125	27445.056641	21053.119141	75.931801
521.180786	871.524475	26710.062500	20354.533203	75.402908
521.530151	923.861450	26441.550781	20299.921875	75.931877
521.879517	901.106262	25572.302734	19794.755859	76.581818
522.228882	907.932800	26163.937500	19562.652344	73.862511
522.578064	885.177612	25167.259766	19794.755859	77.874619
522.927307	987.576050	25843.089844	19824.337891	75.785042
523.276489	983.024963	25408.464844	19901.705078	77.454819
523.625610	885.177612	25720.210938	19819.787109	76.241531
523.974792	896.555176	26330.050781	20388.666016	76.639526
524.323792	894.279663	26948.992188	20704.962891	76.034935
524.672852	905.657288	27251.636719	21187.375000	76.982208
525.021790	907.932800	28532.755859	22038.419922	76.490944
525.370728	953.443237	29859.384766	23121.566406	76.690544
525.719604	869.248962	31752.617188	24536.941406	76.635727
526.068420	855.595825	33252.183594	25428.945313	75.851662
526.417297	921.585938	34401.324219	26225.376953	75.579414
526.765991	864.697876	35429.859375	27194.750000	76.175125
527.114746	978.473938	36399.230469	28075.375000	76.500061
527.463379	928.412476	38160.484375	28908.216797	75.149742
527.812012	919.310425	40156.117188	30799.173828	76.152634
528.160706	887.453125	43601.253906	33996.281250	77.513184
528.509155	880.626526	48680.214844	37885.144531	77.415977
528.857727	910.208313	52662.378906	41949.226563	79.299126
529.206177	876.075500	55422.585938	44807.281250	80.538986
529.554565	914.759338	55893.617188	44349.902344	79.003357
529.902893	896.555176	54414.527344	43127.945313	78.910667
530.251221	896.555176	51624.742188	39539.449219	76.176376
530.599548	921.585938	47813.242188	36547.140625	75.974190
530.947876	880.626526	43831.082031	33848.371094	76.757614
531.296021	951.167725	40561.160156	31156.431641	76.256676
531.644165	860.146851	37823.707031	29213.136719	76.705254
531.992249	901.106262	36424.261719	27831.894531	75.811928
532.340454	860.146851	35673.339844	27775.007813	77.312248
532.688354	894.279663	35812.144531	27545.179688	76.324547
533.036438	932.963501	37254.828125	28578.265625	76.112015
533.384338	919.310425	39241.355469	30084.660156	76.105927
533.732239	894.279663	41368.968750	31741.240234	76.212967
534.080139	898.830688	41471.367188	31839.087891	76.259117
534.427917	914.759338	41070.875000	31183.736328	75.378242
534.775757	894.279663	38809.007813	30002.742188	76.773499
535.123474	914.759338	37329.917969	28248.314453	75.060921
535.471191	935.239075	35120.386719	26787.431641	75.624046
535.818848	844.218201	33673.156250	25783.925781	75.968666
536.166382	880.626526	32387.488281	25028.453125	76.643074
536.513977	971.647400	33295.421875	25301.515625	75.269272
536.861511	989.851563	33488.839844	25358.404297	74.982498
537.208984	910.208313	33909.812500	25645.119141	74.955170
537.556396	939.790100	33673.156250	25624.640625	75.411888
537.903809	919.310425	32683.304688	25201.392578	76.445305
538.251160	892.004150	31452.248047	23961.234375	75.487717
538.598389	889.728638	30077.833984	23355.945313	76.970451
538.945740	957.994263	28899.113281	22288.726563	76.341728
539.292969	910.208313	28714.796875	22042.970703	76.004585
539.640137	923.861450	28694.316406	21967.876953	75.778435
539.987244	873.799988	29049.298828	22420.707031	76.473915
540.334351	955.718750	30350.896484	22930.423828	74.756157
540.681458	898.830688	31850.464844	24468.675781	76.150566
541.028442	912.483826	34895.113281	26675.929688	75.813576
541.375366	917.034912	37766.820313	29536.259766	77.664566
541.722290	807.809875	41066.324219	31704.832031	76.746552
542.069153	871.524475	42975.484375	32762.949219	75.744476
542.416016	864.697876	42650.085938	32710.611328	76.213043
542.762756	848.769287	41535.082031	32128.078125	76.879196
543.109558	964.820801	40224.382813	30812.828125	76.027359
543.456299	862.422363	38444.925781	29520.332031	76.253326
543.802917	896.555176	36324.136719	28273.345703	77.275360
544.149536	939.790100	35074.878906	26386.939453	74.548355
544.496094	912.483826	32967.746094	24926.054688	74.913040
544.842651	992.127075	31331.646484	23922.550781	75.579391
545.189148	937.514587	29586.322266	22509.451172	75.297852
545.535583	923.861450	28871.808594	22265.970703	76.363785
545.882019	887.453125	28048.070313	21590.140625	76.223183
546.228333	917.034912	27715.843750	21544.630859	76.972061
546.574707	957.994263	27693.087891	21050.843750	75.155334
546.920898	926.136963	27727.220703	21355.763672	76.226868
547.267212	898.830688	27906.986328	21667.509766	76.897804
547.613342	896.555176	27549.730469	21480.916016	77.230423
547.959473	864.697876	27440.505859	20948.445313	75.571541
548.305664	919.310425	26305.019531	20281.716797	76.272858
548.651611	926.136963	25237.800781	19480.734375	76.319733
548.997742	953.443237	24325.316406	18975.568359	77.110313
549.343689	876.075500	23233.068359	18006.195313	76.620857
549.689575	1001.229126	22313.757813	17239.345703	76.190468
550.035522	983.024963	21517.324219	16497.525391	75.554077
550.381287	951.167725	20909.759766	16010.564453	75.453201
550.727173	898.830688	21050.843750	15557.735352	72.741638
551.072876	905.657288	20436.453125	15610.072266	75.288361
551.418640	882.902100	20290.818359	15414.377930	74.873962
551.764282	846.493713	19985.898438	15341.561523	75.734161
552.109863	882.902100	20181.593750	15307.428711	74.743546
552.455505	939.790100	20500.166016	15446.235352	74.162407
552.801025	939.790100	20634.421875	15619.174805	74.534958
553.146545	855.595825	20964.373047	15585.041992	73.248840
553.491943	930.687988	21128.210938	15980.982422	74.515549
553.837341	894.279663	20905.208984	16003.738281	75.506035
554.182800	898.830688	20916.587891	15687.440430	73.877449
554.528015	973.922913	20238.482422	15421.204102	74.994095
554.873352	882.902100	19630.917969	15141.315430	76.052917
555.218628	907.932800	19965.419922	15132.212891	74.638809
555.563721	898.830688	19435.222656	14802.262695	75.006134
555.908875	912.483826	19062.037109	14465.485352	74.674026
556.254028	914.759338	18490.882813	14185.596680	75.504913
556.599121	889.728638	18545.494141	14306.199219	75.989174
556.944031	901.106262	18588.728516	13962.595703	73.845360
557.289063	921.585938	18408.962891	13832.890625	73.832138
557.633972	930.687988	18531.841797	13816.961914	73.212662
557.978882	944.341125	18288.361328	13694.083984	73.510887
558.323792	942.065613	17953.859375	13541.624023	74.063675
558.668518	892.004150	17860.562500	13427.848633	73.876900
559.013306	985.300537	17817.328125	13468.807617	74.165199
559.358032	894.279663	17628.458984	13446.052734	75.006805
559.702637	905.657288	17746.787109	13614.441406	75.462784
560.047363	889.728638	17603.429688	13195.745117	73.628319
560.391846	905.657288	17744.511719	13259.459961	73.364868
560.736450	937.514587	17769.541016	13421.021484	74.165199
561.080933	926.136963	17915.175781	13571.206055	74.430748
561.425354	898.830688	18327.044922	13653.125000	73.181870
561.769775	914.759338	18106.318359	13587.134766	73.712776
562.114136	905.657288	17821.878906	13648.574219	75.329575
562.458496	901.106262	18238.298828	13616.716797	73.342957
562.802673	907.932800	18361.177734	13716.839844	73.389839
563.146912	869.248962	17906.072266	13655.400391	75.050087
563.491150	919.310425	17817.328125	13318.623047	73.377319
563.835266	905.657288	17937.929688	13227.602539	72.344696
564.179443	937.514587	18065.359375	13298.143555	72.166862
564.523438	844.218201	17919.726563	13405.092773	73.560768
564.867493	992.127075	17933.378906	13493.837891	73.794495
565.211426	894.279663	18295.187500	13698.634766	73.584412
565.555359	905.657288	18506.810547	13985.350586	74.311577
565.899231	942.065613	18884.546875	14105.953125	73.367157
566.243042	882.902100	19398.814453	14328.954102	72.618904
566.586914	914.759338	19694.632813	14715.792969	73.488426
566.930603	907.932800	20133.808594	15038.916992	73.499825
567.274292	896.555176	20293.093750	15157.244141	73.521828
567.617981	912.483826	20122.429688	15036.641602	73.525238
567.961609	928.412476	19888.052734	14886.457031	73.619774
568.305237	921.585938	19168.986328	14344.882813	73.562790
568.648682	923.861450	18957.363281	14472.312500	75.129341
568.992188	921.585938	18509.085938	14226.555664	75.650146
569.335632	901.106262	18465.851563	13869.298828	73.830795
569.679016	873.799988	18559.148438	13923.912109	73.790535
570.022461	928.412476	18502.259766	13730.492188	72.847336
570.365662	860.146851	18725.259766	13967.146484	73.366455
570.708984	937.514587	18561.423828	13980.799805	74.009033
571.052185	914.759338	18647.892578	13887.503906	73.155403
571.395386	917.034912	19130.302734	14130.984375	72.551231
571.738525	926.136963	19628.642578	14627.047852	73.257088
572.081604	876.075500	20099.675781	15050.294922	73.733429
572.424683	896.555176	20290.818359	15211.856445	73.812035
572.767578	887.453125	20500.166016	15029.814453	72.108131
573.110596	862.422363	20172.492188	15141.315430	73.945320
573.453552	873.799988	20249.859375	14927.416016	72.530830
573.796387	912.483826	20065.542969	14916.039063	73.113937
574.139282	969.371887	19594.509766	14704.415039	73.744652
574.481995	876.075500	19355.580078	14661.180664	74.596725
574.824768	1012.606750	19316.896484	14474.587891	73.545502
575.167480	923.861450	19528.519531	14410.873047	72.492661
575.510132	944.341125	19107.548828	14404.046875	74.104240
575.852722	921.585938	19244.080078	14144.637695	72.168404
576.195251	901.106262	19098.445313	14203.800781	73.102409
576.537842	967.096313	18859.515625	14019.483398	72.949257
576.880188	976.198425	18572.800781	13958.044922	73.774734
577.222717	946.616638	18185.962891	13541.624023	73.059662
577.565063	930.687988	17940.205078	13318.623047	72.829437
577.907410	889.728638	17589.775391	13088.795898	73.048103
578.249756	907.932800	17093.712891	12697.406250	72.838463
578.591919	871.524475	16663.638672	12415.241211	73.097984
578.934204	948.892151	16267.698242	12271.883789	73.915627
579.276306	978.473938	16370.096680	11973.790039	71.437019
579.618469	853.320313	15889.961914	11753.064453	72.487892
579.960571	853.320313	15519.051758	11768.993164	74.429787
580.302551	921.585938	15421.204102	11602.880859	73.666046
580.644531	939.790100	15503.123047	11386.706055	71.734375
580.986511	964.820801	15323.357422	11291.133789	71.917580
581.328369	964.820801	14852.324219	11216.041992	73.816147
581.670227	930.687988	15013.886719	11282.032227	73.501366
582.012024	905.657288	14440.455078	11131.847656	75.554810
582.353821	887.453125	14838.670898	10870.163086	71.554398
582.695496	973.922913	14699.864258	11145.500977	74.104774
583.037231	944.341125	14408.597656	10904.295898	73.973297
583.378845	873.799988	14763.579102	11031.724609	73.132370
583.720398	919.310425	14504.169922	10669.916992	71.775543
584.062012	892.004150	14406.322266	10704.049805	72.604813
584.403442	912.483826	14551.955078	10886.091797	73.123131
584.744934	955.718750	14303.923828	10747.285156	73.354927
585.086365	907.932800	14283.444336	10526.559570	71.912216
585.427734	942.065613	14242.484375	10890.642578	74.798973
585.768982	901.106262	14035.412109	10699.499023	74.601524
586.110291	907.932800	14042.239258	10533.385742	73.284821
586.451599	903.381775	13935.289063	10371.824219	72.655846
586.792725	901.106262	14035.412109	10624.406250	74.029800
587.133850	951.167725	13937.564453	10603.926758	74.329773
587.474915	935.239075	14269.791016	10594.825195	72.440277
587.815979	907.932800	14224.280273	10717.703125	73.667122
588.157043	923.861450	14053.616211	10569.793945	73.466202
588.497925	871.524475	14258.413086	10706.325195	73.465919
588.838867	967.096313	14276.617188	10676.743164	72.952637
589.179749	985.300537	14397.219727	10924.775391	74.109268
589.520569	921.585938	14588.364258	10886.091797	72.910423
589.861450	892.004150	14576.986328	11099.990234	74.592613
590.202087	978.473938	14624.772461	10990.765625	73.370018
590.542847	871.524475	14886.457031	11161.429688	73.421013
590.883484	939.790100	15070.774414	11195.562500	72.576492
591.224121	939.790100	14840.946289	11047.653320	72.712395
591.564636	905.657288	14759.028320	10892.917969	72.092636
591.905151	971.647400	14599.741211	11209.215820	75.121056
592.245667	935.239075	14620.220703	10713.152344	71.449959
592.585999	882.902100	14306.199219	10688.121094	73.046280
592.926453	882.902100	14222.004883	10644.886719	73.183220
593.266724	912.483826	14130.984375	10692.671875	73.988632
593.607056	882.902100	14215.178711	10681.294922	73.493767
593.947388	876.075500	14322.127930	10667.641602	72.821121
594.287476	910.208313	14303.923828	10813.274414	73.938156
594.627686	894.279663	14467.761719	10879.264648	73.562447
594.967773	898.830688	14820.466797	11022.623047	72.719849
595.307861	928.412476	14811.365234	10995.316406	72.512703
595.647888	898.830688	14838.670898	10938.428711	72.020897
595.987854	882.902100	15170.897461	11621.084961	75.155281
596.327820	926.136963	15441.684570	11527.788086	73.036522
596.667725	928.412476	15842.175781	11703.003906	72.245964
597.007568	930.687988	16609.025391	12169.485352	71.683601
597.347351	948.892151	16923.048828	12720.161133	73.689453
597.687073	926.136963	17582.949219	12886.274414	71.803276
598.026794	969.371887	17089.162109	12840.763672	73.644829
598.366455	905.657288	16597.648438	12130.801758	71.534225
598.706116	926.136963	16208.535156	12003.372070	72.483620
599.045654	851.044800	15662.410156	11552.819336	72.253799
599.385193	901.106262	14931.967773	11022.623047	72.137527
599.724731	898.830688	14438.179688	10904.295898	73.899162
600.064087	939.790100	14251.586914	10560.692383	72.273506
600.403564	828.289551	14151.463867	10478.773438	72.433823
600.742920	887.453125	13714.563477	10066.904297	71.562889
601.082153	935.239075	13746.420898	10126.067383	71.740677
601.421387	905.657288	13550.726563	10050.975586	72.323196
601.760620	919.310425	13375.511719	9891.688477	72.031418
602.099854	887.453125	13566.655273	9980.434570	71.715721
602.438843	987.576050	13776.002930	10210.261719	72.117439
602.778015	994.402588	13755.523438	10408.232422	73.769615
603.117065	876.075500	14592.915039	10560.692383	70.603851
603.456055	978.473938	14542.853516	10963.458984	73.611809
603.794983	989.851563	15011.610352	11113.643555	72.200584
604.133850	905.657288	15578.215820	11659.768555	73.294044
604.472778	935.239075	16119.789063	11689.350586	70.822723
604.811584	948.892151	16672.740234	12246.852539	71.852386
605.150330	905.657288	16954.906250	12351.527344	71.317169
605.489075	930.687988	17243.896484	12676.926758	72.004463
605.827698	898.830688	17152.875000	12790.702148	73.162537
606.166382	878.351013	16731.904297	12335.598633	72.269272
606.504883	887.453125	16147.095703	11985.167969	72.725914
606.843445	1023.984375	15653.307617	11388.981445	70.850830
607.181946	923.861450	15284.672852	10908.846680	69.529396
607.520386	928.412476	14774.957031	10906.571289	72.062447
607.858826	910.208313	14240.208984	10590.273438	72.618637
608.197083	953.443237	13962.595703	10476.498047	73.202728
608.535461	871.524475	14133.259766	10219.364258	70.487305
608.873718	866.973450	14174.218750	10465.120117	72.127220
609.211914	919.310425	14322.127930	10765.489258	73.463501
609.550171	953.443237	14963.825195	10836.030273	70.537598
609.888245	800.983337	15205.030273	11193.287109	72.148499
610.226318	901.106262	15557.735352	11500.482422	72.317963
610.564392	955.718750	15528.154297	11532.339844	72.579636
610.902344	905.657288	15220.958984	11675.697266	75.234459
611.240295	955.718750	15116.285156	11557.370117	74.867424
611.578247	923.861450	14715.792969	11411.737305	76.043564
611.916138	894.279663	14308.474609	11561.920898	79.525024
612.253845	892.004150	14108.228516	10738.182617	74.500694
612.591675	955.718750	13798.757813	10462.844727	74.025513
612.929382	851.044800	13380.062500	10335.415039	75.699234
613.267090	914.759338	12849.866211	9873.484375	75.061958
613.604736	889.728638	12724.711914	9923.545898	76.331474
613.942261	830.565063	12699.681641	9529.880859	73.293709
614.279785	866.973450	12522.191406	9559.462891	74.580238
614.617310	932.963501	12349.250977	9582.217773	75.762405
614.954712	923.861450	12244.577148	9327.359375	74.231155
615.292175	926.136963	12048.882813	9172.624023	74.140747
615.629517	930.687988	12092.117188	9118.011719	73.353722
615.966797	923.861450	12119.423828	9168.073242	73.638214
616.304138	896.555176	11978.341797	9249.992188	75.379875
616.641296	942.065613	12110.321289	8942.796875	71.638145
616.978516	942.065613	11991.994141	8888.184570	71.911041
617.315552	967.096313	12048.882813	8856.327148	71.190971
617.652771	885.177612	12069.362305	8815.367188	70.905388
617.989685	892.004150	11896.422852	9168.073242	75.206779
618.326721	878.351013	11969.239258	9036.092773	73.553543
618.663696	839.667175	12069.362305	9143.042969	73.941238
619.000549	912.483826	12073.913086	9045.195313	72.864426
619.337463	873.799988	12135.352539	9106.633789	73.105675
619.674194	866.973450	11848.636719	8626.499023	70.658928
620.010986	910.208313	11830.432617	8917.765625	73.327766
620.347778	926.136963	11805.402344	8888.184570	73.185524
620.684387	928.412476	12039.780273	8792.612305	70.776161
621.020996	969.371887	11862.290039	8606.019531	70.106537
621.357605	971.647400	11709.830078	8633.326172	71.349861
621.694214	894.279663	11545.992188	8599.193359	72.334969
622.030579	932.963501	11675.697266	8408.049805	69.582726
622.367065	846.493713	11482.278320	8428.529297	71.287979
622.703430	892.004150	11543.716797	8453.559570	70.989105
623.039795	978.473938	11322.991211	8389.844727	71.645393
623.376160	871.524475	11464.074219	8389.844727	70.977440
623.712402	942.065613	11459.522461	8444.458008	71.332764
624.048645	914.759338	11498.207031	8476.315430	71.447006
624.384766	873.799988	11400.359375	8437.630859	71.854729
624.720886	946.616638	11357.124023	8467.212891	72.240433
625.057007	901.106262	11384.430664	8631.050781	73.735619
625.392944	914.759338	11596.053711	8633.326172	72.262474
625.729004	855.595825	11709.830078	8376.192383	69.287216
626.064941	871.524475	11912.351563	8769.857422	71.537514
626.400818	910.208313	11987.443359	9029.266602	73.294983
626.736633	873.799988	12306.016602	9220.410156	73.009552
627.072449	917.034912	12558.599609	9268.196289	71.735725
627.408264	864.697876	12524.466797	9263.645508	72.033569
627.743896	919.310425	12649.620117	9229.512695	70.843842
628.079590	919.310425	12804.355469	9354.666016	70.974533
628.415161	951.167725	12492.609375	9054.296875	70.208984
628.750793	994.402588	12021.576172	9070.225586	73.235657
629.086365	926.136963	12039.780273	8681.112305	69.778877
629.421753	917.034912	11900.973633	8558.233398	69.567017
629.757263	894.279663	11743.962891	8583.264648	70.868286
630.092651	998.953613	11509.583984	8467.212891	71.054337
630.427917	964.820801	11291.133789	8419.426758	72.190399
630.763184	898.830688	11204.664063	8408.049805	72.863777
631.098511	917.034912	11020.347656	8244.211914	72.522522
631.433716	946.616638	10879.264648	8182.772949	72.852234
631.768799	967.096313	10756.386719	8116.782715	73.035805
632.103943	894.279663	10751.835938	7930.189941	71.375801
632.438965	901.106262	10719.978516	8005.282227	72.352257
632.773987	866.973450	10405.957031	7775.454590	72.423660
633.109070	930.687988	10469.670898	7764.077148	71.636459
633.443848	951.167725	10537.936523	7761.801270	71.042015
633.778870	971.647400	10565.243164	7668.504883	69.805496
634.113708	985.300537	10519.732422	7745.873047	70.906921
634.448425	994.402588	10742.733398	7761.801270	69.421097
634.783264	980.749451	10724.529297	7773.179199	69.710419
635.117859	882.902100	10492.426758	7729.944336	71.252663
635.452576	912.483826	10490.151367	7927.914551	73.247795
635.787170	919.310425	10164.750977	7463.708008	70.785133
636.121704	932.963501	10492.426758	7343.105469	67.055466
636.456177	885.177612	10141.996094	7572.933105	72.246803
636.790588	862.422363	10101.037109	7509.218750	71.945808
637.125122	919.310425	9884.862305	7329.452637	71.497467
637.459412	885.177612	10087.383789	7197.472168	68.595451
637.793762	887.453125	9964.505859	7236.156250	69.942337
638.128052	932.963501	9616.350586	7083.696289	70.833344
638.462280	892.004150	9623.177734	7029.083984	70.289291
638.796509	957.994263	9518.503906	7065.492188	71.345024
639.130615	892.004150	9320.533203	7001.777344	72.489197
639.464722	912.483826	9479.819336	7051.838867	71.660027
639.798767	885.177612	9368.319336	6842.491211	70.225319
640.132751	932.963501	9090.706055	6735.541504	71.129700
640.466736	830.565063	9445.686523	6835.664551	69.704178
640.800598	917.034912	9199.930664	6826.562500	71.346153
641.134521	903.381775	9024.715820	6683.204590	71.168388
641.468262	919.310425	8901.836914	6580.806152	70.923607
641.802063	896.555176	8958.725586	6501.163086	69.517357
642.135803	873.799988	8945.072266	6548.948730	70.312943
642.469421	919.310425	8947.347656	6621.765625	71.031746
642.803101	985.300537	8767.582031	6426.070801	69.912285
643.136658	919.310425	8869.980469	6382.835938	68.717796
643.470215	901.106262	8685.663086	6366.907227	70.213387
643.803711	851.044800	8592.366211	6514.815918	73.162849
644.137085	928.412476	8692.489258	6489.785156	71.629539
644.470581	864.697876	8742.550781	6364.631836	69.815140
644.803833	937.514587	8526.375977	6544.397949	73.883064
645.137207	907.932800	8697.040039	6275.886230	68.916161
645.470459	869.248962	8610.570313	6391.937988	71.340393
645.803589	853.320313	8489.967773	6228.100586	70.381409
646.136780	907.932800	8603.744141	6410.142090	71.496155
646.469849	957.994263	8674.285156	6394.213379	70.451195
646.802979	935.239075	8683.387695	6369.182617	70.132156
647.135986	921.585938	8731.172852	6250.855469	68.240097
647.468994	942.065613	8569.611328	6492.061035	72.762535
647.801941	917.034912	8776.683594	6234.926758	67.660683
648.134766	826.014038	8681.112305	6278.162109	69.409035
648.467651	917.034912	8758.479492	6423.795410	70.226357
648.800354	878.351013	8637.876953	6335.049805	70.322578
649.133179	928.412476	8571.886719	6382.835938	71.360527
649.465881	905.657288	8592.366211	6394.213379	71.403198
649.798462	960.269775	8913.214844	6405.590820	68.469238
650.131104	871.524475	8474.039063	6134.804199	69.230774
650.463623	932.963501	8742.550781	6241.753418	67.977852
650.796143	948.892151	8610.570313	6312.294922	70.002975
651.128662	955.718750	8715.245117	6535.295898	71.906158
651.461060	896.555176	8760.754883	6416.968750	70.196762
651.793396	887.453125	8537.753906	6316.845703	70.969658
652.125732	898.830688	8558.233398	6373.733887	71.479507
652.458008	983.024963	8658.356445	6303.192383	69.315147
652.790222	955.718750	8537.753906	6410.142090	71.938774
653.122437	1017.157776	8715.245117	6303.192383	68.666855
653.454529	955.718750	8496.794922	6164.385742	69.070602
653.786621	887.453125	8417.151367	6203.069824	70.595345
654.118713	923.861450	8444.458008	6050.609863	68.169441
654.450623	953.443237	8401.222656	6230.375977	70.852432
654.782654	898.830688	8269.242188	6218.998535	72.182777
655.114502	898.830688	8367.089844	6198.518555	70.962830
655.446350	912.483826	8137.262207	6112.048828	71.968506
655.778198	907.932800	8294.273438	5918.629395	67.837334
656.109863	957.994263	8119.058105	5902.701172	69.049896
656.441650	960.269775	8289.722656	6018.752441	69.015823
656.773254	869.248962	8196.425781	6011.925781	70.186333
657.104919	980.749451	8000.730957	5838.986328	69.205833
657.436462	873.799988	8064.445801	6061.987305	72.151894
657.767944	860.146851	8248.762695	6043.783203	70.157066
658.099548	841.942688	8378.467773	6205.345215	71.165459
658.430908	862.422363	8621.948242	6319.121094	70.322578
658.762268	946.616638	8685.663086	6396.488770	70.420464
659.093628	921.585938	8849.500000	6553.500000	71.039040
659.424927	914.759338	9197.655273	6690.031250	69.725281
659.756226	894.279663	9538.983398	6910.756836	69.597260
660.087341	930.687988	9552.636719	7054.114258	71.021370
660.418518	935.239075	9602.698242	7060.940918	70.674713
660.749573	905.657288	9736.953125	7070.042969	69.801598
661.080627	898.830688	9498.023438	6992.675293	70.865318
661.411621	992.127075	9088.429688	6671.827148	70.151779
661.742554	923.861450	9031.541992	6726.439453	71.568901
662.073547	876.075500	8890.459961	6482.958984	69.960251
662.404297	932.963501	8753.928711	6284.988281	68.431770
662.735229	901.106262	8367.089844	6287.264160	72.142639
663.065979	926.136963	8373.916992	6093.844727	69.385880
663.396667	878.351013	8269.242188	5829.884277	66.995079
663.727417	996.678101	7857.373535	5768.445313	69.552238
664.057922	937.514587	7925.639160	5761.618652	69.032883
664.388611	903.381775	7766.352539	5779.822754	71.054375
664.719116	939.790100	7739.046387	5556.821777	67.904953
665.049622	823.738525	7450.055176	5613.709961	72.287094
665.380005	873.799988	7566.106445	5590.954590	70.486229
665.710388	942.065613	7616.167969	5597.781250	69.757927
666.040771	912.483826	7468.259277	5631.914063	71.988892
666.371033	848.769287	7611.617188	5629.638672	70.693138
666.701294	889.728638	7511.494141	5554.546387	70.446739
667.031555	948.892151	7390.891602	5511.311523	70.823036
667.361633	896.555176	7616.167969	5440.770020	67.626144
667.691772	957.994263	7661.678711	5531.791016	68.228104
668.021790	898.830688	7538.800293	5472.627441	68.882797
668.351807	926.136963	7361.309570	5515.862305	71.322495
668.681763	942.065613	7461.432617	5367.953613	67.888313
669.011719	898.830688	7582.035156	5461.250000	68.266945
669.341614	873.799988	7641.198730	5606.883301	69.939476
669.671387	892.004150	7586.586426	5593.229980	70.224335
670.001221	939.790100	7684.433594	5559.097168	68.488525
670.330933	919.310425	7641.198730	5700.179688	71.123901
670.660583	901.106262	7529.698242	5556.821777	70.236870
670.990173	903.381775	7493.290039	5513.586914	69.958565
671.319763	914.759338	7402.269043	5602.332031	72.255348
671.649292	932.963501	7208.850098	5336.096191	70.159531
671.978821	921.585938	7283.941895	5413.463867	70.600861
672.308289	919.310425	7281.666504	5354.300293	69.706718
672.637695	969.371887	7274.839844	5456.698730	71.165642
672.966980	930.687988	7047.288086	5279.208496	71.093750
673.296326	873.799988	7138.308594	5274.657227	70.250641
673.625610	930.687988	7249.809082	5181.360840	67.266838
673.954773	919.310425	7170.166016	5154.054688	67.746635
674.283936	860.146851	6979.022461	4967.461914	67.125320
674.613037	976.198425	7133.757813	5015.248047	65.594971
674.942078	876.075500	7074.594238	5103.993164	68.208519
675.271118	894.279663	7063.216797	5119.921875	68.498711
675.600098	901.106262	6815.184570	4978.839355	68.949600
675.928955	948.892151	6899.378906	5119.921875	70.095604
676.257813	971.647400	6890.276855	4935.604492	66.974243
676.586670	903.381775	7042.736816	5083.513672	68.087479
676.915466	932.963501	6849.317383	5044.829590	69.500000
677.244141	930.687988	6837.939941	5042.554199	69.607094
677.572876	910.208313	6885.726074	4987.941406	68.240669
677.901489	819.187500	6876.624023	5049.380859	69.834709
678.230042	887.453125	6951.715820	5040.278809	68.480309
678.558594	937.514587	6992.675293	5083.513672	68.470505
678.887085	944.341125	7013.155273	5081.237793	68.166473
679.215515	917.034912	6899.378906	5231.422363	72.118683
679.543945	912.483826	7047.288086	5006.145996	66.728485
679.872253	903.381775	7220.227539	5242.799805	68.695961
680.200562	971.647400	7324.901367	5392.984375	69.591690
680.528809	930.687988	7452.330566	5495.382813	69.993027
680.856995	946.616638	7418.197754	5572.750488	71.483826
681.185120	907.932800	7497.840820	5538.617676	70.269341
681.513306	846.493713	7393.166992	5438.494629	70.142509
681.841309	942.065613	7688.984863	5543.168457	68.195610
682.169373	873.799988	7513.769531	5231.422363	65.627144
682.497314	960.269775	7427.299805	5490.831543	70.056290
682.825134	946.616638	7384.064941	5388.433105	68.999641
683.153076	946.616638	7434.126465	5361.126953	68.046295
683.480896	919.310425	7154.237305	5251.901855	69.489052
683.808655	967.096313	7122.379883	5065.309082	66.580406
684.136414	848.769287	7149.686523	5108.544434	67.605644
684.464050	894.279663	6903.930176	5078.962402	69.632713
684.791626	903.381775	6662.725098	4896.920898	69.340179
685.119263	921.585938	6778.776367	4824.104004	66.627815
685.446838	912.483826	6642.245117	4956.084473	70.571884
685.774292	976.198425	6517.091797	4805.899902	69.117035
686.101685	882.902100	6544.397949	4737.634277	68.086815
686.429077	987.576050	6503.438477	4760.389648	68.399338
686.756348	930.687988	6444.274902	4812.726563	70.408585
687.083679	942.065613	6291.814941	4719.430176	70.608253
687.410950	880.626526	6278.162109	4799.073242	72.596962
687.738159	889.728638	6462.479004	4767.216309	69.579430
688.065308	942.065613	6589.908203	4869.614746	69.540695
688.392395	969.371887	6726.439453	4810.451172	66.719376
688.719421	951.167725	6605.836914	4946.982422	70.663986
689.046448	980.749451	6599.010254	4749.011719	67.071686
689.373413	983.024963	6510.265137	4708.052734	67.393990
689.700317	953.443237	6539.846680	4669.368652	66.517311
690.027100	985.300537	6426.070801	4708.052734	68.423256
690.353943	973.922913	6296.366211	4619.307129	68.490807
690.680725	903.381775	6312.294922	4475.949219	66.049637
691.007446	894.279663	6264.508789	4553.316895	68.135590
691.334106	912.483826	6114.324219	4519.184082	69.335083
691.660645	926.136963	5984.619629	4416.785645	69.005844
691.987244	889.728638	6018.752441	4482.775879	70.053238
692.313721	962.545288	5775.271973	4380.377441	71.016541
692.640259	935.239075	5943.660156	4255.224121	66.288063
692.966675	944.341125	5768.445313	4237.019531	68.254715
693.293030	1026.259888	5759.343262	4330.315918	69.807686
693.619324	901.106262	5652.393555	4277.979004	71.072800
693.945618	898.830688	5634.189453	4196.060547	69.629990
694.271851	930.687988	5761.618652	4123.243652	66.085724
694.598083	928.412476	5615.985352	4084.559814	67.330101
694.924194	930.687988	5609.158691	4098.212891	67.704277
695.250244	1005.780212	5549.995117	4155.101074	69.303963
695.576294	964.820801	5561.373047	4093.661865	68.069305
695.902283	919.310425	5547.719727	4034.498291	67.305801
696.228210	837.391663	5552.270996	4202.886719	71.380302
696.554138	932.963501	5609.158691	4089.110840	67.493919
696.879944	846.493713	5772.996094	4248.397461	69.053123
697.205750	878.351013	5861.741699	4277.979004	68.219177
697.531433	882.902100	5832.159668	4416.785645	71.402290
697.857178	923.861450	5984.619629	4341.693848	67.535973
698.182739	930.687988	6039.232422	4539.664063	70.645882
698.508423	882.902100	6307.743652	4733.083496	70.973152
698.833984	894.279663	6462.479004	4915.125000	72.210869
699.159485	880.626526	6783.327637	4985.666016	69.545105
699.484924	935.239075	7108.727051	5117.646484	67.747879
699.810303	944.341125	7063.216797	5233.697754	70.100403
700.135681	932.963501	6994.951172	5258.728516	71.358856
700.460999	942.065613	7242.982910	5261.003906	68.544594
700.786255	848.769287	6776.500977	5088.064453	71.516312
701.111450	903.381775	6799.256348	4835.481934	66.692398
701.436646	917.034912	6583.081543	4680.746094	66.425697
701.761719	866.973450	6141.630859	4546.490723	69.758415
702.086792	882.902100	5975.517578	4334.867188	67.783737
702.411865	873.799988	5909.527344	4300.734375	68.052414
702.736816	857.871338	5804.853516	4130.070313	66.145355
703.061646	880.626526	5656.944824	3991.263428	65.126251
703.386536	814.636475	5529.515625	3932.099854	66.119690
703.711365	907.932800	5372.504395	3998.090088	69.215088
704.036194	905.657288	5306.514648	3913.895752	68.355736
704.360901	878.351013	5103.993164	3793.293213	68.982231
704.685547	844.218201	5088.064453	3743.231689	68.310989
705.010132	907.932800	5078.962402	3699.996826	66.939438
705.334717	914.759338	5108.544434	3627.180176	64.677155
705.659302	960.269775	4830.930664	3777.364502	72.780716
705.983765	901.106262	5108.544434	3734.129639	67.333694
706.308228	912.483826	4972.013184	3629.455566	66.928246
706.632568	919.310425	4949.257813	3554.363525	65.386795
706.956909	880.626526	4810.451172	3654.486328	70.584824
707.281189	978.473938	4883.267578	3595.322754	67.016319
707.605408	957.994263	4956.084473	3634.006836	66.932274
707.929626	889.728638	4869.614746	3704.547852	70.726128
708.253784	969.371887	4880.992188	3672.690674	69.109947
708.577820	983.024963	4851.410156	3659.037354	69.176476
708.901855	903.381775	4997.043457	3659.037354	67.315178
709.225830	914.759338	4969.737305	3797.844238	71.099892
709.549805	880.626526	4997.043457	3699.996826	68.490883
709.873718	926.136963	4985.666016	3588.496338	65.582962
710.197510	960.269775	4899.196289	3663.588379	68.630844
710.521362	955.718750	5049.380859	3720.476563	67.537521
710.845093	905.657288	5092.615723	3631.731201	65.108696
711.168701	892.004150	5154.054688	3900.242676	70.581947
711.492432	903.381775	5067.584961	3966.232666	73.551910
711.816040	887.453125	5308.790039	3986.712402	70.097786
712.139587	923.861450	5349.749512	3829.701416	65.655518
712.463074	930.687988	5295.136719	3834.252441	66.527634
712.786499	892.004150	5324.718750	3929.824463	68.531822
713.109924	871.524475	5281.483887	3950.304199	69.814240
713.433350	917.034912	5172.258789	3859.283203	69.144386
713.756592	882.902100	5110.819824	3922.997803	71.905266
714.079834	896.555176	5115.370605	3704.547852	66.558792
714.403015	880.626526	4940.155762	3768.262451	71.132286
714.726196	985.300537	4965.186523	3765.986816	69.868492
715.049255	926.136963	5049.380859	3747.782715	68.432663
715.372375	980.749451	4810.451172	3720.476563	71.538918
715.695435	998.953613	4865.063477	3629.455566	68.040024
716.018311	826.014038	4985.666016	3686.343750	68.763680
716.341248	935.239075	4951.533203	3638.557861	67.308784
716.664063	976.198425	4985.666016	3659.037354	66.912598
716.987000	948.892151	4962.910645	3554.363525	64.909302
717.309692	837.391663	5008.421387	3643.108887	67.266777
717.632385	955.718750	4794.522461	3542.985840	67.397743
717.955078	985.300537	4744.460938	3502.026611	66.949150
718.277649	987.576050	4865.063477	3522.506104	65.375587
718.600220	928.412476	4703.501465	3411.005615	65.762512
718.922791	887.453125	4530.562012	3381.423828	68.457207
719.245300	905.657288	4396.306152	3476.995850	73.663628
719.567688	880.626526	4551.041504	3310.882813	66.212029
719.890015	942.065613	4389.479492	3283.576416	67.920792
720.212341	932.963501	4423.612305	3201.657715	64.993484
720.534607	880.626526	4362.173340	3183.453613	66.143791
720.856873	887.453125	4141.447754	3140.218750	69.230774
721.179016	923.861450	4139.172363	3083.330566	67.162064
721.501160	889.728638	4025.396240	3140.218750	71.770691
721.823242	926.136963	4066.355713	3158.422852	71.086952
722.145264	846.493713	4057.253662	3119.739014	70.800850
722.467224	917.034912	4000.365479	2953.625977	66.051659
722.789185	969.371887	4016.294189	2987.758789	66.243469
723.111023	898.830688	3941.202148	3062.851074	71.129395
723.432861	889.728638	4002.641113	2889.911377	64.254379
723.754578	914.759338	4041.324951	3044.646729	68.122269
724.076294	937.514587	3975.334961	2978.656738	67.191010
724.397949	912.483826	3861.558838	2990.034424	70.447533
724.719666	892.004150	4018.569824	2990.034424	67.103348
725.041260	898.830688	3916.171387	2837.574463	64.253387
725.362732	862.422363	4036.773926	2969.554688	66.379929
725.684265	919.310425	4014.018799	3044.646729	68.676468
726.005676	942.065613	4014.018799	2962.728027	65.777771
726.327087	882.902100	4093.661865	2935.421875	63.926296
726.648438	932.963501	3963.957275	2999.136475	68.168167
726.969666	882.902100	3943.477539	2987.758789	68.773232
727.290894	882.902100	4221.091309	3053.749023	65.030670
727.612061	919.310425	4041.324951	3071.953125	68.950432
727.933228	894.279663	4084.559814	3192.555664	72.039940
728.254395	903.381775	4180.131836	3094.708252	66.874992
728.575378	869.248962	4232.468750	3058.300049	65.087959
728.896301	898.830688	4209.713379	3158.422852	68.247429
729.217285	917.034912	4227.917480	3167.524902	67.972511
729.538147	964.820801	4248.397461	3151.596191	66.597359
729.858948	894.279663	4248.397461	3206.208740	68.928085
730.179810	892.004150	4246.121582	3062.851074	64.721855
730.500549	885.177612	4207.437988	3137.943115	67.808220
730.821228	903.381775	4109.590332	3272.198975	73.882195
731.141846	930.687988	4166.478516	3137.943115	68.213783
731.462402	914.759338	4120.968262	3124.290039	68.914124
731.782898	937.514587	4223.366699	3242.617188	70.152351
732.103455	960.269775	4150.549805	3281.301025	72.753212
732.423889	901.106262	4412.234863	3226.688477	66.234604
732.744263	939.790100	4291.632324	3244.892578	68.771210
733.064636	937.514587	4325.765137	3190.280273	66.487579
733.384888	914.759338	4321.213867	3131.116699	65.063469
733.705200	862.422363	4161.927734	3140.218750	69.034477
734.025330	882.902100	4193.784668	3060.575439	65.773201
734.345520	971.647400	4307.561035	3176.626953	66.098221
734.665527	923.861450	4132.345703	3215.310791	71.418434
734.985596	917.034912	4082.284424	3124.290039	69.734001
735.305542	887.453125	4093.661865	3056.024414	67.636620
735.625549	841.942688	4082.284424	2992.309814	66.362358
735.945435	917.034912	4014.018799	2942.248291	65.393089
736.265259	903.381775	3932.099854	2985.483398	68.745308
736.585083	853.320313	3868.385254	2996.860840	71.094337
736.904785	914.759338	3875.211914	2930.870850	68.101463
737.224426	887.453125	3977.610352	2887.635986	64.727547
737.544128	912.483826	3888.864990	2862.605225	65.519882
737.863708	912.483826	3861.558838	2862.605225	66.126541
738.183289	978.473938	3907.069336	2853.503174	64.024864
738.502808	873.799988	3850.181152	2949.074951	69.724770
738.822205	894.279663	3900.242676	2878.533936	66.010605
739.141541	889.728638	3936.650879	2974.105713	68.409256
739.460938	862.422363	3934.375488	2892.187012	66.074074
739.780212	892.004150	4023.120850	3003.687500	67.441864
740.099426	830.565063	4020.845215	2944.523926	66.262482
740.418640	901.106262	3941.202148	3074.228516	71.482033
740.737793	846.493713	3950.304199	3008.238525	69.648094
741.056885	878.351013	3948.028564	2899.013428	65.826538
741.375977	898.830688	3770.538086	2980.932129	72.503960
741.694946	926.136963	3884.313965	2976.381104	69.307693
742.013855	923.861450	3697.721191	2869.431641	70.139458
742.332703	896.555176	3699.996826	2851.227539	69.724022
742.651550	928.412476	3643.108887	2798.890625	68.901932
742.970398	980.749451	3761.435791	2798.890625	65.384621
743.289124	914.759338	3561.189941	2814.819336	71.797081
743.607788	944.341125	3661.312988	2812.543701	68.760468
743.926453	905.657288	3631.731201	2691.941162	65.525879
744.245056	985.300537	3554.363525	2739.727051	68.290520
744.563599	989.851563	3611.251465	2610.022461	61.805561
744.882141	928.412476	3561.189941	2637.328613	64.909256
745.200500	851.044800	3465.618164	2757.931152	72.932983
745.518860	892.004150	3570.292236	2625.950928	64.740860
745.837219	846.493713	3495.199951	2600.920166	66.237114
746.155518	944.341125	3479.271240	2548.583252	63.285458
746.473755	926.136963	3492.924316	2598.644775	65.159576
746.791992	880.626526	3342.739990	2637.328613	71.349358
747.110107	898.830688	3381.423828	2660.083740	70.944084
747.428162	887.453125	3486.097900	2546.307861	63.835381
747.746216	910.208313	3390.525879	2521.277100	64.954132
748.064148	905.657288	3522.506104	2516.726074	61.565224
748.382080	955.718750	3420.107666	2516.726074	63.342571
748.700073	926.136963	3483.822266	2546.307861	63.345200
749.017822	896.555176	3329.086914	2678.288086	73.246033
749.335632	876.075500	3449.689453	2603.195801	67.108757
749.653320	946.616638	3552.087891	2726.073975	68.296944
749.971008	907.932800	3429.209961	2575.889648	66.155235
750.288696	889.728638	3376.872803	2641.879639	70.448311
750.606262	910.208313	3388.250488	2537.205811	65.656570
750.923828	846.493713	3458.791504	2550.858887	65.243912
751.241272	889.728638	3508.853027	2625.950928	66.290176
751.558716	869.248962	3561.189941	2689.665527	67.624680
751.876038	898.830688	3481.546875	2591.818115	65.550652
752.193481	978.473938	3483.822266	2541.756836	62.397827
752.510681	871.524475	3401.903564	2521.277100	65.197845
752.827942	987.576050	3367.770752	2480.317627	62.715099
753.145081	901.106262	3408.730225	2600.920166	67.785835
753.462219	917.034912	3319.984863	2628.226563	71.212120
753.779297	855.595825	3308.607178	2548.583252	69.016701
754.096375	914.759338	3253.994629	2525.828125	68.871605
754.413330	926.136963	3347.291016	2537.205811	66.541359
754.730286	901.106262	3420.107666	2559.960938	65.853661
755.047119	878.351013	3142.494141	2580.440674	75.175888
755.363892	989.851563	3333.637939	2573.614014	67.572815
755.680725	928.412476	3370.046387	2521.277100	65.237656
755.997498	921.585938	3238.066162	2473.491211	66.994110
756.314148	866.973450	3279.025391	2423.429688	64.528305
756.630737	901.106262	3156.147461	2462.113525	69.223007
756.947327	960.269775	3181.177979	2366.541748	63.319679
757.263855	935.239075	3281.301025	2480.317627	65.858391
757.580261	926.136963	3213.035400	2430.256104	65.771141
757.896729	910.208313	3308.607178	2503.072998	66.413673
758.213074	953.443237	3310.882813	2512.175049	66.119698
758.529419	887.453125	3436.036377	2464.388916	61.874996
758.845642	946.616638	3433.760986	2441.633789	60.109787
759.161865	942.065613	3456.516113	2537.205811	63.438919
759.478149	885.177612	3476.995850	2562.236328	64.705872
759.794189	837.391663	3372.321777	2569.062988	68.312393
760.110229	905.657288	3447.414063	2541.756836	64.368851
760.426270	926.136963	3411.005615	2503.072998	63.461544
760.742249	926.136963	3399.628174	2544.032227	65.409378
761.058105	921.585938	3438.312012	2587.267090	66.184441
761.374023	944.341125	3372.321777	2528.103516	65.229614
761.689819	923.861450	3413.281250	2614.573486	67.915901
762.005554	921.585938	3449.689453	2623.675537	67.326736
762.321289	885.177612	3431.485352	2594.093750	67.113503
762.636902	921.585938	3399.628174	2571.338623	66.574844
762.952515	948.892151	3517.955078	2691.941162	67.847656
763.268127	964.820801	3461.067139	2778.410889	72.652687
763.583618	926.136963	3629.455566	2803.441650	69.444450
763.899048	919.310425	4107.314941	3028.718262	66.167030
764.214478	942.065613	4485.051270	3258.545898	65.382149
764.529785	987.576050	4778.593750	3304.056152	61.104439
764.845093	905.657288	4981.115234	3552.087891	64.935783
765.160400	901.106262	4824.104004	3604.425049	68.909515
765.475586	987.576050	4635.235840	3347.291016	64.691200
765.790771	866.973450	4462.296387	3313.158203	68.037971
766.105835	914.759338	4268.876953	3169.800537	67.232025
766.420837	939.790100	3988.988037	2974.105713	66.716415
766.735840	885.177612	3982.161377	2933.146240	66.127846
767.050842	787.330200	3797.844238	2821.645752	67.573692
767.365662	887.453125	3715.925537	2796.614990	67.497986
767.680542	846.493713	3659.037354	2719.247314	66.585762
767.995300	953.443237	3602.149414	2732.900391	67.182129
768.309998	892.004150	3408.730225	2557.685303	66.184441
768.624817	866.973450	3467.893799	2589.542725	66.229225
768.939392	939.790100	3374.597412	2612.297852	68.691589
769.254028	935.239075	3240.341553	2553.134277	70.187561
769.568481	957.994263	3345.015625	2498.521729	64.537643
769.882935	944.341125	3222.137451	2462.113525	66.633369
770.197388	919.310425	3188.004639	2427.980713	66.499496
770.511841	923.861450	3147.045166	2391.572266	66.018425
770.826172	1003.504700	3065.126465	2359.715088	65.783669
771.140442	967.096313	3126.565674	2264.143311	60.063232
771.454651	930.687988	3071.953125	2400.674561	68.650375
771.768860	939.790100	3026.442627	2341.510986	67.175575
772.082886	837.391663	2955.901611	2330.133301	70.461868
772.397034	917.034912	3065.126465	2341.510986	66.313568
772.711060	889.728638	3069.677490	2255.041016	62.630482
773.025024	889.728638	2960.452637	2305.102539	68.351639
773.338928	1030.810913	2969.554688	2389.296875	70.070419
773.652771	864.697876	3044.646729	2207.255127	61.586643
773.966614	926.136963	2980.932129	2309.653564	67.331123
774.280457	910.208313	2933.146240	2284.622803	67.941505
774.594116	914.759338	2894.462402	2195.877686	64.712654
774.907776	853.320313	2953.625977	2207.255127	64.463707
775.221375	880.626526	2853.503174	2152.642578	64.475197
775.534912	910.208313	2817.094727	2061.621826	60.381863
775.848450	898.830688	2899.013428	2148.091553	62.457336
776.161926	882.902100	2855.778564	2107.132324	62.053059
776.475342	860.146851	2823.921387	2070.723877	61.645420
776.788696	905.657288	2807.992676	2075.274902	61.483250
777.101990	892.004150	2817.094727	2086.652588	62.056740
777.415283	901.106262	2848.952148	2154.918213	64.369156
777.728516	887.453125	2805.717041	2125.336426	64.531441
778.041626	835.116150	2705.594238	2104.856689	67.883209
778.354736	910.208313	2844.401123	2102.581299	61.647060
778.667725	864.697876	2714.696289	2177.673340	70.971710
778.980774	935.239075	2764.757813	2070.723877	62.064674
779.293640	823.738525	2785.237549	2154.918213	67.865425
779.606567	930.687988	2694.216553	2082.101563	65.290329
779.919434	951.167725	2755.655762	2100.305664	63.682213
780.232239	948.892151	2607.746826	2093.479248	68.998634
780.544983	907.932800	2698.767578	2109.407715	67.090218
780.857666	937.514587	2771.584229	2145.816162	65.880898
781.170227	866.973450	2712.420898	2102.581299	66.954376
781.482849	912.483826	2680.563477	2034.315552	63.449169
781.795410	976.198425	2687.390137	2098.030273	65.558510
782.107910	903.381775	2719.247314	2075.274902	64.536339
782.420288	921.585938	2666.910400	2029.764526	63.494129
782.732666	826.014038	2591.818115	1952.396851	63.788662
783.044983	876.075500	2639.604248	1984.254150	62.838707
783.357300	889.728638	2564.511963	1968.325439	64.402168
783.669495	905.657288	2528.103516	1902.335449	61.430580
783.981689	901.106262	2496.246338	1988.805176	68.188301
784.293762	841.942688	2443.909424	1922.815063	67.471581
784.605835	960.269775	2512.175049	1927.366089	62.316711
784.917908	957.994263	2562.236328	1827.243164	54.184399
785.229858	955.718750	2425.705078	1879.580200	62.848301
785.541748	930.687988	2503.072998	1943.294800	64.399422
785.853577	905.657288	2487.144287	1945.570313	65.755394
786.165405	860.146851	2478.042236	1920.539551	65.541489
786.477173	921.585938	2430.256104	1856.824951	61.990952
786.788879	967.096313	2448.460449	1902.335449	63.133644
787.100525	930.687988	2418.878662	1838.620850	61.009174
787.412109	928.412476	2398.398926	1881.855713	64.860680
787.723694	885.177612	2384.745850	1854.549438	64.643394
788.035156	923.861450	2387.021240	1888.682251	65.940903
788.346558	964.820801	2530.379150	1897.784302	59.593021
788.658081	1010.331238	2571.338623	1997.907227	63.265301
788.969360	939.790100	2566.787354	1947.845825	61.958046
789.280640	932.963501	2612.297852	2063.897461	67.344177
789.591919	866.973450	2660.083740	2013.835938	63.959396
789.903076	928.412476	2721.522949	2068.448486	63.578682
790.214172	803.258850	2726.073975	1970.601074	60.710060
790.525269	960.269775	2507.624023	1970.601074	65.294121
790.836365	928.412476	2562.236328	2018.386963	66.713097
791.147339	930.687988	2544.032227	1911.437500	60.789848
791.458191	864.697876	2464.388916	2043.417725	73.684219
791.769104	887.453125	2384.745850	1868.202637	65.501518
792.079895	917.034912	2448.460449	1868.202637	62.109955
792.390686	878.351013	2346.062012	1877.304688	68.062019
792.701416	919.310425	2366.541748	1843.171875	63.836475
793.012085	926.136963	2371.092773	1799.937012	60.472443
793.322693	853.320313	2259.592041	1756.702026	64.239487
793.633240	892.004150	2311.929199	1804.488037	64.262817
793.943787	907.932800	2270.969727	1779.457275	63.939903
794.254272	848.769287	2416.603027	1863.651489	64.731491
794.564636	828.289551	2325.582275	1813.590088	65.805473
794.875000	962.545288	2314.204590	1752.151001	58.417511
795.185303	873.799988	2321.031250	1790.834839	63.364780
795.495544	894.279663	2346.062012	1834.069824	64.733543
795.805786	903.381775	2266.418701	1786.283813	64.774628
796.115906	932.963501	2307.378174	1786.283813	62.086090
796.426025	839.667175	2414.327637	1854.549438	64.450867
796.736023	923.861450	2387.021240	1929.641602	68.740280
797.045959	973.922913	2361.990479	1838.620850	62.295086
797.355896	964.820801	2405.225586	1888.682251	64.139015
797.665833	939.790100	2398.398926	1865.927002	63.494534
797.975708	910.208313	2387.021240	1929.641602	69.029274
798.285461	910.208313	2439.358398	1802.212524	58.333332
798.595154	857.871338	2400.674561	1749.875488	57.817104
798.904846	869.248962	2250.489990	1779.457275	65.897865
799.214478	907.932800	2241.387939	1849.998413	70.648468
799.524109	878.351013	2361.990479	1829.518677	64.110435
799.833557	835.116150	2305.102539	1847.722900	68.885452
800.143005	880.626526	2179.948975	1761.253052	67.775826
800.452393	898.830688	2289.173828	1777.181763	63.175129
800.761780	957.994263	2198.153076	1802.212524	68.073402
801.071106	942.065613	2234.561523	1756.702026	63.028164
801.380371	928.412476	2113.958740	1722.569214	66.986565
801.689575	885.177612	2061.621826	1731.671387	71.953583
801.998718	896.555176	2189.051025	1749.875488	66.021126
802.307800	832.840637	2168.571289	1683.885376	63.713795
802.616882	944.341125	2145.816162	1718.018188	64.393936
802.925903	937.514587	2164.020264	1711.191650	63.079781
803.234863	946.616638	2207.255127	1720.293701	61.371845
803.543701	903.381775	2173.122314	1699.814087	62.724022
803.852539	894.279663	2145.816162	1727.120239	66.545448
804.161316	907.932800	2041.142212	1738.497925	73.293167
804.470032	1014.882263	2127.612061	1692.987427	60.940689
804.778809	898.830688	2079.825928	1704.365112	68.208099
805.087341	878.351013	2132.163086	1702.089600	65.698730
805.395935	935.239075	2113.958740	1699.814087	64.864868
805.704468	944.341125	2150.367188	1770.355225	68.490562
806.012939	912.483826	2109.407715	1711.191650	66.730049
806.321350	896.555176	2173.122314	1720.293701	64.527634
806.629761	919.310425	2200.428711	1727.120239	63.055054
806.938049	926.136963	2236.836914	1743.048950	62.326393
807.246277	955.718750	2186.775391	1715.742676	61.737526
807.554504	880.626526	2191.326416	1702.089600	62.673618
807.862671	917.034912	2150.367188	1743.048950	66.974167
808.170715	896.555176	2152.642578	1815.865601	73.188416
808.478821	848.769287	2118.509766	1724.844727	68.996414
808.786804	905.657288	2093.479248	1743.048950	70.498077
809.094727	841.942688	2102.581299	1681.609863	66.606491
809.402649	928.412476	2116.234375	1633.823975	59.386974
809.710510	905.657288	2152.642578	1733.946899	66.423363
810.018311	855.595825	2082.101563	1665.681274	66.048241
810.326050	907.932800	1952.396851	1656.579102	71.677551
810.633667	853.320313	2054.795166	1640.650513	65.530312
810.941345	901.106262	2054.795166	1631.548462	63.313618
811.248901	944.341125	2161.744873	1601.966675	54.018688
811.556396	901.106262	1963.774414	1631.548462	68.736618
811.863892	964.820801	2043.417725	1556.456177	54.852314
812.171326	892.004150	2027.489014	1617.895264	63.927856
812.478699	892.004150	2013.835938	1638.375000	66.531441
812.786011	955.718750	2032.040039	1538.252075	54.122623
813.093262	946.616638	2082.101563	1567.833862	54.709423
813.400391	848.769287	2032.040039	1508.670288	55.769230
813.707642	878.351013	2027.489014	1595.140137	62.376247
814.014709	892.004150	1959.223389	1613.344238	67.590622
814.321716	837.391663	1936.468262	1538.252075	63.768108
814.628723	851.044800	1902.335449	1581.486938	69.480515
814.935669	907.932800	1934.192627	1565.558350	64.079834
815.242554	901.106262	1995.631714	1583.762451	62.370064
815.549438	880.626526	1988.805176	1617.895264	66.529770
815.856201	887.453125	2004.733887	1597.415649	63.543789
816.162964	914.759338	1915.988525	1592.864502	67.727264
816.469604	898.830688	1961.498901	1617.895264	67.665955
816.776184	930.687988	1950.121338	1652.028076	70.758926
817.082825	919.310425	2011.560425	1595.140137	61.875004
817.389343	923.861450	1934.192627	1581.486938	65.090088
817.695801	917.034912	1966.049927	1556.456177	60.954445
818.002197	935.239075	2041.142212	1599.691162	60.082306
818.308533	903.381775	2043.417725	1567.833862	58.283436
818.614868	944.341125	1988.805176	1642.926025	66.884529
818.921143	887.453125	1993.356201	1545.078613	59.465019
819.227356	939.790100	2018.386963	1645.201538	65.400841
819.533447	930.687988	2043.417725	1624.721802	62.372181
819.839539	939.790100	2123.060791	1677.058838	62.307697
820.145569	892.004150	2132.163086	1758.977539	69.908249
820.451538	864.697876	2223.183838	1722.569214	63.149075
820.757568	898.830688	2289.173828	1824.967651	66.612114
821.063416	917.034912	2539.481201	1943.294800	63.253860
821.369263	905.657288	2639.604248	2061.621826	66.666664
821.675049	871.524475	2735.176025	2068.448486	64.224670
821.980713	907.932800	2919.493164	2230.010498	65.723984
822.286438	960.269775	3219.861816	2446.184814	65.760323
822.592102	860.146851	4105.039551	2980.932129	65.357635
822.897583	894.279663	6223.549316	4348.520020	64.816391
823.203125	894.279663	8628.774414	5982.344238	65.784058
823.508545	951.167725	10360.446289	6826.562500	62.442562
823.813965	921.585938	10524.284180	7179.268066	65.165871
824.119263	935.239075	9548.084961	6287.264160	62.140030
824.424622	864.697876	8175.946289	5436.219238	62.527233
824.729858	951.167725	6922.134277	4719.430176	63.109753
825.035095	998.953613	5955.038086	4120.968262	62.993572
825.340149	810.085388	5340.647461	3722.751953	64.289299
825.645264	907.932800	4760.389648	3392.801514	64.500885
825.950256	957.994263	4268.876953	3194.831299	67.560135
826.255310	869.248962	4009.467773	2983.207764	67.318840
826.560242	885.177612	3968.508301	2726.073975	59.704800
826.865112	885.177612	3765.986816	2660.083740	61.611378
827.169922	860.146851	3588.496338	2648.706299	65.554626
827.474670	880.626526	3718.200928	2703.318604	64.234161
827.779419	960.269775	4145.999023	3087.881836	66.785713
828.084045	928.412476	4805.899902	3426.934326	64.436623
828.388672	912.483826	5169.983398	3690.894775	65.259216
828.693176	926.136963	4949.257813	3515.679688	64.366516
828.997681	942.065613	4512.357910	3313.158203	66.411720
829.302124	841.942688	3952.579590	2860.329590	64.886612
829.606567	930.687988	3474.720215	2516.726074	62.343475
829.910828	951.167725	3206.208740	2373.368164	63.067608
830.215149	951.167725	2908.115479	2166.295898	62.093029
830.519348	892.004150	2769.308838	2118.509766	65.333328
830.823547	932.963501	2662.359375	1888.682251	55.263157
831.127686	937.514587	2537.205811	1918.264038	61.308674
831.431763	830.565063	2409.776611	1913.713013	68.587891
831.735779	919.310425	2332.408936	1802.212524	62.479870
832.039734	912.483826	2293.724854	1631.548462	52.059319
832.343628	855.595825	2207.255127	1722.569214	64.141411
832.647461	819.187500	2102.581299	1658.854614	65.425522
832.951233	880.626526	2107.132324	1588.313477	57.699436
833.255127	873.799988	2150.367188	1663.405762	61.853840
833.558777	921.585938	2134.438477	1720.293701	65.853661
833.862366	921.585938	2305.102539	1870.478149	68.585533
834.165955	951.167725	2596.369141	1922.815063	59.059475
834.469482	885.177612	3094.708252	2293.724854	63.748703
834.773010	912.483826	3376.872803	2464.388916	62.973221
835.076416	901.106262	3522.506104	2619.124512	65.538200
835.379822	914.759338	3536.159424	2521.277100	61.284721
835.683105	923.861450	3206.208740	2368.817139	63.310074
835.986389	917.034912	2996.860840	2220.908203	62.691463
836.289612	917.034912	2676.012451	2138.989502	69.469597
836.592773	896.555176	2496.246338	1929.641602	64.580368
836.895874	996.678101	2439.358398	1872.753662	60.725552
837.198914	937.514587	2407.500977	1813.590088	59.597527
837.501892	937.514587	2284.622803	1727.120239	58.614868
837.804871	901.106262	2120.785400	1670.232300	63.059700
838.107666	855.595825	1997.907227	1720.293701	75.697212
838.410583	835.116150	1870.478149	1558.731689	69.890099
838.713379	910.208313	1920.539551	1513.221313	59.684685
839.016052	960.269775	1895.508789	1385.792114	45.498779
839.318787	848.769287	1813.590088	1415.373901	58.726410
839.621338	964.820801	1772.630737	1424.476074	56.901413
839.923889	866.973450	1777.181763	1417.649414	60.499992
840.226440	912.483826	1729.395752	1388.067749	58.217281
840.528931	946.616638	1900.059814	1558.731689	64.200478
840.831299	946.616638	2043.417725	1572.384888	57.053944
841.133606	873.799988	1956.947876	1604.242188	67.436974
841.435913	942.065613	1984.254150	1642.926025	67.248909
841.738220	955.718750	1966.049927	1535.976563	57.432438
842.040405	901.106262	1852.273926	1572.384888	70.574165
842.342529	853.320313	1820.416626	1424.476074	59.058830
842.644592	898.830688	1729.395752	1349.383789	54.246574
842.946594	880.626526	1690.711914	1317.526489	53.932583
843.248596	942.065613	1636.099487	1360.761475	60.327869
843.550598	962.545288	1697.538574	1360.761475	54.179569
843.852478	826.014038	1638.375000	1403.996338	71.148460
844.154236	828.289551	1588.313477	1363.036987	70.359291
844.455994	887.453125	1572.384888	1360.761475	69.102997
844.757690	907.932800	1499.568237	1317.526489	69.230759
845.059326	921.585938	1508.670288	1363.036987	75.193802
845.360962	896.555176	1608.793213	1278.842651	53.674118
845.662476	846.493713	1517.772339	1237.883301	58.305088
845.963989	855.595825	1465.435425	1190.097412	54.850750
846.265381	853.320313	1469.986450	1249.260864	64.206635
846.566772	905.657288	1413.098389	1194.648438	56.950680
846.868042	935.239075	1463.159912	1258.363037	61.206898
847.169373	864.697876	1408.547363	1297.046875	79.497917
847.470581	871.524475	1456.333252	1174.168701	51.750973
847.771729	948.892151	1408.547363	1194.648438	53.465355
848.072815	985.300537	1433.578125	1306.148926	71.573593
848.373901	903.381775	1422.200562	1206.026001	58.333321
848.674866	928.412476	1365.312500	1151.413574	51.041676
848.975891	869.248962	1351.659302	1169.617676	62.264153
849.276794	944.341125	1333.455200	1171.893188	58.479527
849.577637	871.524475	1317.526489	1149.138062	62.244919
849.878357	944.341125	1415.373901	1301.597900	75.845421
850.179077	889.728638	1367.588013	1149.138062	54.285725
850.479736	912.483826	1431.302612	1233.332275	61.842102
850.780396	889.728638	1376.690063	1153.689087	54.205616
851.080994	848.769287	1319.802124	1224.230225	79.710144
851.381470	837.391663	1333.455200	1178.719727	68.807327
851.681946	880.626526	1424.476074	1178.719727	54.811703
851.982361	948.892151	1369.863525	1240.158813	69.189186
852.282715	903.381775	1369.863525	1328.904175	91.219521
852.583008	969.371887	1447.231201	1146.862427	37.142845
852.883240	992.127075	1328.904175	1219.679199	67.567574
853.183411	907.932800	1392.618774	1155.964600	51.173710
853.483521	985.300537	1401.720825	1160.515625	42.076500
853.783630	866.973450	1433.578125	1262.914063	69.879517
854.083679	903.381775	1349.383789	1149.138062	55.102058
854.383667	942.065613	1419.924927	1135.484863	40.476192
854.683533	821.463013	1283.393677	1096.801025	59.605919
854.983337	903.381775	1358.485962	1169.617676	58.499989
855.283203	937.514587	1347.108276	1194.648438	62.777786
855.582886	917.034912	1328.904175	1162.791138	59.668503
855.882629	914.759338	1269.740601	1144.586914	64.743576
856.182312	923.861450	1228.781250	1165.066650	79.104469
856.481873	935.239075	1365.312500	1137.760376	47.089935
856.781372	894.279663	1431.302612	1149.138062	47.457638
857.080872	901.106262	1497.292725	1196.923950	49.618317
857.380310	871.524475	1367.588013	1180.995239	62.385307
857.679688	967.096313	1344.832764	1196.923950	60.843384
857.979004	892.004150	1340.281738	1053.566162	36.040619
858.278259	942.065613	1335.730713	1087.698975	36.994228
858.577454	917.034912	1392.618774	1183.270874	55.980865
858.876648	846.493713	1374.414551	1180.995239	63.362061
859.175720	894.279663	1360.761475	1221.954712	70.243904
859.474792	942.065613	1328.904175	1105.903076	42.352928
859.773743	887.453125	1292.495850	1176.444214	71.348297
860.072693	844.218201	1281.118164	1167.342163	73.958344
860.371521	946.616638	1349.383789	1117.280762	42.372902
860.670349	864.697876	1328.904175	1124.107300	55.882359
860.969116	948.892151	1292.495850	1142.311401	56.291378
861.267883	942.065613	1310.699951	1128.658325	50.617290
861.566589	889.728638	1340.281738	1112.729614	49.494938
861.865112	844.218201	1322.077637	1196.923950	73.809517
862.163635	921.585938	1287.944824	1160.515625	65.217384
862.462158	887.453125	1335.730713	1112.729614	50.253792
862.760620	880.626526	1335.730713	1160.515625	61.500004
863.059021	946.616638	1274.291626	1149.138062	61.805580
863.357361	864.697876	1281.118164	1162.791138	71.584709
863.655640	935.239075	1278.842651	1105.903076	49.668865
863.953857	912.483826	1242.434326	1169.617676	77.931038
864.251953	930.687988	1333.455200	1074.045776	35.593212
864.550110	928.412476	1331.179688	1208.301514	69.491516
864.848206	930.687988	1315.250977	1146.862427	56.213013
865.146179	1023.984375	1265.189575	1055.841675	13.207551
865.444092	948.892151	1372.139038	1117.280762	39.784962
865.741943	946.616638	1351.659302	1158.240112	52.247208
866.039795	962.545288	1306.148926	1069.494751	31.125824
866.337646	885.177612	1324.353149	1096.801025	48.186520
866.635376	919.310425	1344.832764	1094.525513	41.176472
866.933044	948.892151	1285.669312	1194.648438	72.972969
867.230652	880.626526	1328.904175	1192.372925	69.543152
867.528198	878.351013	1249.260864	1126.382813	66.871178
867.825745	914.759338	1233.332275	1121.831787	65.000015
868.123230	830.565063	1333.455200	1046.739624	42.986439
868.420593	964.820801	1376.690063	1078.596802	27.624300
868.717896	969.371887	1324.353149	1142.311401	48.717926
869.015198	962.545288	1333.455200	1126.382813	44.171783
869.312439	869.248962	1340.281738	1171.893188	64.251205
869.609619	866.973450	1303.873413	1130.933838	60.416664
869.906738	939.790100	1281.118164	1110.454102	49.999992
870.203796	903.381775	1378.965576	1162.791138	54.545460
870.500854	853.320313	1260.638550	1121.831787	65.921791
870.797791	919.310425	1192.372925	1144.586914	82.499969
871.094666	957.994263	1226.505737	1055.841675	36.440681
871.391602	921.585938	1319.802124	1153.689087	58.285713
871.688293	914.759338	1297.046875	1149.138062	61.309540
871.985107	973.922913	1315.250977	1076.321289	29.999987
872.281738	889.728638	1342.557251	1078.596802	41.708530
872.578369	912.483826	1331.179688	1155.964600	58.152180
872.874939	912.483826	1347.108276	1087.698975	40.314148
873.171509	932.963501	1262.914063	1171.893188	72.413788
873.467957	967.096313	1262.914063	1126.382813	53.846161
873.764343	942.065613	1335.730713	1183.270874	61.271690
874.060669	939.790100	1303.873413	1133.209351	53.124996
874.356995	939.790100	1274.291626	1219.679199	83.673492
874.653198	944.341125	1274.291626	1171.893188	68.965515
874.949463	1005.780212	1390.343262	1067.219238	15.976320
875.245544	905.657288	1374.414551	1135.484863	49.029121
875.541626	1012.606750	1335.730713	1228.781250	66.901413
875.837646	951.167725	1344.832764	1133.209351	46.242771
876.133606	946.616638	1240.158813	1124.107300	60.465130
876.429565	923.861450	1308.424438	1144.586914	57.396439
876.725403	923.861450	1344.832764	1169.617676	58.378380
877.021179	907.932800	1299.322388	1140.035889	59.302315
877.316956	880.626526	1347.108276	1162.791138	60.487812
877.612610	937.514587	1244.709839	1165.066650	74.074081
877.908203	866.973450	1308.424438	1101.352051	53.092781
878.203857	907.932800	1308.424438	1092.250000	46.022732
878.499390	844.218201	1258.363037	1178.719727	80.769211
878.794800	882.902100	1385.792114	1169.617676	57.013577
879.090271	841.942688	1403.996338	1126.382813	50.607292
879.385559	878.351013	1256.087524	1105.903076	60.240952
879.680847	835.116150	1326.628662	1130.933838	60.185181
879.976196	951.167725	1388.067749	1221.954712	61.979164
880.271301	946.616638	1522.323364	1262.914063	54.940720
880.566467	917.034912	1508.670288	1317.526489	67.692299
880.861572	855.595825	1656.579102	1385.792114	66.193176
881.156555	967.096313	1708.916138	1363.036987	53.374237
881.451477	910.208313	2088.927979	1590.588989	57.722008
881.746460	942.065613	2607.746826	2002.458252	63.661198
882.041321	923.861450	3365.495361	2503.072998	64.678474
882.336121	901.106262	4182.407227	2974.105713	63.176144
882.630798	960.269775	4598.827637	3188.004639	61.225765
882.925537	896.555176	4500.979980	3149.320801	62.500004
883.220215	939.790100	4353.071289	3010.513916	60.666664
883.514771	910.208313	4029.947266	2773.859863	59.737419
883.809326	978.473938	3784.191162	2623.675537	58.637470
884.103760	871.524475	3490.648926	2446.184814	60.121632
884.398132	903.381775	3147.045166	2282.347412	61.460449
884.692505	946.616638	3003.687500	2198.153076	60.840706
884.986816	898.830688	2767.033203	2045.693237	61.388557
885.281067	912.483826	2514.450439	1979.703125	66.619324
885.575256	887.453125	2405.225586	1865.927002	64.467758
885.869385	810.085388	2230.010498	1813.590088	70.673073
886.163452	946.616638	2038.866699	1590.588989	58.958328
886.457458	871.524475	1991.080688	1540.527588	59.756104
886.751465	901.106262	1804.488037	1506.394775	67.002518
887.045410	935.239075	1704.365112	1347.108276	53.550285
887.339233	932.963501	1674.783325	1342.557251	55.214722
887.632996	964.820801	1588.313477	1285.669312	51.459869
887.926758	960.269775	1533.701050	1301.597900	59.523808
888.220398	953.443237	1520.047852	1240.158813	50.602409
888.514099	887.453125	1488.190552	1180.995239	48.863628
888.807678	880.626526	1481.364014	1249.260864	61.363632
889.101196	914.759338	1363.036987	1187.821899	60.913712
889.394653	882.902100	1403.996338	1115.005249	44.541492
889.688049	855.595825	1333.455200	1178.719727	67.619034
889.981384	1019.433350	1306.148926	1183.270874	57.142876
890.274719	876.075500	1356.210449	1208.301514	69.194298
890.567932	826.014038	1260.638550	1146.862427	73.821976
>>>>>End Processed Spectral Data<<<<<
