Jaz Data File
++++++++++++++++++++++++++++++++++++
Date: Wed Feb 07 06:36:48 2024
User: jaz
Dark Spectrum Present: Yes
Reference Spectrum Present: Yes
Processed Spectrum Present: Yes
Spectrometers: JAZA3692
Integration Time (usec): 40000 (JAZA3692)
Spectra Averaged: 1 (JAZA3692)
Boxcar Smoothing: 0 (JAZA3692)
Correct for Electrical Dark: No (JAZA3692)
Strobe/Lamp Enabled: Yes (JAZA3692)
Correct for Detector Non-linearity: No (JAZA3692)
Correct for Stray Light: No (JAZA3692)
Number of Pixels in Processed Spectrum: 2048
>>>>>Begin Processed Spectral Data<<<<<
W	D	R	S	P
190.244385	0.000000	0.000000	0.000000	0.000000
190.627136	0.000000	0.000000	0.000000	0.000000
191.009842	1221.954712	1244.709839	1235.607788	60.000000
191.392532	1335.730713	1244.709839	1260.638550	82.499939
191.775177	1317.526489	1301.597900	1226.505737	571.430115
192.157791	1219.679199	1292.495850	1285.669312	90.625031
192.540390	1322.077637	1281.118164	1233.332275	216.666275
192.922943	1274.291626	1312.975464	1267.465088	-17.647003
193.305481	1333.455200	1312.975464	1356.210449	-111.111046
193.687958	1281.118164	1272.016113	1297.046875	-175.001343
194.070419	1290.220337	1285.669312	1331.179688	-900.002686
194.452866	1244.709839	1265.189575	1317.526489	355.554626
194.835251	1290.220337	1306.148926	1347.108276	357.143616
195.217621	1299.322388	1349.383789	1278.842651	-40.909233
195.599960	1312.975464	1301.597900	1338.006226	-220.001068
195.982254	1297.046875	1297.046875	1290.220337	0.000000
196.364517	1297.046875	1310.699951	1306.148926	66.666664
196.746750	1326.628662	1365.312500	1292.495850	-88.235329
197.128952	1290.220337	1353.934937	1269.740601	-32.142925
197.511139	1328.904175	1326.628662	1262.914063	2900.010742
197.893280	1331.179688	1335.730713	1224.230225	-2350.008057
198.275391	1310.699951	1312.975464	1340.281738	1300.005371
198.657471	1276.567139	1297.046875	1344.832764	333.332550
199.039520	1244.709839	1349.383789	1328.904175	80.434853
199.421539	1347.108276	1331.179688	1349.383789	-14.285714
199.803513	1256.087524	1285.669312	1310.699951	184.615036
200.185471	1253.812012	1358.485962	1315.250977	58.695564
200.567383	1335.730713	1272.016113	1294.771362	64.285660
200.949265	1283.393677	1287.944824	1231.056763	-1149.971802
201.331131	1326.628662	1335.730713	1322.077637	-50.000000
201.712967	1299.322388	1315.250977	1258.363037	-257.143616
202.094742	1235.607788	1308.424438	1226.505737	-12.499958
202.476517	1233.332275	1278.842651	1331.179688	215.000229
202.858231	1258.363037	1281.118164	1251.536499	-30.000000
203.239944	1301.597900	1292.495850	1285.669312	175.000000
203.621582	1256.087524	1328.904175	1310.699951	74.999916
204.003235	1363.036987	1285.669312	1258.363037	135.294159
204.384827	1276.567139	1292.495850	1317.526489	257.141663
204.766388	1281.118164	1274.291626	1294.771362	-200.001785
205.147934	1301.597900	1292.495850	1192.372925	1200.004028
205.529449	1403.996338	1312.975464	1287.944824	127.499886
205.910904	1283.393677	1258.363037	1215.128052	272.728241
206.292343	1210.577026	1322.077637	1287.944824	69.387779
206.673767	1308.424438	1281.118164	1210.577026	358.333069
207.055115	1242.434326	1372.139038	1287.944824	35.087776
207.436462	1328.904175	1326.628662	1237.883301	4000.016113
207.817780	1303.873413	1399.445313	1294.771362	-9.523773
208.199051	1251.536499	1328.904175	1251.536499	0.000000
208.580307	1242.434326	1390.343262	1258.363037	10.769269
208.961517	1267.465088	1306.148926	1301.597900	88.235329
209.342712	1292.495850	1312.975464	1237.883301	-266.667847
209.723846	1242.434326	1221.954712	1374.414551	-644.446838
210.104965	1322.077637	1285.669312	1278.842651	118.750275
210.486069	1267.465088	1306.148926	1224.230225	-111.764671
210.867111	1281.118164	1226.505737	1240.158813	75.000053
211.248123	1301.597900	1299.322388	1233.332275	3000.010742
211.629120	1322.077637	1319.802124	1299.322388	1000.005371
212.010071	1274.291626	1338.006226	1283.393677	14.285660
212.390991	1262.914063	1283.393677	1249.260864	-66.667259
212.771881	1294.771362	1351.659302	1203.750488	-160.000305
213.152756	1319.802124	1374.414551	1219.679199	-183.333588
213.533569	1306.148926	1333.455200	1303.873413	-8.333296
213.914368	1226.505737	1369.863525	1315.250977	61.904720
214.295135	1267.465088	1317.526489	1212.852539	-109.091133
214.675858	1249.260864	1365.312500	1301.597900	45.098061
215.056549	1322.077637	1328.904175	1265.189575	-833.336914
215.437225	1285.669312	1299.322388	1285.669312	0.000000
215.817841	1276.567139	1360.761475	1285.669312	10.810908
216.198441	1358.485962	1340.281738	1272.016113	474.998840
216.579025	1353.934937	1385.792114	1328.904175	-78.571815
216.959549	1299.322388	1292.495850	1278.842651	300.001801
217.340057	1278.842651	1344.832764	1272.016113	-10.344790
217.720535	1301.597900	1347.108276	1256.087524	-100.000000
218.100967	1294.771362	1301.597900	1237.883301	-833.336914
218.481369	1317.526489	1335.730713	1301.597900	-87.499413
218.861740	1344.832764	1292.495850	1269.740601	143.478394
219.242065	1256.087524	1228.781250	1319.802124	-233.333191
219.622391	1256.087524	1303.873413	1331.179688	157.142960
220.002670	1274.291626	1317.526489	1185.546387	-205.263138
220.382919	1344.832764	1228.781250	1292.495850	45.098003
220.763123	1308.424438	1322.077637	1251.536499	-416.663849
221.143295	1356.210449	1322.077637	1269.740601	253.333496
221.523453	1269.740601	1340.281738	1338.006226	96.774208
221.903549	1251.536499	1356.210449	1360.761475	104.347809
222.283630	1297.046875	1333.455200	1253.812012	-118.749939
222.663696	1317.526489	1319.802124	1331.179688	599.973206
223.043701	1206.026001	1333.455200	1310.699951	82.142830
223.423676	1224.230225	1378.965576	1301.597900	50.000000
223.803635	1244.709839	1347.108276	1303.873413	57.777809
224.183548	1260.638550	1285.669312	1315.250977	218.181244
224.563431	1260.638550	1283.393677	1326.628662	290.001068
224.943283	1322.077637	1335.730713	1219.679199	-750.002686
225.323105	1246.985352	1353.934937	1285.669312	36.170277
225.702881	1260.638550	1308.424438	1306.148926	95.238106
226.082642	1242.434326	1265.189575	1265.189575	100.000000
226.462357	1365.312500	1383.516602	1310.699951	-300.001343
226.842041	1219.679199	1369.863525	1224.230225	3.030293
227.221695	1319.802124	1315.250977	1262.914063	1249.971802
227.601318	1306.148926	1406.271851	1178.719727	-127.272751
227.980911	1276.567139	1463.159912	1267.465088	-4.878030
228.360474	1287.944824	1383.516602	1292.495850	4.761893
228.739990	1283.393677	1440.404663	1322.077637	24.637741
229.119476	1285.669312	1408.547363	1278.842651	-5.555638
229.498932	1283.393677	1424.476074	1283.393677	0.000000
229.878372	1299.322388	1504.119263	1285.669312	-6.666643
230.257736	1262.914063	1515.496826	1294.771362	12.612618
230.637115	1174.168701	1572.384888	1281.118164	26.857136
231.016449	1242.434326	1454.057739	1244.709839	1.075265
231.395737	1267.465088	1542.803101	1253.812012	-4.958660
231.774994	1269.740601	1442.680176	1249.260864	-11.842134
232.154221	1276.567139	1476.812988	1235.607788	-20.454531
232.533417	1231.056763	1451.782227	1297.046875	29.896919
232.912582	1265.189575	1419.924927	1331.179688	42.647083
233.291702	1299.322388	1392.618774	1294.771362	-4.878030
233.670792	1276.567139	1447.231201	1308.424438	18.666672
234.049866	1251.536499	1444.955688	1285.669312	17.647066
234.428894	1349.383789	1417.649414	1242.434326	-156.666641
234.807892	1292.495850	1410.822876	1203.750488	-75.000076
235.186874	1308.424438	1444.955688	1258.363037	-36.666626
235.565781	1203.750488	1504.119263	1215.128052	3.787865
235.944687	1274.291626	1490.466064	1262.914063	-5.263140
236.323547	1333.455200	1501.843750	1274.291626	-35.135151
236.702377	1287.944824	1481.364014	1301.597900	7.058801
237.081177	1283.393677	1501.843750	1312.975464	13.541670
237.459946	1269.740601	1515.496826	1287.944824	7.407431
237.838669	1265.189575	1535.976563	1297.046875	11.764709
238.217361	1206.026001	1565.558350	1317.526489	31.012644
238.596039	1244.709839	1515.496826	1322.077637	28.571461
238.974670	1299.322388	1561.007324	1267.465088	-12.173914
239.353271	1297.046875	1488.190552	1356.210449	30.952410
239.731842	1244.709839	1533.701050	1258.363037	4.724434
240.110367	1308.424438	1488.190552	1283.393677	-13.924071
240.488876	1301.597900	1608.793213	1249.260864	-17.037056
240.867340	1356.210449	1590.588989	1228.781250	-54.368969
241.245789	1306.148926	1545.078613	1274.291626	-13.333337
241.624176	1303.873413	1508.670288	1299.322388	-2.222214
242.002548	1297.046875	1706.640625	1221.954712	-18.333328
242.380890	1351.659302	1758.977539	1253.812012	-24.022320
242.759186	1272.016113	1736.222412	1292.495850	4.411775
243.137451	1303.873413	1904.610962	1310.699951	1.136359
243.515686	1274.291626	1966.049927	1390.343262	16.776327
243.893890	1274.291626	2011.560425	1299.322388	3.395066
244.272049	1210.577026	1981.978638	1294.771362	10.914462
244.650192	1331.179688	1843.171875	1292.495850	-7.555552
245.028290	1308.424438	1827.243164	1312.975464	0.877190
245.406357	1190.097412	1699.814087	1310.699951	23.660702
245.784393	1272.016113	1692.987427	1256.087524	-3.783771
246.162384	1308.424438	1756.702026	1276.567139	-7.106601
246.540359	1278.842651	1793.110352	1231.056763	-9.292027
246.918289	1208.301514	1822.692139	1344.832764	22.222221
247.296204	1338.006226	2052.519775	1319.802124	-2.547762
247.674057	1294.771362	2245.938965	1265.189575	-3.110050
248.051895	1338.006226	2393.847900	1276.567139	-5.818968
248.429703	1347.108276	2443.909424	1285.669312	-5.601650
248.807465	1278.842651	2473.491211	1278.842651	0.000000
249.185196	1281.118164	2316.480225	1358.485962	7.472536
249.562897	1317.526489	2125.336426	1262.914063	-6.760554
249.940567	1358.485962	2098.030273	1281.118164	-10.461550
250.318192	1312.975464	1972.876587	1281.118164	-4.827587
250.695801	1317.526489	1986.529663	1328.904175	1.700692
251.073349	1324.353149	1859.100464	1310.699951	-2.553205
251.450882	1303.873413	1827.243164	1312.975464	1.739124
251.828400	1276.567139	1879.580200	1319.802124	7.169826
252.205872	1221.954712	1790.834839	1294.771362	12.799999
252.583313	1269.740601	1900.059814	1392.618774	19.494595
252.960693	1226.505737	1938.743774	1303.873413	10.862615
253.338074	1303.873413	2045.693237	1312.975464	1.226989
253.715408	1287.944824	2077.550537	1340.281738	6.628234
254.092682	1319.802124	1945.570313	1344.832764	3.999986
254.469955	1258.363037	1806.763550	1344.832764	15.767623
254.847198	1231.056763	1779.457275	1322.077637	16.597519
255.224365	1283.393677	1854.549438	1326.628662	7.569736
255.601563	1215.128052	1768.079712	1258.363037	7.818945
255.978683	1338.006226	1834.069824	1315.250977	-4.587163
256.355743	1260.638550	1818.141113	1340.281738	14.285708
256.732819	1240.158813	1906.886475	1278.842651	5.802045
257.109894	1301.597900	1829.518677	1231.056763	-13.362069
257.486877	1267.465088	1920.539551	1272.016113	0.696862
257.863831	1276.567139	1934.192627	1303.873413	4.152253
258.240753	1326.628662	1943.294800	1408.547363	13.284125
258.617645	1303.873413	2029.764526	1353.934937	6.896561
258.994507	1251.536499	2118.509766	1256.087524	0.524933
259.371307	1274.291626	2184.500000	1269.740601	-0.499998
259.748108	1292.495850	2286.898438	1253.812012	-3.890159
260.124878	1212.852539	2493.970703	1312.975464	7.815276
260.501617	1315.250977	2760.206787	1349.383789	2.362205
260.878296	1294.771362	2919.493164	1347.108276	3.221285
261.254944	1301.597900	3056.024414	1338.006226	2.075227
261.631561	1262.914063	2933.146240	1324.353149	3.678476
262.008179	1347.108276	2657.808350	1276.567139	-5.381944
262.384735	1290.220337	2484.868652	1312.975464	1.904755
262.761261	1278.842651	2275.520752	1349.383789	7.077625
263.137695	1281.118164	2311.929199	1290.220337	0.883011
263.514191	1206.026001	2141.265137	1290.220337	9.002439
263.890594	1219.679199	2107.132324	1301.597900	9.230763
264.267029	1265.189575	2141.265137	1219.679199	-5.194800
264.643341	1251.536499	2145.816162	1297.046875	5.089054
265.019653	1333.455200	2111.683350	1351.659302	2.339173
265.395935	1312.975464	2152.642578	1262.914063	-5.962053
265.772217	1256.087524	2045.693237	1292.495850	4.610950
266.148407	1281.118164	2045.693237	1333.455200	6.845245
266.524597	1281.118164	2079.825928	1274.291626	-0.854698
266.900726	1237.883301	2286.898438	1344.832764	10.195226
267.276855	1322.077637	2352.888428	1335.730713	1.324499
267.652924	1272.016113	2407.500977	1376.690063	9.218436
268.028992	1351.659302	2346.062012	1260.638550	-9.153309
268.404999	1303.873413	2430.256104	1338.006226	3.030303
268.781006	1335.730713	2416.603027	1401.720825	6.105264
269.156921	1290.220337	2334.684326	1328.904175	3.703702
269.532837	1322.077637	2325.582275	1315.250977	-0.680282
269.908661	1233.332275	2409.776611	1274.291626	3.481622
270.284546	1301.597900	2277.796387	1274.291626	-2.797205
270.660339	1365.312500	2409.776611	1322.077637	-4.139430
271.036133	1260.638550	2450.735840	1272.016113	0.956020
271.411835	1285.669312	2318.755615	1260.638550	-2.422911
271.787537	1256.087524	2594.093750	1342.557251	6.462580
272.163239	1215.128052	2814.819336	1385.792114	10.668562
272.538849	1315.250977	2987.758789	1374.414551	3.537417
272.914459	1299.322388	2912.666504	1381.241089	5.077571
273.290070	1272.016113	2846.676514	1322.077637	3.179195
273.665588	1281.118164	2673.737061	1351.659302	5.065358
274.041046	1285.669312	2714.696289	1342.557251	3.980886
274.416565	1246.985352	2550.858887	1356.210449	8.376970
274.791962	1206.026001	2621.399902	1376.690063	12.057878
275.167389	1319.802124	2544.032227	1303.873413	-1.301121
275.542755	1283.393677	2498.521729	1322.077637	3.183530
275.918060	1244.709839	2523.552490	1237.883301	-0.533806
276.293365	1281.118164	2459.837891	1301.597900	1.737456
276.668640	1317.526489	2584.991699	1308.424438	-0.718130
277.043854	1272.016113	2546.307861	1340.281738	5.357142
277.419037	1260.638550	2687.390137	1292.495850	2.232855
277.794189	1287.944824	2716.971924	1401.720825	7.961781
278.169312	1217.403687	2714.696289	1381.241089	10.942244
278.544373	1294.771362	2682.839111	1303.873413	0.655735
278.919464	1322.077637	2537.205811	1178.719727	-11.797760
279.294464	1287.944824	2569.062988	1347.108276	4.618111
279.669464	1237.883301	2619.124512	1372.139038	9.719934
280.044403	1256.087524	2669.185791	1358.485962	7.246377
280.419312	1262.914063	2689.665527	1287.944824	1.754388
280.794189	1276.567139	2710.145264	1385.792114	7.619046
281.169037	1331.179688	2680.563477	1353.934937	1.686344
281.543854	1353.934937	2810.268311	1381.241089	1.874993
281.918671	1228.781250	2851.227539	1419.924927	11.781202
282.293365	1312.975464	2924.044189	1367.588013	3.389834
282.668091	1358.485962	3056.024414	1331.179688	-1.608581
283.042786	1353.934937	3147.045166	1358.485962	0.253806
283.417419	1299.322388	3030.993652	1397.169800	5.650461
283.792053	1237.883301	3046.922363	1378.965576	7.798741
284.166595	1283.393677	2905.840088	1349.383789	4.067321
284.541138	1199.199463	2873.982666	1294.771362	5.706523
284.915619	1237.883301	2951.350586	1363.036987	7.304119
285.290100	1308.424438	3012.789551	1338.006226	1.735649
285.664520	1297.046875	3067.402100	1369.863525	4.113110
286.038940	1326.628662	3117.463379	1249.260864	-4.320209
286.413300	1269.740601	3112.912354	1253.812012	-0.864195
286.787628	1310.699951	3244.892578	1351.659302	2.117646
287.161896	1285.669312	3470.169189	1422.200562	6.250000
287.536194	1240.158813	3360.944336	1401.720825	7.618026
287.910400	1290.220337	3281.301025	1328.904175	1.942856
288.284607	1331.179688	3219.861816	1388.067749	3.012051
288.658752	1303.873413	3096.983887	1272.016113	-1.776650
289.032867	1303.873413	2974.105713	1317.526489	0.817436
289.406921	1278.842651	2924.044189	1378.965576	6.085754
289.781006	1269.740601	3046.922363	1274.291626	0.256081
290.154999	1294.771362	3128.841064	1328.904175	1.861042
290.529022	1258.363037	3213.035400	1326.628662	3.492433
290.902954	1308.424438	3272.198975	1297.046875	-0.579372
291.276825	1292.495850	3429.209961	1349.383789	2.662403
291.650757	1324.353149	3374.597412	1338.006226	0.665924
292.024597	1369.863525	3447.414063	1360.761475	-0.438115
292.398407	1281.118164	3356.393066	1328.904175	2.302635
292.772156	1290.220337	3310.882813	1363.036987	3.603603
293.145905	1240.158813	3206.208740	1349.383789	5.555554
293.519592	1283.393677	3192.555664	1267.465088	-0.834324
293.893280	1306.148926	3156.147461	1278.842651	-1.476016
294.266907	1310.699951	3297.229736	1335.730713	1.260024
294.640533	1278.842651	3360.944336	1426.751587	7.103829
295.014069	1272.016113	3481.546875	1358.485962	3.913494
295.387604	1317.526489	3615.802490	1365.312500	2.079211
295.761078	1267.465088	3572.567627	1319.802124	2.270486
296.134552	1235.607788	3590.771729	1401.720825	7.053141
296.507996	1251.536499	3593.047363	1460.884399	8.940720
296.881378	1178.719727	3572.567627	1333.455200	6.463881
297.254730	1285.669312	3875.211914	1317.526489	1.230224
297.628021	1262.914063	4068.631104	1406.271851	5.109488
298.001282	1274.291626	4027.671875	1417.649414	5.206610
298.374573	1310.699951	4068.631104	1342.557251	1.155116
298.747803	1253.812012	3993.539063	1372.139038	4.318935
299.121002	1269.740601	3795.568604	1315.250977	1.801800
299.494141	1228.781250	3702.272461	1331.179688	4.139834
299.867188	1221.954712	3645.384277	1372.139038	6.197181
300.240265	1253.812012	3538.434814	1358.485962	4.581673
300.613312	1278.842651	3424.658691	1351.659302	3.393425
300.986328	1283.393677	3401.903564	1299.322388	0.751883
301.359314	1251.536499	3310.882813	1344.832764	4.530383
301.732239	1256.087524	3333.637939	1360.761475	5.038335
302.105103	1253.812012	3413.281250	1394.894287	6.533192
302.477997	1258.363037	3401.903564	1351.659302	4.352437
302.850830	1285.669312	3408.730225	1331.179688	2.143621
303.223602	1285.669312	3272.198975	1319.802124	1.718213
303.596375	1256.087524	3315.433838	1390.343262	6.519338
303.969116	1287.944824	3224.413086	1403.996338	5.992947
304.341766	1294.771362	3283.576416	1444.955688	7.551486
304.714478	1349.383789	3294.954102	1392.618774	2.222227
305.087067	1347.108276	3035.544678	1367.588013	1.212941
305.459656	1246.985352	3192.555664	1394.894287	7.602344
305.832214	1294.771362	3224.413086	1424.476074	6.721699
306.204681	1340.281738	3235.790527	1533.701050	10.204084
306.577148	1303.873413	3233.515137	1499.568237	10.141511
306.949646	1347.108276	3326.811523	1513.221313	8.390805
307.322021	1281.118164	3231.239502	1460.884399	9.218207
307.694397	1287.944824	3162.973877	1583.762451	15.776695
308.066742	1262.914063	3251.719238	1444.955688	9.153316
308.439026	1351.659302	3285.852051	1615.619751	13.647060
308.811279	1310.699951	3404.179199	1590.588989	13.369563
309.183502	1253.812012	3606.700439	1665.681274	17.504837
309.555695	1235.607788	3622.629150	1667.956787	18.112490
309.927887	1215.128052	3608.976074	1733.946899	21.673006
310.299988	1237.883301	3547.536865	1788.559326	23.842365
310.672058	1333.455200	3574.843262	1729.395752	17.664970
311.044128	1219.679199	3684.068115	1786.283813	22.991688
311.416168	1272.016113	3693.170166	1761.253052	20.206766
311.788147	1253.812012	3618.078125	1829.518677	24.350332
312.160065	1187.821899	3715.925537	1902.335449	28.262829
312.531982	1328.904175	3595.322754	1879.580200	24.297192
312.903870	1315.250977	3613.527100	1815.865601	21.782179
313.275696	1301.597900	3449.689453	1786.283813	22.563559
313.647491	1276.567139	3413.281250	1763.528564	22.790201
314.019318	1342.557251	3360.944336	1749.875488	20.180382
314.391022	1328.904175	3397.352539	1784.008301	22.002201
314.762726	1328.904175	3574.843262	1681.609863	15.704153
315.134369	1260.638550	3502.026611	1770.355225	22.741116
315.505981	1267.465088	3606.700439	1859.100464	25.291828
315.877594	1249.260864	3718.200928	1927.366089	27.465441
316.249146	1315.250977	3611.251465	1836.345337	22.695742
316.620636	1267.465088	3583.945313	1809.039063	23.379175
316.992157	1276.567139	3338.188965	1809.039063	25.827818
317.363586	1240.158813	3388.250488	1706.640625	21.716103
317.735016	1283.393677	3301.780762	1802.212524	25.704626
318.106354	1274.291626	3269.923340	1777.181763	25.199547
318.477722	1258.363037	3306.331787	1772.630737	25.111111
318.849060	1251.536499	3433.760986	1727.120239	21.793528
319.220306	1251.536499	3372.321777	1761.253052	24.034332
319.591522	1276.567139	3456.516113	1754.426514	21.920668
319.962738	1283.393677	3424.658691	1799.937012	24.123278
320.333923	1258.363037	3533.883789	1788.559326	23.299997
320.705017	1274.291626	3413.281250	1727.120239	21.170210
321.076111	1297.046875	3406.454590	1747.599976	21.359222
321.447144	1328.904175	3422.383301	1831.794189	24.021736
321.818176	1219.679199	3299.505127	1720.293701	24.070019
322.189178	1297.046875	3299.505127	1690.711914	19.659088
322.560120	1317.526489	3258.545898	1733.946899	21.453697
322.931030	1262.914063	3363.219727	1733.946899	22.426870
323.301910	1262.914063	3574.843262	1756.702026	21.358265
323.672729	1317.526489	3704.547852	1795.385864	20.019064
324.043549	1317.526489	3772.813477	1797.661377	19.555141
324.414337	1269.740601	4011.743164	1838.620850	20.746891
324.785095	1358.485962	4080.008789	1836.345337	17.558529
325.155792	1287.944824	4116.416992	1888.682251	21.238937
325.526428	1285.669312	4168.753906	1888.682251	20.915548
325.897034	1208.301514	4041.324951	1881.855713	23.775101
326.267670	1262.914063	4018.569824	1806.763550	19.735756
326.638184	1283.393677	3891.140625	1836.345337	21.204191
327.008728	1287.944824	4011.743164	1991.080688	25.814535
327.379211	1299.322388	4027.671875	1856.824951	20.433693
327.749634	1319.802124	3893.416016	1829.518677	19.805479
328.120026	1228.781250	3791.017578	1779.457275	21.492008
328.490417	1219.679199	3806.946289	1843.171875	24.098505
328.860748	1228.781250	3725.027588	1756.702026	21.148584
329.231079	1260.638550	3797.844238	1736.222412	18.744396
329.601318	1274.291626	3649.935303	1772.630737	20.977015
329.971558	1256.087524	3777.364502	1758.977539	19.945847
330.341736	1244.709839	3781.915527	1770.355225	20.717493
330.711914	1303.873413	3841.079102	1754.426514	17.757847
331.082062	1285.669312	3784.191162	1761.253052	19.034603
331.452148	1246.985352	3802.395264	1733.946899	19.056103
331.822174	1285.669312	3747.782715	1765.804199	19.500925
332.192200	1262.914063	3845.630127	1779.457275	20.000000
332.562134	1292.495850	3918.446777	1788.559326	18.890814
332.932129	1237.883301	3993.539063	1736.222412	18.084229
333.302063	1319.802124	4080.008789	1799.937012	17.394890
333.671906	1312.975464	4284.805664	1836.345337	17.611029
334.041718	1194.648438	4214.264648	1804.488037	20.195930
334.411499	1249.260864	4264.326172	1870.478149	20.603775
334.781281	1324.353149	4218.815430	1875.029175	19.025158
335.151001	1274.291626	4293.907715	1918.264038	21.326300
335.520721	1290.220337	4091.386475	1877.304688	20.958570
335.890350	1312.975464	4039.049316	1799.937012	17.863110
336.259979	1233.332275	4018.569824	1865.927002	22.712416
336.629547	1319.802124	4045.875977	1788.559326	17.195324
336.999084	1272.016113	4070.906738	1843.171875	20.406506
337.368622	1340.281738	4098.212891	1824.967651	17.574257
337.738098	1281.118164	4164.203125	1870.478149	20.441992
338.107513	1260.638550	4150.549805	1761.253052	17.322834
338.476898	1260.638550	4248.397461	1772.630737	17.136330
338.846252	1328.904175	4282.530273	1840.896362	17.334360
339.215576	1285.669312	4243.846191	1815.865601	17.923077
339.584869	1269.740601	4230.193359	1854.549438	19.754034
339.954132	1240.158813	4298.458984	1865.927002	20.461306
340.323334	1283.393677	4157.376465	1838.620850	19.319084
340.692505	1287.944824	4098.212891	1793.110352	17.975706
341.061646	1281.118164	3970.783691	1836.345337	20.642982
341.430786	1299.322388	4100.488281	1859.100464	19.983751
341.799896	1310.699951	4221.091309	1868.202637	19.155592
342.168915	1292.495850	4248.397461	1895.508789	20.400305
342.537903	1278.842651	4382.652832	1852.273926	18.475077
342.906830	1272.016113	4243.846191	1879.580200	20.444105
343.275757	1276.567139	4373.550781	1920.539551	20.793535
343.644684	1274.291626	4371.275391	1922.815063	20.940485
344.013550	1333.455200	4487.327148	1875.029175	17.171717
344.382355	1231.056763	4564.694824	1831.794189	18.020475
344.751129	1274.291626	4824.104004	1913.713013	18.012821
345.119873	1333.455200	4976.563965	1913.713013	15.927546
345.488586	1324.353149	5072.135742	1986.529663	17.668488
345.857269	1206.026001	5229.146973	1993.356201	19.570135
346.225891	1237.883301	5342.922852	2022.937988	19.124168
346.594482	1265.189575	5445.321289	2072.999512	19.324987
346.963043	1340.281738	5197.289551	1922.815063	15.103245
347.331543	1228.781250	5001.594727	1947.845825	19.059107
347.700043	1342.557251	4997.043457	1875.029175	14.570363
348.068512	1281.118164	4956.084473	1918.264038	17.337461
348.436951	1283.393677	4621.582520	1888.682251	18.132244
348.805328	1285.669312	4580.623535	1918.264038	19.198893
349.173645	1342.557251	4664.817871	1950.121338	18.287670
349.541931	1308.424438	4623.858398	1931.917114	18.805763
349.910217	1310.699951	4710.328125	1906.886475	17.536816
350.278473	1290.220337	4855.961426	1975.152100	19.208679
350.646667	1353.934937	4819.553223	1918.264038	16.283649
351.014801	1253.812012	4912.849609	1993.356201	20.211439
351.382935	1267.465088	4933.329102	1991.080688	19.739292
351.751007	1306.148926	5006.145996	1988.805176	18.450184
352.119049	1249.260864	5049.380859	2068.448486	21.556887
352.487091	1265.189575	5012.972168	2009.284912	19.854282
352.855072	1328.904175	5247.351074	2022.937988	17.711962
353.222992	1258.363037	5035.727539	2075.274902	21.626503
353.590881	1369.863525	5222.320313	2052.519775	17.720024
353.958740	1228.781250	5313.341309	2036.591064	19.777157
354.326599	1242.434326	5397.535156	2148.091553	21.796276
354.694397	1219.679199	5659.220215	2084.376953	19.477188
355.062134	1367.588013	5654.669434	2193.602051	19.267513
355.429840	1317.526489	5602.332031	2154.918213	19.543283
355.797516	1244.709839	5811.680176	2250.489990	22.022919
356.165192	1283.393677	6075.640625	2275.520752	20.702753
356.532776	1267.465088	6018.752441	2405.225586	23.946363
356.900360	1256.087524	6332.774414	2361.990479	21.783951
357.267883	1267.465088	6330.499023	2348.337402	21.348312
357.635376	1347.108276	6717.337402	2352.888428	18.728813
358.002808	1203.750488	6853.868652	2512.175049	23.157473
358.370270	1240.158813	7115.553711	2361.990479	19.093723
358.737640	1274.291626	7265.737793	2466.664551	19.901253
359.105011	1342.557251	7115.553711	2478.042236	19.668901
359.472321	1349.383789	6710.510742	2484.868652	21.179966
359.839569	1356.210449	6851.593262	2448.460449	19.875776
360.206787	1360.761475	6699.133301	2475.766602	20.886614
360.574005	1308.424438	7049.563477	2443.909424	19.778044
360.941193	1310.699951	7283.941895	2607.746826	21.714285
361.308319	1240.158813	7645.750000	2646.430664	21.953817
361.675415	1256.087524	8219.180664	2712.420898	20.915035
362.042450	1292.495850	8628.774414	2885.360352	21.712160
362.409424	1233.332275	9168.073242	2914.942139	21.193003
362.776428	1228.781250	9295.502930	3001.411865	21.974609
363.143402	1260.638550	8913.214844	2926.319824	21.766281
363.510284	1344.832764	8376.192383	2823.921387	21.035601
363.877136	1208.301514	7704.913574	2710.145264	23.117336
364.243988	1328.904175	7131.482422	2676.012451	23.215685
364.610779	1310.699951	6892.552734	2544.032227	22.095394
364.977539	1328.904175	6665.000488	2491.695313	21.791046
365.344269	1269.740601	6528.469238	2446.184814	22.371267
365.710938	1326.628662	6578.530762	2434.807373	21.100519
366.077576	1287.944824	6403.315430	2443.909424	22.597866
366.444183	1319.802124	6153.008301	2402.949951	22.410545
366.810760	1287.944824	6303.192383	2550.858887	25.181490
367.177277	1281.118164	6419.244141	2400.674561	21.789198
367.543823	1276.567139	6364.631836	2487.144287	23.792488
367.910248	1258.363037	6271.335449	2468.940186	24.148888
368.276642	1322.077637	6284.988281	2562.236328	24.988535
368.643036	1242.434326	6178.039063	2457.562500	24.619642
369.009399	1242.434326	6127.977539	2425.705078	24.219841
369.375671	1221.954712	6089.293457	2400.674561	24.216927
369.741974	1287.944824	5966.415527	2462.113525	25.097277
370.108215	1319.802124	5959.588867	2546.307861	26.434528
370.474396	1312.975464	6032.405762	2471.215576	24.541948
370.840546	1312.975464	6091.569336	2582.716064	26.571428
371.206665	1299.322388	6073.365234	2530.379150	25.786461
371.572784	1265.189575	6339.601074	2625.950928	26.816141
371.938843	1226.505737	6264.508789	2573.614014	26.738934
372.304840	1272.016113	6523.917969	2682.839111	26.863087
372.670807	1299.322388	6441.999512	2614.573486	25.575222
373.036713	1285.669312	6323.672363	2582.716064	25.745256
373.402649	1256.087524	6344.151855	2694.216553	28.264757
373.768524	1260.638550	6467.030273	2653.257324	26.748253
374.134308	1308.424438	6264.508789	2666.910400	27.410469
374.500122	1276.567139	6391.937988	2644.155273	26.734877
374.865875	1231.056763	6519.367188	2762.482178	28.958689
375.231567	1274.291626	6398.764648	2751.104736	28.818829
375.597260	1226.505737	6503.438477	2867.156250	31.090988
375.962891	1233.332275	6881.174805	2894.462402	29.411762
376.328461	1267.465088	6835.664551	2839.849854	28.238659
376.694031	1267.465088	7024.532715	3035.544678	30.711462
377.059540	1331.179688	7365.860840	3083.330566	29.034689
377.425049	1258.363037	7643.474609	3106.085938	28.937990
377.790497	1249.260864	7782.281250	3244.892578	30.546846
378.155945	1333.455200	8084.925293	3351.842041	29.895515
378.521301	1256.087524	7834.618164	3433.760986	33.102730
378.886597	1369.863525	7973.424805	3363.219727	30.186077
379.251892	1312.975464	7497.840820	3288.127441	31.935247
379.617157	1272.016113	7274.839844	3206.208740	32.221378
379.982422	1196.923950	7056.390137	3078.779541	32.116501
380.347595	1310.699951	7033.634766	3142.494141	32.007954
380.712738	1251.536499	6947.165039	3162.973877	33.559727
381.077820	1260.638550	7042.736816	3251.719238	34.435265
381.442902	1278.842651	7097.349609	3122.014648	31.677750
381.807953	1294.771362	7015.430664	3335.913574	35.680191
382.172974	1267.465088	6938.062988	3294.954102	35.754414
382.537933	1285.669312	6992.675293	3247.168213	34.370018
382.902832	1256.087524	7010.879395	3408.730225	37.406090
383.267700	1242.434326	7088.247070	3413.281250	37.135075
383.632538	1292.495850	7179.268066	3472.444824	37.031311
383.997345	1246.985352	7404.544922	3488.373291	36.400589
384.362152	1292.495850	7582.035156	3640.833252	37.337193
384.726898	1246.985352	7554.729004	3725.027588	39.285717
385.091553	1233.332275	7577.484375	3661.312988	38.271160
385.456238	1315.250977	7559.280273	3781.915527	39.504372
385.820862	1269.740601	7618.443848	3770.538086	39.390682
386.185425	1219.679199	7611.617188	3793.293213	40.263439
386.549988	1258.363037	7609.341797	3913.895752	41.812969
386.914490	1244.709839	7729.944336	3900.242676	40.947369
387.278961	1262.914063	7950.669922	4014.018799	41.136440
387.643372	1258.363037	8057.619141	4109.590332	41.934402
388.007782	1258.363037	8046.241699	4075.457764	41.501842
388.372101	1281.118164	8032.588379	4325.765137	45.096058
388.736450	1240.158813	8005.282227	4291.632324	45.105957
389.100739	1278.842651	8003.006836	4357.622559	45.786804
389.464966	1274.291626	7727.668457	4271.152344	46.438644
389.829163	1317.526489	7907.434570	4375.826660	46.408844
390.193329	1244.709839	7805.036133	4432.714355	48.595211
390.557495	1315.250977	8098.578613	4423.612305	45.823547
390.921570	1210.577026	8264.691406	4617.031738	48.290325
391.285614	1303.873413	8280.620117	4685.297363	48.467060
391.649597	1235.607788	8396.671875	4981.115234	52.303783
392.013550	1285.669312	8967.827148	5247.351074	51.569908
392.377502	1276.567139	9249.992188	5454.423340	52.397263
392.741455	1242.434326	9149.869141	5422.565918	52.863312
393.105316	1253.812012	9036.092773	5370.229004	52.894737
393.469086	1365.312500	8885.909180	5447.596680	54.281387
393.832886	1338.006226	8874.531250	5304.238770	52.626808
394.196655	1353.934937	8958.725586	5636.464844	56.313580
394.560333	1322.077637	9031.541992	5606.883301	55.578514
394.924042	1328.904175	9197.655273	5795.751465	56.766914
395.287659	1287.944824	9407.002930	5955.038086	57.483185
395.651245	1262.914063	9036.092773	6018.752441	61.182671
396.014771	1260.638550	9033.817383	5848.088379	59.016392
396.378296	1353.934937	8526.375977	5761.618652	61.453049
396.741791	1326.628662	8355.711914	5631.914063	61.249599
397.105255	1219.679199	8346.610352	5697.904297	62.835251
397.468628	1206.026001	8305.651367	5677.424316	62.980766
397.832001	1231.056763	8194.150391	5779.822754	65.326797
398.195313	1258.363037	8294.273438	5813.955566	64.747742
398.558624	1281.118164	8251.038086	5911.803223	66.438141
398.921844	1292.495850	8223.732422	5964.140137	67.399872
399.285095	1274.291626	8194.150391	6114.324219	69.944092
399.648254	1297.046875	8173.670898	6018.752441	68.663132
400.011383	1319.802124	8328.406250	6175.763672	69.285713
400.374451	1308.424438	8246.487305	6023.303711	67.956711
400.737549	1335.730713	8380.743164	6480.683105	73.029709
401.100586	1287.944824	8251.038086	6366.907227	72.941177
401.463562	1297.046875	8244.211914	6316.845703	72.256798
401.826508	1351.659302	8576.437500	6637.694336	73.165359
402.189392	1301.597900	8114.507324	6373.733887	74.448898
402.552246	1306.148926	8376.192383	6628.592285	75.281624
402.915070	1292.495850	8483.141602	6528.469238	72.816460
403.277893	1256.087524	8708.417969	7015.430664	77.282448
403.640656	1260.638550	8822.194336	7206.574219	78.633759
404.003326	1276.567139	9006.511719	7409.095703	79.334702
404.366028	1210.577026	8897.286133	7454.605957	81.231499
404.728699	1240.158813	9309.155273	7807.312012	81.387482
405.091248	1269.740601	9766.535156	7934.741211	78.441345
405.453857	1285.669312	9766.535156	7800.485352	76.817810
405.816345	1206.026001	9443.411133	7877.853027	80.994484
406.178833	1301.597900	9541.258789	8155.466797	83.181442
406.541260	1265.189575	9768.810547	8264.691406	82.312019
406.903687	1228.781250	9393.349609	7971.149414	82.580826
407.266052	1356.210449	9275.022461	7732.219727	80.517242
407.628387	1246.985352	9156.695313	7727.668457	81.933258
407.990662	1287.944824	9077.052734	7898.332520	84.867073
408.352905	1224.230225	9083.878906	7625.270020	81.441811
408.715118	1224.230225	9193.104492	7905.159180	83.837799
409.077332	1283.393677	9127.114258	7823.240723	83.376846
409.439484	1258.363037	9074.777344	7852.822266	84.366806
409.801575	1301.597900	9106.633789	7923.363281	84.839653
410.163605	1385.792114	9366.043945	8016.659668	83.090958
410.525635	1333.455200	9545.809570	8266.966797	84.427818
410.887604	1338.006226	9511.676758	8437.630859	86.859688
411.249573	1276.567139	9659.585938	8510.448242	86.292076
411.611481	1260.638550	9418.380859	8449.008789	88.117149
411.973328	1353.934937	9493.472656	8387.569336	86.413193
412.335144	1344.832764	9618.625977	8478.590820	86.221130
412.696930	1342.557251	9498.023438	8289.722656	85.184158
413.058685	1246.985352	9384.248047	8180.497070	85.206932
413.420410	1285.669312	9286.400391	8371.640625	88.566551
413.782104	1319.802124	9513.952148	8291.998047	85.087479
414.143707	1287.944824	9407.002930	8148.640137	84.501122
414.505310	1322.077637	9573.116211	8394.396484	85.714279
414.866852	1292.495850	9689.167969	8453.559570	85.284546
415.228394	1251.536499	9773.362305	8637.876953	86.675560
415.589874	1249.260864	9777.913086	8685.663086	87.193169
415.951324	1285.669312	9889.413086	8899.561523	88.495102
416.312683	1333.455200	10260.323242	9145.318359	87.509560
416.674072	1324.353149	10328.588867	9104.358398	86.403847
417.035370	1253.812012	11052.204102	9438.860352	83.534599
417.396667	1297.046875	10813.274414	9639.106445	87.661415
417.757935	1294.771362	11095.439453	9511.676758	83.840256
418.119141	1272.016113	11559.645508	10137.445313	86.175636
418.480286	1253.812012	11718.931641	10305.833984	86.497070
418.841400	1258.363037	12208.168945	10913.397461	88.175392
419.202484	1260.638550	12606.384766	11165.980469	87.304459
419.563568	1228.781250	12988.672852	11648.390625	88.602936
419.924591	1276.567139	13789.656250	12139.903320	86.815781
420.285553	1324.353149	13853.371094	12212.719727	86.905190
420.646484	1312.975464	14815.916016	13223.051758	88.203575
421.007355	1253.812012	15261.917969	13261.735352	85.721252
421.368225	1301.597900	15935.472656	14315.301758	88.928627
421.729065	1292.495850	16342.790039	14545.128906	88.055641
422.089874	1338.006226	16998.140625	14704.415039	85.353088
422.450592	1351.659302	16809.271484	14545.128906	85.352570
422.811279	1308.424438	16652.261719	14859.150391	88.313805
423.171936	1251.536499	16627.230469	14617.945313	86.932068
423.532593	1226.505737	16358.718750	14133.259766	85.293236
423.893127	1292.495850	16511.179688	14654.353516	87.799034
424.253723	1285.669312	16727.353516	14845.498047	87.813148
424.614197	1244.709839	16938.976563	14813.640625	86.457886
424.974670	1249.260864	17539.714844	15391.623047	86.813797
425.335052	1249.260864	17573.847656	15257.367188	85.809868
425.695496	1253.812012	16836.578125	14770.405273	86.740662
426.055817	1272.016113	16977.660156	15116.285156	88.148369
426.416168	1260.638550	16941.251953	14818.191406	86.460602
426.776398	1292.495850	15944.574219	13983.075195	86.612823
427.136627	1242.434326	15578.215820	13434.674805	85.047615
427.496826	1231.056763	15316.530273	13384.613281	86.284332
427.856995	1240.158813	14397.219727	12724.711914	87.288132
428.217102	1278.842651	14128.708984	12353.802734	86.187355
428.577179	1342.557251	13748.696289	12328.771484	88.554657
428.937195	1249.260864	13798.757813	12019.300781	85.820488
429.297180	1306.148926	13015.978516	11520.961914	87.232796
429.657135	1276.567139	13202.571289	11652.942383	87.006302
430.017059	1244.709839	13459.705078	11673.421875	85.376312
430.376984	1290.220337	13125.204102	11341.195313	84.925972
430.736786	1301.597900	12738.365234	11361.675781	87.962601
431.096588	1303.873413	12840.763672	11247.899414	86.193298
431.456360	1269.740601	12868.070313	11216.041992	85.756325
431.816071	1317.526489	12310.567383	11056.755859	88.594498
432.175781	1292.495850	12574.528320	11106.817383	86.990723
432.535400	1237.883301	12526.742188	11077.235352	87.159836
432.895020	1244.709839	12467.578125	11024.898438	87.145180
433.254578	1274.291626	12886.274414	11225.144531	85.694695
433.614105	1274.291626	12972.744141	11423.114258	86.753548
433.973602	1299.322388	13484.736328	11873.667969	86.778717
434.333038	1290.220337	13334.551758	11641.564453	85.943703
434.692444	1265.189575	13402.817383	11536.890625	84.626923
435.051819	1258.363037	13680.430664	11882.769531	85.528488
435.411133	1367.588013	13744.145508	12014.750000	86.026848
435.770416	1185.546387	13036.458984	11566.472656	87.596008
436.129669	1294.771362	13498.389648	11939.657227	87.227295
436.488861	1306.148926	13343.654297	11525.512695	84.896019
436.848083	1374.414551	13430.124023	11591.502930	84.748962
437.207184	1292.495850	13327.725586	11709.830078	86.557007
437.566254	1310.699951	13689.533203	11923.728516	85.735291
437.925293	1210.577026	13669.053711	11791.749023	84.931503
438.284363	1240.158813	13805.584961	11962.413086	85.331398
438.643311	1274.291626	13839.717773	12135.352539	86.436073
439.002258	1294.771362	13780.553711	12160.382813	87.023872
439.361145	1256.087524	14121.881836	12763.396484	89.441109
439.719971	1237.883301	14793.161133	12879.447266	85.882156
440.078827	1335.730713	14836.395508	13063.764648	86.870049
440.437592	1342.557251	15271.020508	13482.460938	87.158958
440.796295	1297.046875	15534.980469	13543.899414	86.015663
441.155029	1269.740601	16704.597656	14536.027344	85.950172
441.513672	1278.842651	16843.404297	14613.394531	85.672516
441.872253	1294.771362	17109.640625	14727.170898	84.935257
442.230865	1285.669312	16367.821289	14627.047852	88.458054
442.589386	1278.842651	16693.220703	14249.311523	84.145264
442.947876	1272.016113	16247.218750	14001.279297	85.002274
443.306335	1287.944824	15862.655273	14044.514648	87.525375
443.664764	1326.628662	15341.561523	13213.949219	84.818962
444.023102	1269.740601	15691.991211	13639.471680	85.768379
444.381500	1349.383789	15478.092773	13248.082031	84.216461
444.739777	1315.250977	15546.358398	13252.632813	83.882309
445.098022	1335.730713	15846.726563	13673.604492	85.024307
445.456238	1349.383789	15785.288086	13905.708008	86.979828
445.814423	1315.250977	16274.524414	14146.913086	85.777306
446.172577	1265.189575	17212.039063	14900.110352	85.502289
446.530701	1224.230225	17107.365234	14856.875000	85.830948
446.888733	1342.557251	17496.478516	15220.958984	85.913513
447.246765	1308.424438	18634.240234	15908.166016	84.265823
447.604736	1290.220337	17553.367188	15491.746094	87.323357
447.962677	1278.842651	18151.830078	15803.492188	86.082260
448.320587	1340.281738	18422.617188	15812.593750	84.720924
448.678436	1287.944824	17908.349609	15773.910156	87.157715
449.036255	1212.852539	17922.001953	15373.418945	84.747383
449.394043	1292.495850	16818.375000	14658.905273	86.091156
449.751770	1217.403687	17027.722656	14852.324219	86.240639
450.109467	1262.914063	16401.953125	14376.740234	86.622581
450.467163	1237.883301	16558.964844	14228.832031	84.791328
450.824768	1306.148926	16185.779297	13921.636719	84.783607
451.182343	1285.669312	15805.767578	13723.666016	85.660553
451.539886	1224.230225	15603.246094	13461.981445	85.108406
451.897369	1303.873413	15546.358398	13600.788086	86.339668
452.254822	1233.332275	15243.713867	13309.521484	86.194580
452.612274	1253.812012	15794.389648	13477.910156	84.068855
452.969635	1308.424438	15528.154297	13603.063477	86.461830
453.326965	1206.026001	15880.859375	13421.021484	83.237709
453.684326	1201.474976	15423.480469	13436.950195	86.031998
454.041534	1251.536499	15182.274414	13157.061523	85.462273
454.398773	1265.189575	14847.773438	12681.477539	84.050926
454.755951	1294.771362	14483.689453	12417.516602	84.334023
455.113098	1240.158813	13912.534180	12021.576172	85.078110
455.470215	1292.495850	14194.699219	12501.710938	86.878304
455.827240	1208.301514	14096.851563	12326.496094	86.264122
456.184265	1287.944824	14153.739258	12221.822266	84.984077
456.541260	1276.567139	13696.359375	12021.576172	86.515205
456.898193	1349.383789	13985.350586	11907.800781	83.558441
457.255096	1303.873413	14110.504883	12419.792969	86.798157
457.611969	1215.128052	13864.748047	12080.740234	85.896751
457.968781	1215.128052	13905.708008	12123.974609	85.960190
458.325531	1199.199463	14112.780273	12547.221680	87.876648
458.682312	1246.985352	15052.570313	13136.582031	86.121643
459.039001	1276.567139	15748.879883	13687.257813	85.754715
459.395630	1237.883301	16463.392578	14146.913086	84.785530
459.752289	1260.638550	17605.705078	15211.856445	85.354301
460.108856	1285.669312	18859.515625	16322.310547	85.562614
460.465363	1249.260864	19401.089844	16925.324219	86.360794
460.821899	1262.914063	19448.876953	16973.109375	86.386383
461.178345	1231.056763	19037.007813	16825.201172	87.578270
461.534760	1246.985352	18900.476563	16074.279297	83.990715
461.891144	1287.944824	17892.419922	15498.572266	85.583115
462.247467	1285.669312	17127.845703	14925.140625	86.095947
462.603760	1283.393677	16927.599609	14697.588867	85.745453
462.960052	1353.934937	16128.891602	13989.902344	85.522873
463.316254	1267.465088	15466.714844	13484.736328	86.041664
463.672424	1315.250977	15339.286133	13489.287109	86.808365
464.028564	1272.016113	15002.508789	12904.478516	84.719925
464.384644	1226.505737	14688.486328	12863.519531	86.443550
464.740723	1322.077637	15127.662109	13020.530273	84.737114
465.096741	1274.291626	14777.232422	12722.436523	84.782600
465.452698	1283.393677	14438.179688	12824.834961	87.735680
465.808655	1180.995239	14754.476563	12861.243164	86.051971
466.164520	1301.597900	14836.395508	12731.539063	84.448555
466.520355	1356.210449	15475.817383	13373.235352	85.108780
466.876190	1287.944824	15691.991211	13543.899414	85.086884
467.231964	1233.332275	15487.194336	13712.288086	87.547890
467.587677	1231.056763	16151.646484	13923.912109	85.069397
467.943390	1290.220337	16240.391602	13880.676758	84.216133
468.299011	1306.148926	15696.542969	13821.513672	86.970268
468.654633	1249.260864	15305.153320	13587.134766	87.777237
469.010223	1278.842651	15448.510742	13785.105469	88.260803
469.365723	1244.709839	14993.406250	13279.939453	87.537239
469.721191	1235.607788	15309.704102	13273.113281	85.529510
470.076660	1299.322388	14831.844727	12683.752930	84.126450
470.432068	1301.597900	14886.457031	13138.857422	87.135681
470.787445	1322.077637	14642.976563	12695.130859	85.377518
471.142792	1278.842651	14656.629883	12847.590820	86.477295
471.498016	1256.087524	15052.570313	13027.356445	85.320793
471.853271	1237.883301	15027.539063	13068.316406	85.792084
472.208496	1283.393677	14790.884766	12840.763672	85.562668
472.563660	1281.118164	15268.744141	13116.101563	84.610382
472.918762	1328.904175	15300.601563	13323.173828	85.846901
473.273865	1301.597900	15560.011719	13407.368164	84.902641
473.628876	1319.802124	16040.146484	13857.921875	85.175453
473.983917	1340.281738	15919.543945	13960.320313	86.561577
474.338837	1262.914063	16169.850586	13803.309570	84.124565
474.693787	1324.353149	15935.472656	13719.115234	84.831024
475.048645	1322.077637	16106.136719	13710.012695	83.792519
475.403503	1299.322388	16192.606445	14008.106445	85.332314
475.758270	1228.781250	16310.933594	13923.912109	84.173203
476.113037	1315.250977	16115.238281	14039.962891	85.977859
476.467773	1260.638550	16545.312500	14096.851563	83.980942
476.822418	1283.393677	17400.908203	14756.751953	83.594513
477.177063	1376.690063	16936.701172	14677.109375	85.478210
477.531647	1310.699951	17639.837891	15150.417969	84.754738
477.886200	1258.363037	18115.421875	15500.847656	84.489738
478.240723	1292.495850	18581.902344	15619.174805	82.863914
478.595184	1292.495850	18836.761719	16097.034180	84.383911
478.949585	1265.189575	18834.486328	16178.953125	84.885376
479.303986	1285.669312	19052.935547	16308.657227	84.554306
479.658325	1226.505737	19075.691406	16595.373047	86.104027
480.012634	1274.291626	19164.435547	16863.884766	87.140678
480.366913	1267.465088	19801.582031	16875.261719	84.211166
480.721130	1292.495850	20309.023438	17291.681641	84.133057
481.075317	1281.118164	20577.535156	18024.400391	86.768860
481.429474	1201.474976	21674.335938	18768.496094	85.806381
481.783569	1274.291626	22630.054688	19260.007813	84.219498
482.137604	1265.189575	23783.744141	19942.664063	82.942596
482.491669	1240.158813	26095.671875	22204.531250	84.344963
482.845612	1294.771362	28352.988281	24302.562500	85.030701
483.199554	1342.557251	31784.474609	27242.535156	85.079979
483.553436	1312.975464	37136.500000	31556.921875	84.424828
483.907318	1310.699951	43430.589844	37614.359375	86.191246
484.261139	1297.046875	49599.527344	43262.203125	86.879921
484.614899	1262.914063	53445.156250	45615.089844	84.994766
484.968628	1297.046875	53638.578125	46786.984375	86.909836
485.322357	1228.781250	51253.832031	44345.347656	86.189949
485.675964	1338.006226	47840.550781	40595.292969	84.419655
486.029572	1265.189575	43598.980469	37216.144531	84.922600
486.383148	1274.291626	40517.921875	34674.386719	85.109596
486.736694	1292.495850	38324.320313	32888.101563	85.320145
487.090149	1317.526489	38149.105469	32549.048828	84.795502
487.443604	1235.607788	39025.183594	33272.664063	84.777504
487.796997	1283.393677	40593.015625	34660.734375	84.908829
488.150360	1228.781250	41824.074219	35941.851563	85.510086
488.503693	1281.118164	42527.207031	36622.230469	85.683548
488.856964	1253.812012	42363.371094	36328.691406	85.320496
489.210175	1262.914063	40078.746094	34255.691406	84.998245
489.563416	1285.669312	37564.296875	32355.630859	85.642601
489.916565	1233.332275	35600.523438	30346.345703	84.711647
490.269653	1303.873413	33422.847656	28605.572266	85.001778
490.622772	1283.393677	32555.876953	27495.117188	83.817215
490.975769	1312.975464	31993.822266	27465.535156	85.240669
491.328735	1308.424438	33224.878906	28334.785156	84.678459
491.681732	1285.669312	35063.500000	30155.201172	85.468872
492.034607	1385.792114	37218.417969	32000.648438	85.438492
492.387482	1276.567139	38679.300781	32776.601563	84.218536
492.740326	1265.189575	37445.968750	32084.843750	85.182396
493.093079	1221.954712	36148.921875	30412.335938	83.575478
493.445862	1206.026001	33188.472656	27895.609375	83.450722
493.798523	1244.709839	30598.927734	25863.570313	83.868225
494.151215	1231.056763	28186.876953	23949.855469	84.281609
494.503815	1308.424438	26232.203125	22313.757813	84.278282
494.856384	1224.230225	24721.257813	20921.138672	83.827232
495.208923	1158.240112	23590.324219	19985.898438	83.931831
495.561432	1274.291626	22887.187500	19407.916016	83.901871
495.913879	1244.709839	22680.115234	19248.630859	83.991508
496.266296	1342.557251	22429.808594	19373.783203	85.507713
496.618683	1278.842651	22650.533203	18852.689453	82.229561
496.970978	1265.189575	23260.373047	19628.642578	83.488518
497.323273	1265.189575	23301.332031	19819.787109	84.200752
497.675507	1251.536499	23330.914063	20306.748047	86.303207
498.027710	1256.087524	23674.517578	19822.062500	82.815681
498.379852	1292.495850	23333.189453	19872.123047	84.296928
498.731995	1240.158813	23016.892578	19555.826172	84.106590
499.084076	1233.332275	22625.503906	19066.587891	83.363464
499.436096	1328.904175	22416.156250	18936.884766	83.500595
499.788086	1265.189575	21931.468750	18654.718750	84.144463
500.140106	1281.118164	21419.476563	18327.044922	84.644066
500.491943	1265.189575	21059.945313	17933.378906	84.205078
500.843842	1246.985352	20868.800781	17660.316406	83.648384
501.195679	1287.944824	20522.921875	17309.886719	83.295876
501.547455	1237.883301	20181.593750	16936.701172	82.870872
501.899231	1158.240112	20088.296875	16984.486328	83.603798
502.250885	1297.046875	19680.978516	16750.109375	84.057442
502.602600	1278.842651	19781.101563	16463.392578	82.068626
502.954193	1351.659302	19635.468750	16590.822266	83.347862
503.305786	1356.210449	19824.337891	16656.812500	82.848694
503.657379	1262.914063	19576.304688	16620.404297	83.859352
504.008820	1292.495850	19819.787109	16715.976563	83.247360
504.360291	1322.077637	19933.562500	17000.416016	84.240128
504.711700	1326.628662	20202.074219	17177.906250	83.978294
505.063080	1267.465088	20202.074219	16993.589844	83.054924
505.414368	1235.607788	19915.357422	16929.875000	84.017548
505.765656	1319.802124	19906.255859	16643.158203	82.443680
506.116943	1340.281738	19910.806641	16663.638672	82.514397
506.468109	1267.465088	19626.367188	16736.455078	84.258797
506.819305	1281.118164	19701.458984	16690.945313	83.656586
507.170410	1319.802124	19708.285156	16458.841797	82.328926
507.521484	1301.597900	19740.142578	16345.065430	81.587067
507.872559	1235.607788	19828.888672	16415.607422	81.642395
508.223480	1312.975464	19890.328125	16684.119141	82.741295
508.574493	1246.985352	20117.878906	17050.476563	83.745323
508.925385	1290.220337	20229.380859	17107.365234	83.515556
509.276245	1278.842651	20370.462891	17512.408203	85.029793
509.627045	1326.628662	20755.025391	17589.775391	83.708122
509.977814	1356.210449	21071.322266	17751.337891	83.160202
510.328613	1244.709839	21276.119141	17737.685547	82.335571
510.679260	1274.291626	21203.302734	18133.625000	84.596939
511.029999	1276.567139	21619.722656	17896.970703	81.700226
511.380585	1319.802124	21551.457031	18185.962891	83.365204
511.731140	1290.220337	21674.335938	18290.636719	83.400314
512.081726	1246.985352	21806.316406	18611.484375	84.460426
512.432129	1265.189575	22329.685547	18536.392578	81.992004
512.782654	1276.567139	22354.716797	18593.281250	82.154816
513.133057	1196.923950	22693.769531	19082.517578	83.201012
513.483398	1292.495850	22554.962891	18722.984375	81.977730
513.833801	1290.220337	22766.585938	18852.689453	81.775795
514.183960	1221.954712	21949.673828	18668.373047	84.169502
514.534302	1221.954712	22077.103516	18431.718750	82.520454
514.884460	1260.638550	21917.816406	18413.513672	83.035904
515.234619	1276.567139	22036.142578	18199.615234	81.519241
515.584717	1244.709839	21546.906250	18226.921875	83.647163
515.934753	1272.016113	21924.642578	18622.861328	84.012779
516.284851	1283.393677	21936.021484	18509.085938	83.406784
516.634766	1351.659302	22265.970703	18602.382813	82.482864
516.984741	1260.638550	22325.134766	19027.904297	84.346977
517.334595	1242.434326	23080.607422	19321.447266	82.786285
517.684448	1317.526489	24104.591797	19851.642578	81.336128
518.034363	1269.740601	24448.195313	20588.912109	83.349693
518.384094	1244.709839	25312.892578	21210.128906	82.953583
518.733826	1217.403687	26919.410156	22361.542969	82.266495
519.083496	1246.985352	27442.781250	22807.544922	82.305412
519.433167	1281.118164	27818.242188	23301.332031	82.978905
519.782776	1306.148926	27638.476563	22998.689453	82.379883
520.132324	1331.179688	27369.964844	22896.291016	82.819191
520.481873	1251.536499	26696.410156	22086.205078	81.881592
520.831299	1285.669312	25836.263672	21603.794922	82.760216
521.180786	1292.495850	25551.822266	21078.148438	81.558952
521.530151	1249.260864	24982.943359	20852.873047	82.598274
521.879517	1260.638550	24830.482422	20491.064453	81.589111
522.228882	1333.455200	24853.238281	20684.484375	82.275543
522.578064	1276.567139	24018.121094	20174.767578	83.099861
522.927307	1297.046875	24514.185547	20258.960938	81.672050
523.276489	1256.087524	24109.142578	20252.134766	83.122574
523.625610	1303.873413	24650.716797	20522.921875	82.319687
523.974792	1240.158813	25053.484375	20648.076172	81.500237
524.323792	1215.128052	25426.669922	21371.691406	83.251877
524.672852	1237.883301	25956.865234	21651.580078	82.583084
525.021790	1285.669312	26791.982422	22482.146484	83.102867
525.370728	1258.363037	27806.863281	23355.945313	83.234764
525.719604	1260.638550	29531.708984	24368.552734	81.736961
526.068420	1256.087524	30712.705078	25695.181641	82.966393
526.417297	1312.975464	32453.478516	26657.726563	81.388382
526.765991	1272.016113	32951.816406	27244.810547	81.985352
527.114746	1285.669312	34346.710938	28603.296875	82.627846
527.463379	1253.812012	35170.449219	29363.320313	82.878227
527.812012	1244.709839	37238.898438	30724.082031	81.900368
528.160706	1340.281738	40194.800781	33177.093750	81.938507
528.509155	1240.158813	44561.523438	37004.519531	82.555939
528.857727	1231.056763	49645.039063	41464.539063	83.103020
529.206177	1233.332275	53058.320313	44663.921875	83.802414
529.554565	1265.189575	53385.992188	44962.015625	83.837593
529.902893	1285.669312	52464.406250	43969.886719	83.402252
530.251221	1269.740601	50284.457031	41769.460938	82.627670
530.599548	1267.465088	45756.171875	38119.523438	82.834633
530.947876	1267.465088	42800.269531	35220.511719	81.749947
531.296021	1328.904175	39412.019531	32653.722656	82.253822
531.644165	1274.291626	36806.550781	30407.785156	81.991676
531.992249	1358.485962	35138.593750	29251.820313	82.573250
532.340454	1290.220337	33980.351563	28321.132813	82.688293
532.688354	1231.056763	34019.035156	28073.099609	81.865509
533.036438	1290.220337	34681.210938	28378.019531	81.123070
533.384338	1372.139038	36720.078125	30578.449219	82.625221
533.732239	1303.873413	38954.640625	32423.896484	82.654427
534.080139	1308.424438	39666.878906	32671.927734	81.764259
534.427917	1246.985352	39277.765625	32285.089844	81.613113
534.775757	1292.495850	37582.500000	30890.195313	81.558823
535.123474	1294.771362	35686.992188	29959.507813	83.346565
535.471191	1253.812012	33914.363281	28312.029297	82.846786
535.818848	1233.332275	32448.925781	26908.033203	82.249603
536.166382	1267.465088	31852.740234	25756.619141	80.068443
536.513977	1294.771362	31500.035156	25840.814453	81.264122
536.861511	1258.363037	31695.728516	26427.898438	82.692886
537.208984	1347.108276	31741.240234	26223.101563	81.844727
537.556396	1317.526489	31659.320313	25961.416016	81.220940
537.903809	1251.536499	31079.062500	25717.935547	82.026245
538.251160	1276.567139	30391.855469	24703.054688	80.461121
538.598389	1203.750488	29081.156250	24154.652344	82.327972
538.945740	1276.567139	28202.804688	23260.373047	81.644554
539.292969	1246.985352	28007.109375	22859.882813	80.765312
539.640137	1228.781250	27071.871094	22468.492188	82.187195
539.987244	1317.526489	27693.087891	22709.697266	81.106033
540.334351	1276.567139	28002.558594	23155.699219	81.864624
540.681458	1221.954712	29579.494141	24218.367188	81.094528
541.028442	1246.985352	32319.222656	26678.205078	81.845467
541.375366	1242.434326	35366.144531	29076.605469	81.568420
541.722290	1292.495850	38442.648438	31563.750000	81.483528
542.069153	1256.087524	40012.757813	33290.871094	82.656174
542.416016	1269.740601	40902.488281	33732.320313	81.908478
542.762756	1246.985352	39366.511719	32735.642578	82.605057
543.109558	1317.526489	38388.035156	31716.208984	82.002335
543.456299	1260.638550	36763.312500	30551.142578	82.502243
543.802917	1324.353149	35411.656250	29108.462891	81.508675
544.149536	1240.158813	33677.707031	27815.966797	81.929153
544.496094	1342.557251	31429.494141	26086.570313	82.241714
544.842651	1253.812012	30141.548828	24844.136719	81.662071
545.189148	1276.567139	28560.062500	23544.814453	81.618019
545.535583	1276.567139	27556.556641	22752.931641	81.721359
545.882019	1269.740601	26487.062500	22218.185547	83.071648
546.228333	1294.771362	26425.623047	21822.244141	81.682358
546.574707	1294.771362	26177.591797	21735.775391	82.149063
546.920898	1338.006226	26382.388672	21867.755859	81.973473
547.267212	1303.873413	26047.886719	21533.253906	81.754646
547.613342	1253.812012	26214.000000	21610.621094	81.557114
547.959473	1301.597900	26022.855469	21790.386719	82.879234
548.305664	1219.679199	25428.945313	20734.544922	80.609077
548.651611	1283.393677	24718.982422	20047.337891	80.066025
548.997742	1260.638550	23355.945313	19173.539063	81.071068
549.343689	1196.923950	22602.748047	18397.585938	80.355057
549.689575	1224.230225	21342.109375	17708.103516	81.936440
550.035522	1276.567139	20993.955078	17139.222656	80.450081
550.381287	1317.526489	20145.185547	16458.841797	80.420601
550.727173	1328.904175	19917.632813	16597.648438	82.139801
551.072876	1262.914063	19157.609375	16165.299805	83.278229
551.418640	1283.393677	19419.294922	15480.368164	78.281059
551.764282	1283.393677	19257.732422	15689.715820	80.149391
552.109863	1281.118164	18818.556641	15519.051758	81.185944
552.455505	1283.393677	19194.017578	15980.982422	82.060738
552.801025	1256.087524	19549.000000	15971.880859	80.445328
553.146545	1324.353149	19667.326172	16367.821289	82.012161
553.491943	1342.557251	20133.808594	16317.759766	79.692413
553.837341	1272.016113	19744.693359	16577.169922	82.852928
554.182800	1322.077637	19913.082031	16372.372070	80.954720
554.528015	1206.026001	19574.029297	15978.707031	80.426163
554.873352	1326.628662	19121.201172	15860.379883	81.675194
555.218628	1278.842651	18859.515625	15555.459961	81.206314
555.563721	1267.465088	18597.832031	15421.204102	81.670166
555.908875	1269.740601	18315.666016	14661.180664	78.560944
556.254028	1235.607788	18233.748047	14820.466797	79.919678
556.599121	1333.455200	17776.369141	14884.181641	82.410736
556.944031	1256.087524	17728.582031	14358.536133	79.541374
557.289063	1265.189575	17569.296875	14460.934570	80.935097
557.633972	1260.638550	17664.867188	14153.739258	78.596199
557.978882	1258.363037	17546.541016	14285.719727	79.980438
558.323792	1260.638550	17316.712891	14260.688477	80.966553
558.668518	1281.118164	16982.210938	13989.902344	80.942039
559.013306	1301.597900	17100.539063	14026.310547	80.541557
559.358032	1287.944824	17052.751953	13907.983398	80.051971
559.702637	1233.332275	17125.570313	13780.553711	78.951881
560.047363	1258.363037	17114.191406	13798.757813	79.090126
560.391846	1338.006226	17177.906250	13687.257813	77.962936
560.736450	1299.322388	17155.150391	13737.319336	78.444321
561.080933	1278.842651	17202.937500	13823.789063	78.779648
561.425354	1210.577026	17107.365234	14281.168945	82.221588
561.769775	1212.852539	17161.978516	13992.177734	80.125549
562.114136	1253.812012	17239.345703	14313.025391	81.693947
562.458496	1363.036987	17535.164063	14272.066406	79.822708
562.802673	1274.291626	17339.468750	14338.056641	81.317276
563.146912	1269.740601	17141.498047	13985.350586	80.114693
563.491150	1292.495850	17173.355469	14024.035156	80.169083
563.835266	1326.628662	16741.005859	13962.595703	81.975204
564.179443	1367.588013	16809.271484	13760.074219	80.253464
564.523438	1306.148926	17000.416016	14035.412109	81.107727
564.867493	1303.873413	17266.652344	13864.748047	78.688522
565.211426	1269.740601	17309.886719	14196.974609	80.592995
565.555359	1312.975464	17623.908203	14099.126953	78.390068
565.899231	1240.158813	17730.857422	14658.905273	81.371605
566.243042	1242.434326	18254.228516	14900.110352	80.283569
566.586914	1303.873413	18852.689453	15282.397461	79.655083
566.930603	1315.250977	18832.210938	15573.664063	81.397758
567.274292	1276.567139	18980.119141	15566.837891	80.719788
567.617981	1351.659302	19080.242188	15534.980469	80.002571
567.961609	1338.006226	18734.363281	15284.672852	80.170044
568.305237	1267.465088	18622.861328	15084.427734	79.611908
568.648682	1274.291626	18172.308594	14745.375000	79.719902
568.992188	1267.465088	18083.564453	14649.802734	79.580513
569.335632	1233.332275	18053.982422	14433.628906	78.476730
569.679016	1246.985352	17801.398438	14472.312500	79.890038
570.022461	1224.230225	17626.183594	14358.536133	80.077690
570.365662	1233.332275	17878.767578	14274.341797	78.345863
570.708984	1272.016113	17733.132813	14203.800781	78.559586
571.052185	1272.016113	17903.796875	14394.944336	78.902718
571.395386	1246.985352	18067.634766	14622.497070	79.518410
571.738525	1290.220337	18654.718750	14902.385742	78.390778
572.081604	1287.944824	18679.750000	15275.571289	80.426544
572.424683	1328.904175	18966.466797	15271.020508	79.047859
572.767578	1312.975464	19444.326172	15778.460938	79.781616
573.110596	1292.495850	19298.691406	15746.603516	80.272964
573.453552	1319.802124	19221.324219	15585.041992	79.687309
573.796387	1347.108276	19357.855469	15352.938477	77.763733
574.139282	1228.781250	18779.873047	15541.806641	81.550629
574.481995	1244.709839	18443.095703	15152.693359	80.867950
574.824768	1292.495850	18602.382813	15079.875977	79.650322
575.167480	1281.118164	18748.015625	14852.324219	77.696716
575.510132	1287.944824	18085.839844	14825.017578	80.587914
575.852722	1301.597900	18481.779297	14768.129883	78.384109
576.195251	1224.230225	18236.023438	14563.333008	78.410912
576.537842	1224.230225	18060.808594	14497.342773	78.834976
576.880188	1258.363037	17712.654297	14194.699219	78.619835
577.222717	1249.260864	17425.937500	14028.585938	78.998459
577.565063	1231.056763	17052.751953	13976.249023	80.555161
577.907410	1269.740601	17007.242188	13696.359375	78.961830
578.249756	1240.158813	16558.964844	13398.266602	79.367203
578.591919	1221.954712	16053.798828	13031.907227	79.625648
578.934204	1292.495850	15687.440430	12731.539063	79.465698
579.276306	1281.118164	15473.541016	12626.865234	79.942284
579.618469	1217.403687	15177.723633	12474.405273	80.635696
579.960571	1262.914063	15159.519531	12344.700195	79.744553
580.302551	1251.536499	14674.833984	12110.321289	80.895065
580.644531	1283.393677	14836.395508	11937.381836	78.609802
580.986511	1326.628662	14672.558594	11707.554688	77.783463
581.328369	1367.588013	14799.987305	11721.208008	77.079453
581.670227	1246.985352	14313.025391	11814.503906	80.877747
582.012024	1258.363037	14324.403320	11466.349609	78.126091
582.353821	1297.046875	14099.126953	11507.308594	79.754707
582.695496	1203.750488	14194.699219	11363.951172	78.209846
583.037231	1303.873413	14014.932617	11480.002930	80.057289
583.378845	1240.158813	13926.187500	11457.247070	80.538116
583.720398	1287.944824	13919.360352	11398.083984	80.039627
584.062012	1306.148926	13719.115234	11213.766602	79.816673
584.403442	1322.077637	13946.666992	11163.705078	77.956017
584.744934	1269.740601	13580.308594	11443.593750	82.643250
585.086365	1290.220337	13741.870117	11147.776367	79.166664
585.427734	1235.607788	13901.156250	11297.960938	79.446648
585.768982	1274.291626	13628.093750	11115.918945	79.664764
586.110291	1319.802124	13675.879883	11088.613281	79.060776
586.451599	1274.291626	13512.042969	10961.183594	79.155815
586.792725	1312.975464	13557.552734	11227.419922	80.970085
587.133850	1331.179688	13591.685547	10922.500000	78.229401
587.474915	1312.975464	13589.410156	11131.847656	79.981461
587.815979	1267.465088	13593.960938	10938.428711	78.456718
588.157043	1242.434326	13532.522461	11059.031250	79.874100
588.497925	1249.260864	13691.808594	11191.011719	79.901245
588.838867	1265.189575	13744.145508	11063.582031	78.519333
589.179749	1287.944824	14083.198242	11120.469727	76.845100
589.520569	1183.270874	14049.065430	11388.981445	79.324371
589.861450	1258.363037	14272.066406	11564.196289	79.192162
590.202087	1297.046875	13933.013672	11436.767578	80.244911
590.542847	1269.740601	14087.749023	11464.074219	79.531342
590.883484	1349.383789	14287.995117	11698.452148	79.985931
591.224121	1292.495850	13878.401367	11584.676758	81.775452
591.564636	1224.230225	14171.943359	11464.074219	79.086121
591.905151	1269.740601	13914.809570	11156.878906	78.189674
592.245667	1196.923950	13973.973633	11250.174805	78.682098
592.585999	1249.260864	13746.420898	11004.418945	78.058998
592.926453	1278.842651	13364.133789	10958.908203	80.097908
593.266724	1306.148926	13553.001953	10981.663086	79.004074
593.607056	1342.557251	13678.155273	11002.143555	78.306587
593.947388	1269.740601	13568.930664	11015.795898	79.241440
594.287476	1317.526489	13912.534180	11282.032227	79.114723
594.627686	1333.455200	14103.677734	11420.838867	78.991447
594.967773	1256.087524	13944.391602	11329.818359	79.393829
595.307861	1274.291626	14044.514648	11514.135742	80.185318
595.647888	1276.567139	14394.944336	11718.931641	79.601036
595.987854	1272.016113	14572.435547	11614.257813	77.758766
596.327820	1176.444214	14799.987305	11791.749023	77.918823
596.667725	1278.842651	14997.958008	11964.688477	77.890198
597.007568	1231.056763	15792.114258	12401.587891	76.715111
597.347351	1294.771362	16092.483398	12972.744141	78.917419
597.687073	1269.740601	16342.790039	13238.980469	79.408218
598.026794	1294.771362	16269.973633	13097.897461	78.817810
598.366455	1315.250977	16087.931641	12772.498047	77.556992
598.706116	1283.393677	15626.000977	12574.528320	78.724419
599.045654	1256.087524	15179.999023	12114.873047	77.986603
599.385193	1256.087524	14576.986328	11750.789063	78.783737
599.724731	1333.455200	14046.790039	11420.838867	79.344910
600.064087	1287.944824	13860.197266	10954.357422	76.886879
600.403564	1322.077637	13461.981445	11045.377930	80.093719
600.742920	1303.873413	13245.806641	10767.764648	79.249237
601.082153	1276.567139	13172.990234	10576.621094	78.175209
601.421387	1260.638550	13286.765625	10533.385742	77.105019
601.760620	1322.077637	13061.489258	10619.855469	79.201385
602.099854	1283.393677	13043.285156	10683.570313	79.934212
602.438843	1290.220337	13036.458984	10471.946289	78.167374
602.778015	1269.740601	13275.388672	10785.968750	79.264595
603.117065	1328.904175	13568.930664	10806.448242	77.430748
603.456055	1272.016113	14064.994141	11395.808594	79.135544
603.794983	1260.638550	14319.852539	11675.697266	79.752571
604.133850	1278.842651	14745.375000	12060.259766	80.060829
604.472778	1249.260864	15371.142578	12094.392578	76.796646
604.811584	1278.842651	15694.266602	12510.813477	77.916344
605.150330	1249.260864	16167.575195	12904.478516	78.126907
605.489075	1285.669312	16445.189453	12929.508789	76.808762
605.827698	1306.148926	16374.647461	13154.786133	78.631836
606.166382	1269.740601	16128.891602	12649.620117	76.584991
606.504883	1178.719727	15705.644531	12567.701172	78.399124
606.843445	1272.016113	15182.274414	12105.770508	77.883202
607.181946	1310.699951	14708.966797	11707.554688	77.598503
607.520386	1249.260864	14324.403320	11461.797852	78.106506
607.858826	1299.322388	13967.146484	11161.429688	77.851631
608.197083	1240.158813	13505.215820	11006.694336	79.628944
608.535461	1246.985352	13282.214844	10799.622070	79.372284
608.873718	1285.669312	13500.665039	10729.081055	77.309990
609.211914	1281.118164	13744.145508	11043.102539	78.327553
609.550171	1356.210449	14231.107422	11165.980469	76.193001
609.888245	1301.597900	14367.638672	11407.185547	77.342384
610.226318	1349.383789	14570.160156	12039.780273	80.860580
610.564392	1312.975464	14793.161133	11971.514648	79.068192
610.902344	1303.873413	14715.792969	11946.484375	79.351883
611.240295	1297.046875	14504.169922	11982.892578	80.909714
611.578247	1253.812012	14385.842773	11900.973633	81.077797
611.916138	1285.669312	13989.902344	11573.298828	80.977966
612.253845	1317.526489	13671.329102	11288.858398	80.714676
612.591675	1269.740601	13496.114258	10956.632813	79.229477
612.929382	1290.220337	13038.734375	10524.284180	78.597717
613.267090	1328.904175	12674.650391	10412.783203	80.064186
613.604736	1215.128052	12387.935547	9962.230469	78.289207
613.942261	1328.904175	12328.771484	10112.414063	79.851051
614.279785	1322.077637	12162.658203	9866.658203	78.820320
614.617310	1301.597900	11939.657227	9759.708984	79.508026
614.954712	1281.118164	11914.626953	9507.125977	77.359299
615.292175	1251.536499	11828.157227	9625.453125	79.173836
615.629517	1233.332275	11627.911133	9486.646484	79.400177
615.966797	1256.087524	11762.166992	9236.338867	75.958420
616.304138	1235.607788	11734.860352	9252.267578	76.354568
616.641296	1328.904175	11768.993164	9504.850586	78.312996
616.978516	1308.424438	11507.308594	9202.206055	77.398483
617.315552	1285.669312	11623.360352	9306.879883	77.591896
617.652771	1322.077637	11470.900391	9381.972656	79.417046
617.989685	1269.740601	11480.002930	9249.992188	78.159119
618.326721	1262.914063	11864.565430	9245.441406	75.295128
618.663696	1276.567139	11555.094727	9272.747070	77.794991
619.000549	1256.087524	11703.003906	9261.370117	76.628189
619.337463	1276.567139	11586.952148	9304.604492	77.863602
619.674194	1347.108276	11345.747070	9108.910156	77.628586
620.010986	1331.179688	11539.166016	9163.522461	76.727600
620.347778	1265.189575	11566.472656	9313.707031	78.131210
620.684387	1285.669312	11318.440430	9338.737305	80.267632
621.020996	1297.046875	11502.757813	9209.032227	77.525078
621.357605	1283.393677	11382.155273	9265.920898	79.044617
621.694214	1285.669312	11252.450195	9111.185547	78.515984
622.030579	1285.669312	11206.940430	8899.561523	76.743111
622.367065	1249.260864	11179.633789	9090.706055	78.964256
622.703430	1265.189575	11275.206055	8842.673828	75.699020
623.039795	1253.812012	11120.469727	8965.551758	78.159592
623.376160	1228.781250	11068.132813	8990.583008	78.885300
623.712402	1287.944824	10945.254883	8758.479492	77.356262
624.048645	1246.985352	11079.510742	8858.602539	77.412636
624.384766	1290.220337	10988.490234	8799.438477	77.428436
624.720886	1240.158813	11056.755859	8751.653320	76.518318
625.057007	1253.812012	11084.061523	8970.102539	78.495361
625.392944	1340.281738	11059.031250	8831.295898	77.077957
625.729004	1221.954712	11165.980469	8840.398438	76.613281
626.064941	1260.638550	11313.889648	9045.195313	77.433228
626.400818	1322.077637	11366.226563	9079.328125	77.231537
626.736633	1315.250977	11812.228516	9309.155273	76.154343
627.072449	1224.230225	11912.351563	9523.054688	77.645302
627.408264	1251.536499	12406.139648	9686.891602	75.622192
627.743896	1237.883301	12028.403320	9723.300781	78.637718
628.079590	1251.536499	12094.392578	9934.923828	80.083946
628.415161	1287.944824	11998.821289	9536.708008	77.012962
628.750793	1278.842651	11932.831055	9366.043945	75.907738
629.086365	1174.168701	11803.125977	9334.186523	76.771576
629.421753	1185.546387	11414.012695	9177.175781	78.131256
629.757263	1299.322388	11373.052734	9022.440430	76.665916
630.092651	1317.526489	10983.938477	9008.787109	79.566864
630.427917	1260.638550	11065.857422	8847.224609	77.372940
630.763184	1287.944824	10920.224609	8692.489258	76.872192
631.098511	1292.495850	10863.335938	8653.805664	76.913933
631.433716	1278.842651	10640.334961	8640.152344	78.633934
631.768799	1310.699951	10367.272461	8478.590820	79.145737
632.103943	1287.944824	10258.047852	8351.161133	78.741745
632.438965	1274.291626	10201.160156	8307.926758	78.791748
632.773987	1228.781250	10337.691406	8371.640625	78.416183
633.109070	1317.526489	10319.487305	8189.599121	76.339729
633.443848	1235.607788	10237.568359	7996.180176	75.101105
633.778870	1299.322388	10098.761719	8089.476563	77.165756
634.113708	1290.220337	10301.282227	8244.211914	77.171722
634.448425	1262.914063	10417.333984	8344.334961	77.355209
634.783264	1237.883301	10522.007813	8210.079102	75.098038
635.117859	1269.740601	10276.251953	8182.772949	76.755936
635.452576	1290.220337	10456.018555	8148.640137	74.826218
635.787170	1242.434326	10242.119141	8132.711426	76.561317
636.121704	1240.158813	9821.147461	8023.486328	79.050659
636.456177	1290.220337	10057.801758	7875.577637	75.110313
636.790588	1285.669312	9755.157227	7670.780762	75.389580
637.125122	1265.189575	9673.239258	7666.229492	76.129898
637.459412	1310.699951	9791.566406	7648.025391	74.724976
637.793762	1190.097412	9516.227539	7481.912598	75.567108
638.128052	1240.158813	9306.879883	7399.993652	76.361076
638.462280	1303.873413	9368.319336	7527.422852	77.172684
638.796509	1251.536499	9466.166992	7293.043945	73.545692
639.130615	1292.495850	8915.490234	7506.943359	81.522392
639.464722	1324.353149	9236.338867	7272.564453	75.179756
639.798767	1285.669312	9154.419922	7133.757813	74.320419
640.132751	1281.118164	8872.255859	7320.350586	79.556358
640.466736	1262.914063	9140.766602	7167.890625	74.956680
640.800598	1246.985352	9106.633789	7051.838867	73.856400
641.134521	1285.669312	8961.000977	7033.634766	74.888824
641.468262	1326.628662	8883.632813	7088.247070	76.242096
641.802063	1340.281738	8833.571289	6881.174805	73.944733
642.135803	1237.883301	8678.835938	7019.981445	77.706421
642.469421	1262.914063	8749.377930	6740.092773	73.161095
642.803101	1276.567139	8606.019531	6910.756836	76.870537
643.136658	1260.638550	8722.071289	6808.358398	74.351936
643.470215	1246.985352	8526.375977	6862.970703	77.149117
643.803711	1278.842651	8449.008789	6862.970703	77.880035
644.137085	1217.403687	8464.937500	6771.949707	76.640495
644.470581	1310.699951	8410.325195	6742.368164	76.506409
644.803833	1292.495850	8408.049805	6571.704102	74.192513
645.137207	1228.781250	8385.293945	6715.062012	76.661369
645.470459	1233.332275	8371.640625	6624.041016	75.518013
645.803589	1253.812012	8367.089844	6737.816895	77.095329
646.136780	1256.087524	8487.692383	6639.969727	74.449341
646.469849	1256.087524	8455.834961	6749.194824	76.295837
646.802979	1290.220337	8392.121094	6639.969727	75.328415
647.135986	1190.097412	8553.682617	6826.562500	76.545120
647.468994	1226.505737	8371.640625	6699.133301	76.592361
647.801941	1251.536499	8489.967773	6910.756836	78.182968
648.134766	1203.750488	8362.539063	6758.296875	77.590591
648.467651	1292.495850	8492.243164	6639.969727	74.273079
648.800354	1253.812012	8453.559570	6639.969727	74.810371
649.133179	1265.189575	8514.999023	6792.429688	76.239799
649.465881	1274.291626	8455.834961	6555.775391	73.542465
649.798462	1292.495850	8533.203125	6769.674316	75.644249
650.131104	1256.087524	8451.284180	6769.674316	76.628716
650.463623	1351.659302	8410.325195	6678.653320	75.467438
650.796143	1297.046875	8314.752930	6769.674316	77.983139
651.128662	1278.842651	8360.263672	6678.653320	76.253204
651.461060	1306.148926	8389.844727	6690.031250	76.003860
651.793396	1310.699951	8483.141602	6665.000488	74.651024
652.125732	1269.740601	8355.711914	6760.572266	77.488762
652.458008	1306.148926	8596.917969	6678.653320	73.689133
652.790222	1310.699951	8521.825195	6774.225586	75.765228
653.122437	1326.628662	8387.569336	6746.918945	76.764420
653.454529	1326.628662	8337.507813	6594.459473	75.137955
653.786621	1276.567139	8587.815430	6796.980469	75.505753
654.118713	1244.709839	8398.947266	6592.183594	74.745544
654.450623	1253.812012	8269.242188	6530.744629	75.218948
654.782654	1253.812012	8173.670898	6542.122070	76.422226
655.114502	1242.434326	8182.772949	6671.827148	78.229500
655.446350	1262.914063	8046.241699	6487.509766	77.021133
655.778198	1287.944824	8037.139648	6407.866699	75.859741
656.109863	1276.567139	8030.312988	6346.427734	75.067383
656.441650	1249.260864	8037.139648	6353.253906	75.192757
656.773254	1358.485962	8107.680664	6335.049805	73.735672
657.104919	1276.567139	8203.252930	6307.743652	72.634689
657.436462	1283.393677	8037.139648	6310.019043	74.427223
657.767944	1265.189575	8082.649902	6478.407715	76.468628
658.099548	1303.873413	8182.772949	6546.673340	76.215675
658.430908	1256.087524	8285.170898	6633.143066	76.497253
658.762268	1326.628662	8342.059570	6630.867676	75.608177
659.093628	1251.536499	8526.375977	6746.918945	75.539566
659.424927	1237.883301	8758.479492	7033.634766	77.065056
659.756226	1342.557251	9197.655273	7126.931152	73.638466
660.087341	1267.465088	9300.053711	7538.800293	78.073647
660.418518	1274.291626	9529.880859	7452.330566	74.834625
660.749573	1265.189575	9538.983398	7413.646973	74.312431
661.080627	1276.567139	9279.574219	7566.106445	78.589699
661.411621	1276.567139	9179.451172	7154.237305	74.373734
661.742554	1249.260864	8931.418945	7224.778320	77.784363
662.073547	1319.802124	8844.949219	6963.093750	74.992439
662.404297	1297.046875	8592.366211	6799.256348	75.421089
662.735229	1297.046875	8417.151367	6637.694336	75.007996
663.065979	1226.505737	8492.243164	6573.979492	73.598503
663.396667	1297.046875	8144.088867	6544.397949	76.636757
663.727417	1246.985352	8005.282227	6291.814941	74.646461
664.057922	1185.546387	7707.188965	6303.192383	78.471733
664.388611	1301.597900	7454.605957	6143.906250	78.698235
664.719116	1287.944824	7625.270020	5932.282715	73.285461
665.049622	1203.750488	7595.688477	5982.344238	74.759705
665.380005	1262.914063	7516.045410	5975.517578	75.363899
665.710388	1310.699951	7404.544922	6005.099609	77.035103
666.040771	1294.771362	7522.871582	5955.038086	74.826454
666.371033	1290.220337	7456.881836	5927.731445	75.202950
666.701294	1297.046875	7359.034180	5777.547363	73.911415
667.031555	1283.393677	7338.554688	5966.415527	77.339348
667.361633	1258.363037	7543.351563	5809.404785	72.411301
667.691772	1276.567139	7293.043945	5984.619629	78.252655
668.021790	1215.128052	7447.779785	5950.486816	75.976631
668.351807	1276.567139	7440.953125	5920.905273	75.341454
668.681763	1292.495850	7352.207520	5838.986328	75.028160
669.011719	1319.802124	7370.412109	5816.230957	74.313644
669.341614	1324.353149	7461.432617	5973.242188	75.750839
669.671387	1272.016113	7552.453613	5966.415527	74.746376
670.001221	1306.148926	7436.401855	6032.405762	77.097260
670.330933	1315.250977	7443.228516	5927.731445	75.269211
670.660583	1294.771362	7552.453613	5895.874512	73.527275
670.990173	1297.046875	7461.432617	6002.823730	76.338127
671.319763	1310.699951	7388.616211	5893.598633	75.402466
671.649292	1283.393677	7320.350586	5670.597656	72.672440
671.978821	1333.455200	7286.217773	5593.229980	71.559631
672.308289	1224.230225	7147.410645	5882.221191	78.640030
672.637695	1244.709839	7108.727051	5709.281738	76.135040
672.966980	1324.353149	7231.604980	5782.098145	75.462250
673.296326	1317.526489	6974.471191	5534.066406	74.537407
673.625610	1294.771362	7076.869629	5568.199219	73.907906
673.954773	1262.914063	7156.512695	5684.250977	75.019310
674.283936	1299.322388	7035.910156	5536.342285	73.859589
674.613037	1210.577026	6992.675293	5529.515625	74.695007
674.942078	1224.230225	6931.236328	5342.922852	72.169060
675.271118	1249.260864	6865.246094	5511.311523	75.891418
675.600098	1315.250977	6938.062988	5404.361816	72.723595
675.928955	1253.812012	6885.726074	5429.392578	74.141411
676.257813	1319.802124	6767.398926	5493.107422	76.608192
676.586670	1292.495850	6767.398926	5365.678223	74.397339
676.915466	1312.975464	6771.949707	5320.167480	73.405586
677.244141	1342.557251	6724.164063	5313.341309	73.784363
677.572876	1226.505737	6769.674316	5433.943848	75.903122
677.901489	1253.812012	6999.501953	5311.065430	70.613861
678.230042	1262.914063	6901.654785	5377.055664	72.962067
678.558594	1306.148926	6997.226563	5386.157715	71.691322
678.887085	1244.709839	6831.113281	5515.862305	76.456215
679.215515	1292.495850	6862.970703	5629.638672	77.859482
679.543945	1249.260864	6858.419922	5622.812012	77.971603
679.872253	1303.873413	6958.542480	5504.484863	74.285713
680.200562	1312.975464	7088.247070	5763.894043	77.068558
680.528809	1331.179688	7279.391113	5709.281738	73.603676
680.856995	1235.607788	7472.810547	5891.323242	74.644287
681.185120	1212.852539	7611.617188	5825.333008	72.083923
681.513306	1312.975464	7522.871582	5875.394531	73.470131
681.841309	1390.343262	7625.270020	5841.261719	71.386864
682.169373	1331.179688	7388.616211	5889.047852	75.244179
682.497314	1285.669312	7422.749023	5868.568359	74.675568
682.825134	1360.761475	7388.616211	5889.047852	75.122688
683.153076	1308.424438	7268.013672	5782.098145	75.066811
683.480896	1249.260864	7063.216797	5697.904297	76.516632
683.808655	1276.567139	7156.512695	5684.250977	74.961304
684.136414	1240.158813	7088.247070	5513.586914	73.073936
684.464050	1221.954712	6922.134277	5515.862305	75.329338
684.791626	1272.016113	6735.541504	5352.024902	74.677216
685.119263	1285.669312	6783.327637	5374.780273	74.379143
685.446838	1287.944824	6665.000488	5313.341309	74.862465
685.774292	1283.393677	6569.428711	5306.514648	76.108482
686.101685	1297.046875	6521.642578	5233.697754	75.348434
686.429077	1285.669312	6494.336426	5188.187500	74.923546
686.756348	1231.056763	6441.999512	5190.462891	75.982529
687.083679	1194.648438	6426.070801	5060.758301	73.901695
687.410950	1276.567139	6441.999512	5220.044922	76.343613
687.738159	1315.250977	6496.611816	5103.993164	73.122528
688.065308	1328.904175	6569.428711	5224.595703	74.337814
688.392395	1265.189575	6587.632813	5217.769043	74.262505
688.719421	1256.087524	6596.734863	5144.952637	72.816360
689.046448	1276.567139	6594.459473	5251.901855	74.753952
689.373413	1244.709839	6692.306641	5342.922852	75.229744
689.700317	1285.669312	6510.265137	5133.574707	73.649818
690.027100	1290.220337	6298.641602	5090.339844	75.874596
690.353943	1297.046875	6401.040039	4960.635254	71.778862
690.680725	1235.607788	6182.589844	4842.308105	72.907082
691.007446	1308.424438	6325.947754	5028.900879	74.149658
691.334106	1278.842651	6180.314453	4851.410156	72.887650
691.660645	1260.638550	6105.222168	4835.481934	73.790520
691.987244	1308.424438	6021.027832	4940.155762	77.064224
692.313721	1249.260864	5980.068848	4749.011719	73.977867
692.640259	1253.812012	5914.078613	4810.451172	76.318359
692.966675	1267.465088	5941.384766	4582.898926	70.934761
693.293030	1353.934937	5866.292480	4655.715332	73.171959
693.619324	1228.781250	5807.128906	4669.368652	75.149109
693.945618	1158.240112	5941.384766	4610.205078	72.169357
694.271851	1278.842651	5727.485840	4482.775879	72.020454
694.598083	1283.393677	5663.771484	4664.817871	77.194809
694.924194	1335.730713	5479.454102	4541.939453	77.375061
695.250244	1244.709839	5675.148926	4669.368652	77.298409
695.576294	1242.434326	5600.056641	4455.469727	73.733688
695.902283	1285.669312	5668.322266	4444.092285	72.066460
696.228210	1283.393677	5452.147949	4405.408203	74.890823
696.554138	1319.802124	5766.169922	4630.685059	74.462639
696.879944	1242.434326	5738.863281	4496.429199	72.368431
697.205750	1319.802124	5775.271973	4685.297363	75.536255
697.531433	1274.291626	5827.608887	4571.521484	72.413795
697.857178	1206.026001	5893.598633	4855.961426	77.864082
698.182739	1256.087524	6032.405762	4774.042480	73.654114
698.508423	1242.434326	6391.937988	5056.207031	74.060974
698.833984	1251.536499	6528.469238	5149.503418	73.868042
699.159485	1272.016113	6753.745605	5272.381836	72.976341
699.484924	1267.465088	6922.134277	5502.209473	74.889336
699.810303	1272.016113	7249.809082	5581.852539	72.097450
700.135681	1226.505737	7158.788574	5636.464844	74.338318
700.460999	1310.699951	7042.736816	5620.536621	75.188576
700.786255	1299.322388	6944.889648	5575.025879	75.735588
701.111450	1246.985352	6696.857910	5390.708984	76.033401
701.436646	1240.158813	6653.623047	5165.432129	72.509453
701.761719	1235.607788	6376.009277	4997.043457	73.173965
702.086792	1244.709839	6139.354980	4969.737305	76.104134
702.411865	1285.669312	5977.792969	4842.308105	75.800194
702.736816	1290.220337	5877.670410	4623.858398	72.668648
703.061646	1287.944824	5697.904297	4523.735352	73.374611
703.386536	1242.434326	5559.097168	4359.897949	72.219292
703.711365	1281.118164	5452.147949	4314.387207	72.722305
704.036194	1283.393677	5429.392578	4334.867188	73.600441
704.360901	1287.944824	5249.626465	4180.131836	73.004021
704.685547	1237.883301	5131.299316	4168.753906	75.277611
705.010132	1258.363037	5195.014160	4202.886719	74.797676
705.334717	1253.812012	5265.555176	4127.794922	71.639252
705.659302	1246.985352	5097.166504	4084.559814	73.699768
705.983765	1231.056763	4992.492676	4029.947266	74.410164
706.308228	1253.812012	4899.196289	4127.794922	78.838959
706.632568	1178.719727	5101.717773	4023.120850	72.505798
706.956909	1246.985352	4974.288574	4091.386475	76.312576
707.281189	1278.842651	5081.237793	4130.070313	74.985046
707.605408	1262.914063	5038.002930	3977.610352	71.910789
707.929626	1240.158813	4815.001953	3982.161377	76.702728
708.253784	1365.312500	4978.839355	4032.222900	73.803528
708.577820	1317.526489	4978.839355	4095.937500	75.885651
708.901855	1246.985352	5008.421387	4077.733398	75.257111
709.225830	1312.975464	5131.299316	4173.305176	74.910606
709.549805	1322.077637	5169.983398	4109.590332	72.442329
709.873718	1303.873413	5060.758301	4023.120850	72.380379
710.197510	1242.434326	5058.482910	4014.018799	72.629692
710.521362	1372.139038	5138.125977	4098.212891	72.386703
710.845093	1331.179688	5024.350098	4120.968262	75.539124
711.168701	1278.842651	5210.942871	4264.326172	75.925926
711.492432	1212.852539	5208.666992	4207.437988	74.943054
711.816040	1246.985352	5261.003906	4293.907715	75.907036
712.139587	1246.985352	5392.984375	4211.988770	71.514809
712.463074	1267.465088	5470.352051	4398.581543	74.499184
712.786499	1226.505737	5438.494629	4375.826660	74.770401
713.109924	1308.424438	5395.259766	4273.428223	72.550117
713.433350	1235.607788	5340.647461	4216.540039	72.616402
713.756592	1340.281738	5301.963379	4248.397461	73.406090
714.079834	1249.260864	5251.901855	4041.324951	69.755539
714.403015	1272.016113	5119.921875	4077.733398	72.915436
714.726196	1231.056763	5133.574707	4077.733398	72.944618
715.049255	1208.301514	5199.564941	4127.794922	73.147102
715.372375	1274.291626	4956.084473	4068.631104	75.896156
715.695435	1303.873413	4994.768066	4082.284424	75.277443
716.018311	1260.638550	5069.860352	4025.396240	72.580650
716.341248	1262.914063	5179.085449	4086.835449	72.109238
716.664063	1317.526489	5069.860352	4027.671875	72.225594
716.987000	1256.087524	5126.748535	4136.896973	74.426811
717.309692	1283.393677	5247.351074	3950.304199	67.278992
717.632385	1244.709839	5017.523438	3991.263428	72.798553
717.955078	1281.118164	4896.920898	3993.539063	75.015732
718.277649	1328.904175	4874.165527	4036.773926	76.379974
718.600220	1221.954712	4880.992188	3820.599365	71.019890
718.922791	1219.679199	4758.113770	3875.211914	75.048233
719.245300	1262.914063	4541.939453	3772.813477	76.544067
719.567688	1317.526489	4582.898926	3706.823486	73.170731
719.890015	1335.730713	4512.357910	3579.394287	70.630371
720.212341	1292.495850	4639.787109	3672.690674	71.108086
720.534607	1294.771362	4464.571777	3506.577637	69.777458
720.856873	1237.883301	4241.570801	3659.037354	80.606056
721.179016	1219.679199	4339.417969	3415.556641	70.386581
721.501160	1340.281738	4250.672852	3490.648926	73.885849
721.823242	1267.465088	4241.570801	3465.618164	73.909714
722.145264	1274.291626	4205.162598	3470.169189	74.922348
722.467224	1303.873413	4214.264648	3392.801514	71.774826
722.789185	1306.148926	4218.815430	3358.668701	70.468750
723.111023	1276.567139	4241.570801	3431.485352	72.678436
723.432861	1256.087524	4080.008789	3313.158203	72.844475
723.754578	1240.158813	4070.906738	3481.546875	79.180069
724.076294	1360.761475	4093.661865	3392.801514	74.354706
724.397949	1319.802124	4125.519043	3399.628174	74.128159
724.719666	1260.638550	4093.661865	3508.853027	79.357422
725.041260	1215.128052	4118.692871	3349.566650	73.510963
725.362732	1249.260864	4134.621094	3397.352539	74.447952
725.684265	1283.393677	4036.773926	3522.506104	81.322304
726.005676	1290.220337	4107.314941	3408.730225	75.201935
726.327087	1244.709839	4039.049316	3376.872803	76.302940
726.648438	1217.403687	4268.876953	3420.107666	72.184944
726.969666	1269.740601	4196.060547	3351.842041	71.150856
727.290894	1246.985352	4182.407227	3388.250488	72.945740
727.612061	1301.597900	4216.540039	3429.209961	72.989853
727.933228	1294.771362	4225.642090	3451.965088	73.602493
728.254395	1310.699951	4291.632324	3372.321777	69.160301
728.575378	1262.914063	4252.948242	3599.874023	78.158302
728.896301	1265.189575	4394.030762	3411.005615	68.581810
729.217285	1278.842651	4389.479492	3476.995850	70.665703
729.538147	1201.474976	4355.346680	3513.404053	73.304482
729.858948	1290.220337	4446.367676	3527.057129	70.872383
730.179810	1199.199463	4414.510254	3458.791504	70.276009
730.500549	1174.168701	4364.448730	3570.292236	75.106995
730.821228	1285.669312	4412.234863	3538.434814	72.052406
731.141846	1235.607788	4291.632324	3517.955078	74.683540
731.462402	1237.883301	4391.755371	3577.118652	74.170265
731.782898	1262.914063	4366.724609	3533.883789	73.167152
732.103455	1297.046875	4516.908691	3520.230713	69.045937
732.423889	1294.771362	4343.969238	3524.781738	73.134323
732.744263	1276.567139	4259.774902	3620.353516	78.565979
733.064636	1274.291626	4455.469727	3520.230713	70.600853
733.384888	1301.597900	4475.949219	3622.629150	73.118286
733.705200	1199.199463	4405.408203	3588.496338	74.520943
734.025330	1285.669312	4405.408203	3631.731201	75.200592
734.345520	1235.607788	4544.214844	3476.995850	67.744164
734.665527	1301.597900	4296.183105	3602.149414	76.823715
734.985596	1308.424438	4282.530273	3542.985840	75.133888
735.305542	1253.812012	4405.408203	3508.853027	71.552345
735.625549	1308.424438	4287.081055	3370.046387	69.213150
735.945435	1240.158813	4186.958496	3379.148438	72.586868
736.265259	1301.597900	4293.907715	3331.362549	67.832703
736.585083	1301.597900	4155.101074	3463.342773	75.757576
736.904785	1276.567139	4000.365479	3283.576416	73.684212
737.224426	1308.424438	4073.182129	3324.535889	72.921814
737.544128	1256.087524	4000.365479	3197.106689	70.729691
737.863708	1310.699951	3975.334961	3228.964111	71.989754
738.183289	1201.474976	4007.192139	3281.301025	74.128143
738.502808	1294.771362	4105.039551	3233.515137	68.987862
738.822205	1294.771362	3995.814453	3310.882813	74.641960
739.141541	1303.873413	4029.947266	3276.750000	72.370628
739.460938	1287.944824	4004.916504	3253.994629	72.361809
739.780212	1283.393677	4209.713379	3381.423828	71.695183
740.099426	1287.944824	4132.345703	3347.291016	72.400002
740.418640	1299.322388	4118.692871	3479.271240	77.320404
740.737793	1226.505737	4148.274414	3388.250488	73.987541
741.056885	1244.709839	3988.988037	3315.433838	75.456055
741.375977	1290.220337	3934.375488	3265.372314	74.698792
741.694946	1287.944824	4039.049316	3345.015625	74.772545
742.013855	1208.301514	4023.120850	3244.892578	72.352463
742.332703	1281.118164	3925.273438	3162.973877	71.170395
742.651550	1208.301514	3886.589600	3226.688477	75.361084
742.970398	1267.465088	3800.119629	3158.422852	74.663078
743.289124	1292.495850	3909.344727	3181.177979	72.173912
743.607788	1253.812012	3795.568604	3096.983887	72.515671
743.926453	1324.353149	3763.711426	3133.392090	74.160439
744.245056	1219.679199	3843.354736	3126.565674	72.679962
744.563599	1237.883301	3884.313965	3117.463379	71.023216
744.882141	1281.118164	3763.711426	3190.280273	76.901932
745.200500	1260.638550	3634.006836	3049.197754	75.359535
745.518860	1278.842651	3634.006836	2924.044189	69.855072
745.837219	1251.536499	3661.312988	2999.136475	72.521248
746.155518	1276.567139	3586.220703	3017.340576	75.369461
746.473755	1312.975464	3654.486328	2955.901611	70.165222
746.791992	1283.393677	3588.496338	3003.687500	74.629814
747.110107	1292.495850	3474.720215	2889.911377	73.201248
747.428162	1301.597900	3568.016602	2942.248291	72.389557
747.746216	1285.669312	3608.976074	2960.452637	72.086197
748.064148	1281.118164	3588.496338	2983.207764	73.767258
748.382080	1176.444214	3686.343750	3024.167236	73.617416
748.700073	1242.434326	3693.170166	2905.840088	67.873726
749.017822	1276.567139	3629.455566	2978.656738	72.340431
749.335632	1319.802124	3672.690674	2901.289063	67.214691
749.653320	1294.771362	3654.486328	2942.248291	69.816780
749.971008	1306.148926	3629.455566	3046.922363	74.926544
750.288696	1274.291626	3704.547852	3015.064941	71.629204
750.606262	1278.842651	3813.772949	2999.136475	67.863556
750.923828	1283.393677	3661.312988	2974.105713	71.100479
751.241272	1246.985352	3629.455566	2976.381104	72.588348
751.558716	1260.638550	3699.996826	3037.820313	72.854477
751.876038	1249.260864	3590.771729	2910.391113	70.942673
752.193481	1306.148926	3636.282227	2976.381104	71.679680
752.510681	1281.118164	3615.802490	3106.085938	78.167648
752.827942	1269.740601	3536.159424	2930.870850	73.293167
753.145081	1246.985352	3659.037354	2869.431641	67.264153
753.462219	1285.669312	3608.976074	2960.452637	72.086197
753.779297	1328.904175	3574.843262	2794.339600	65.248230
754.096375	1340.281738	3634.006836	2953.625977	70.337296
754.413330	1203.750488	3570.292236	2999.136475	75.865387
754.730286	1237.883301	3461.067139	2869.431641	73.387917
755.047119	1269.740601	3583.945313	2883.084961	69.714851
755.363892	1276.567139	3454.240479	2939.972900	76.384537
755.680725	1287.944824	3554.363525	2889.911377	70.682724
755.997498	1276.567139	3360.944336	2810.268311	73.580788
756.314148	1260.638550	3438.312012	2860.329590	73.458725
756.630737	1235.607788	3411.005615	2814.819336	72.594147
756.947327	1290.220337	3577.118652	2746.553711	63.681595
757.263855	1301.597900	3522.506104	2855.778564	69.979507
757.580261	1242.434326	3385.974854	2869.431641	75.902336
757.896729	1333.455200	3463.342773	2732.900391	65.705116
758.213074	1215.128052	3431.485352	2910.391113	76.488701
758.529419	1269.740601	3506.577637	2848.952148	70.600212
758.845642	1290.220337	3536.159424	2744.278076	64.741638
759.161865	1292.495850	3554.363525	2960.452637	73.742455
759.478149	1310.699951	3608.976074	2919.493164	70.000000
759.794189	1276.567139	3558.914551	2848.952148	68.893326
760.110229	1246.985352	3595.322754	2919.493164	71.220932
760.426270	1208.301514	3604.425049	2937.697266	72.174736
760.742249	1269.740601	3649.935303	2867.156250	67.112808
761.058105	1290.220337	3652.210938	2980.932129	71.579948
761.374023	1199.199463	3652.210938	2926.319824	70.408165
761.689819	1310.699951	3561.189941	3035.544678	76.643074
762.005554	1281.118164	3581.669678	2899.013428	70.326408
762.321289	1299.322388	3563.465576	2990.034424	74.673378
762.636902	1240.158813	3659.037354	2919.493164	69.426155
762.952515	1278.842651	3645.384277	2944.523926	70.384621
763.268127	1299.322388	3715.925537	3042.371338	72.128059
763.583618	1344.832764	3775.089111	3069.677490	70.973778
763.899048	1256.087524	4125.519043	3326.811523	72.164955
764.214478	1287.944824	4398.581543	3556.638916	72.933434
764.529785	1276.567139	4728.532227	3750.058350	71.654587
764.845093	1360.761475	4994.768066	3884.313965	69.442703
765.160400	1297.046875	5001.594727	3950.304199	71.621620
765.475586	1269.740601	4885.542969	3863.834229	71.743240
765.790771	1331.179688	4701.226074	3602.149414	67.386902
766.105835	1349.383789	4514.633301	3622.629150	71.818832
766.420837	1356.210449	4332.591797	3417.832275	69.266052
766.735840	1303.873413	4266.601563	3333.637939	68.509987
767.050842	1322.077637	4105.039551	3231.239502	68.601799
767.365662	1260.638550	3886.589600	3081.055176	69.324081
767.680542	1292.495850	3872.936523	3137.943115	71.516747
767.995300	1235.607788	3795.568604	3028.718262	70.044449
768.309998	1260.638550	3645.384277	3049.197754	75.000000
768.624817	1190.097412	3768.262451	3019.616211	70.962051
768.939392	1267.465088	3579.394287	2826.196777	67.421257
769.254028	1322.077637	3549.812500	2876.258301	69.765068
769.568481	1342.557251	3586.220703	2792.063965	64.604462
769.882935	1312.975464	3467.893799	2914.942139	74.340012
770.197388	1240.158813	3404.179199	2769.308838	70.662453
770.511841	1260.638550	3399.628174	2828.472412	73.297867
770.826172	1299.322388	3249.443604	2644.155273	68.961502
771.140442	1306.148926	3304.056152	2776.135498	73.576317
771.454651	1262.914063	3235.790527	2719.247314	73.817764
771.768860	1212.852539	3258.545898	2625.950928	69.076744
772.082886	1381.241089	3213.035400	2744.278076	74.409935
772.397034	1292.495850	3224.413086	2603.195801	67.844521
772.711060	1299.322388	3313.158203	2639.604248	66.553680
773.025024	1272.016113	3263.096924	2621.399902	67.771423
773.338928	1226.505737	3258.545898	2646.430664	69.876816
773.652771	1228.781250	3162.973877	2607.746826	71.294121
773.966614	1290.220337	3103.810303	2571.338623	70.639908
774.280457	1283.393677	3144.769775	2653.257324	73.594139
774.594116	1274.291626	3169.800537	2578.165039	68.787514
774.907776	1237.883301	3151.596191	2655.532715	74.078476
775.221375	1253.812012	3167.524902	2616.848877	71.224731
775.534912	1310.699951	3185.729004	2569.062988	67.111656
775.848450	1274.291626	3112.912354	2557.685303	69.801979
776.161926	1267.465088	3078.779541	2594.093750	73.241211
776.475342	1299.322388	3101.534912	2534.930176	68.560600
776.788696	1322.077637	3144.769775	2532.654541	66.416969
777.101990	1274.291626	3005.962891	2573.614014	75.032852
777.415283	1301.597900	2987.758789	2498.521729	70.985153
777.728516	1310.699951	3071.953125	2509.899414	68.087852
778.041626	1303.873413	2958.177002	2450.735840	69.325996
778.354736	1262.914063	3005.962891	2528.103516	72.584854
778.667725	1317.526489	3053.749023	2539.481201	70.380074
778.980774	1333.455200	2960.452637	2503.072998	71.888115
779.293640	1210.577026	2974.105713	2487.144287	72.387100
779.606567	1256.087524	2994.585449	2473.491211	70.026176
779.919434	1324.353149	2978.656738	2534.930176	73.177437
780.232239	1333.455200	2901.289063	2605.471436	81.132080
780.544983	1251.536499	2912.666504	2548.583252	78.082191
780.857666	1201.474976	2958.177002	2475.766602	72.538857
781.170227	1233.332275	2958.177002	2453.011475	70.712402
781.482849	1267.465088	2919.493164	2443.909424	71.212128
781.795410	1237.883301	2955.901611	2402.949951	67.814568
782.107910	1297.046875	2792.063965	2450.735840	77.168945
782.420288	1256.087524	2887.635986	2489.419678	75.592735
782.732666	1283.393677	2794.339600	2437.082764	76.355415
783.044983	1265.189575	2730.625000	2359.715088	74.689438
783.357300	1240.158813	2860.329590	2293.724854	65.028084
783.669495	1258.363037	2744.278076	2282.347412	68.912712
783.981689	1281.118164	2787.512939	2336.959961	70.090645
784.293762	1267.465088	2757.931152	2241.387939	65.343513
784.605835	1276.567139	2835.298828	2286.898438	64.817528
784.917908	1258.363037	2764.757813	2314.204590	70.090630
785.229858	1251.536499	2767.033203	2316.480225	70.270279
785.541748	1253.812012	2778.410889	2314.204590	69.552231
785.853577	1285.669312	2757.931152	2327.857666	70.788246
786.165405	1319.802124	2662.359375	2255.041016	69.661003
786.477173	1301.597900	2701.043213	2314.204590	72.357719
786.788879	1260.638550	2685.114502	2173.122314	64.057503
787.100525	1242.434326	2671.461426	2273.245361	72.133766
787.412109	1308.424438	2644.155273	2207.255127	67.291306
787.723694	1242.434326	2678.288086	2334.684326	76.069725
788.035156	1262.914063	2666.910400	2268.694336	71.636955
788.346558	1272.016113	2810.268311	2291.449463	66.272186
788.658081	1260.638550	2798.890625	2336.959961	69.970421
788.969360	1292.495850	2739.727051	2466.664551	81.132072
789.280640	1258.363037	2780.686523	2421.154053	76.382652
789.591919	1331.179688	2869.431641	2343.786377	65.828400
789.903076	1310.699951	2926.319824	2525.828125	75.211266
790.214172	1292.495850	2883.084961	2409.776611	70.243202
790.525269	1301.597900	2812.543701	2366.541748	70.481934
790.836365	1276.567139	2876.258301	2346.062012	66.856331
791.147339	1269.740601	2780.686523	2341.510986	70.933739
791.458191	1315.250977	2694.216553	2202.704102	64.356438
791.769104	1274.291626	2830.747803	2298.276123	65.789482
792.079895	1324.353149	2598.644775	2232.285889	71.250000
792.390686	1262.914063	2671.461426	2264.143311	71.082397
792.701416	1331.179688	2655.532715	2264.143311	70.446747
793.012085	1251.536499	2646.430664	2298.276123	75.040794
793.322693	1240.158813	2694.216553	2209.530762	66.666672
793.633240	1251.536499	2623.675537	2225.459229	70.978432
793.943787	1251.536499	2603.195801	2225.459229	72.053864
794.254272	1217.403687	2628.226563	2184.500000	68.548386
794.564636	1260.638550	2605.471436	2184.500000	68.697121
794.875000	1278.842651	2575.889648	2220.908203	72.631569
795.185303	1262.914063	2619.124512	2098.030273	61.577183
795.495544	1253.812012	2596.369141	2239.112549	73.389839
795.805786	1306.148926	2596.369141	2175.397949	67.372147
796.115906	1376.690063	2612.297852	2207.255127	67.219154
796.426025	1249.260864	2553.134277	2098.030273	65.096001
796.736023	1269.740601	2673.737061	2132.163086	61.426258
797.045959	1262.914063	2739.727051	2245.938965	66.563942
797.355896	1276.567139	2646.430664	2346.062012	78.073097
797.665833	1262.914063	2694.216553	2220.908203	66.931633
797.975708	1285.669312	2773.859863	2277.796387	66.666672
798.285461	1206.026001	2812.543701	2255.041016	65.297447
798.595154	1233.332275	2671.461426	2259.592041	71.360748
798.904846	1262.914063	2644.155273	2239.112549	70.675453
799.214478	1335.730713	2607.746826	2170.846924	65.652962
799.524109	1287.944824	2612.297852	2243.663574	72.164955
799.833557	1262.914063	2694.216553	2214.081787	66.454697
800.143005	1315.250977	2623.675537	2095.754639	59.652172
800.452393	1240.158813	2605.471436	2186.775391	69.333321
800.761780	1274.291626	2646.430664	2104.856689	60.530678
801.071106	1272.016113	2455.286865	2168.571289	75.769234
801.380371	1308.424438	2455.286865	2141.265137	72.619057
801.689575	1319.802124	2537.205811	2154.918213	68.598122
801.998718	1244.709839	2509.899414	2036.591064	62.589928
802.307800	1299.322388	2427.980713	2063.897461	67.741943
802.616882	1312.975464	2448.460449	2007.009399	61.122246
802.925903	1342.557251	2603.195801	2052.519775	56.317692
803.234863	1253.812012	2359.715088	2091.203613	75.720161
803.543701	1274.291626	2387.021240	2148.091553	78.527603
803.852539	1228.781250	2484.868652	2054.795166	65.760864
804.161316	1258.363037	2484.868652	2216.357178	78.107605
804.470032	1317.526489	2348.337402	2102.581299	76.158951
804.778809	1256.087524	2425.705078	2038.866699	66.926079
805.087341	1228.781250	2407.500977	2095.754639	73.552124
805.395935	1244.709839	2375.643799	1997.907227	66.599594
805.704468	1258.363037	2446.184814	2095.754639	70.498085
806.012939	1237.883301	2389.296875	2118.509766	76.482201
806.321350	1299.322388	2455.286865	2166.295898	75.000015
806.629761	1258.363037	2489.419678	2098.030273	68.207039
806.938049	1326.628662	2466.664551	2129.887451	70.459076
807.246277	1299.322388	2423.429688	2138.989502	74.696350
807.554504	1294.771362	2500.797363	2148.091553	70.754707
807.862671	1251.536499	2500.797363	2077.550537	66.120224
808.170715	1260.638550	2357.439453	2118.509766	78.215767
808.478821	1262.914063	2400.674561	2100.305664	73.599991
808.786804	1260.638550	2393.847900	2098.030273	73.895592
809.094727	1274.291626	2355.164063	2007.009399	67.789474
809.402649	1274.291626	2455.286865	2066.172852	67.052025
809.710510	1253.812012	2398.398926	2109.407715	74.751488
810.018311	1385.792114	2466.664551	2098.030273	65.894745
810.326050	1256.087524	2409.776611	1993.356201	63.905319
810.633667	1258.363037	2393.847900	2113.958740	75.350693
810.941345	1242.434326	2368.817139	1922.815063	60.404041
811.248901	1246.985352	2307.378174	1993.356201	70.386261
811.556396	1267.465088	2339.235352	1993.356201	67.728241
811.863892	1283.393677	2334.684326	2038.866699	71.861481
812.171326	1347.108276	2316.480225	1970.601074	64.319252
812.478699	1308.424438	2280.071777	2025.213501	73.770493
812.786011	1228.781250	2250.489990	1956.947876	71.269493
813.093262	1297.046875	2259.592041	1984.254150	71.394806
813.400391	1235.607788	2302.827148	1902.335449	62.473347
813.707642	1331.179688	2216.357178	1881.855713	62.210804
814.014709	1190.097412	2239.112549	2066.172852	83.514091
814.321716	1338.006226	2182.224365	1961.498901	73.854454
814.628723	1249.260864	2327.857666	1913.713013	61.603386
814.935669	1283.393677	2232.285889	1952.396851	70.503601
815.242554	1310.699951	2223.183838	1977.427612	73.067337
815.549438	1274.291626	2236.836914	1888.682251	63.829788
815.856201	1262.914063	2277.796387	1902.335449	63.004486
816.162964	1322.077637	2286.898438	1970.601074	67.216980
816.469604	1206.026001	2275.520752	1961.498901	70.638298
816.776184	1294.771362	2261.867676	2016.111450	74.588234
817.082825	1251.536499	2357.439453	1966.049927	64.609055
817.389343	1212.852539	2346.062012	2020.662476	71.285141
817.695801	1347.108276	2309.653564	1981.978638	65.957451
818.002197	1331.179688	2377.919189	1975.152100	61.521744
818.308533	1319.802124	2311.929199	1975.152100	66.055046
818.614868	1315.250977	2275.520752	1984.254150	69.668251
818.921143	1303.873413	2352.888428	2000.182739	66.377441
819.227356	1297.046875	2225.459229	1902.335449	65.196091
819.533447	1262.914063	2332.408936	2025.213501	71.276588
819.839539	1326.628662	2230.010498	1988.805176	73.299736
820.145569	1281.118164	2409.776611	2093.479248	71.975815
820.451538	1212.852539	2514.450439	2100.305664	68.181816
820.757568	1315.250977	2653.257324	2175.397949	64.285713
821.063416	1226.505737	2641.879639	2243.663574	71.864960
821.369263	1269.740601	2796.614990	2364.266113	71.684059
821.675049	1297.046875	2871.707275	2514.450439	77.312134
821.980713	1265.189575	3017.340576	2562.236328	74.025970
822.286438	1301.597900	3226.688477	2660.083740	70.567375
822.592102	1299.322388	3754.609375	2876.258301	64.226128
822.897583	1310.699951	5192.738281	3918.446777	67.174683
823.203125	1242.434326	7254.360352	5513.586914	71.044662
823.508545	1322.077637	9429.757813	6847.041992	68.144821
823.813965	1258.363037	10540.211914	7518.320801	67.443008
824.119263	1276.567139	10035.046875	7236.156250	68.043648
824.424622	1244.709839	8651.530273	6323.672363	68.571426
824.729858	1292.495850	7363.585449	5481.729492	69.002991
825.035095	1308.424438	6391.937988	4717.154785	67.054611
825.340149	1237.883301	5595.505859	4328.040527	70.913834
825.645264	1308.424438	5106.268555	4018.569824	71.360100
825.950256	1283.393677	4642.062500	3652.210938	70.528458
826.255310	1267.465088	4337.142578	3395.077148	69.310608
826.560242	1308.424438	4200.611328	3253.994629	67.269859
826.865112	1351.659302	3918.446777	3060.575439	66.578011
827.169922	1265.189575	3820.599365	3101.534912	71.861092
827.474670	1333.455200	3677.241699	3005.962891	71.359215
827.779419	1290.220337	4009.467773	3199.382324	70.209198
828.084045	1287.944824	4516.908691	3634.006836	72.656807
828.388672	1356.210449	5024.350098	3959.406250	70.967743
828.693176	1315.250977	5231.422363	4002.641113	68.622894
828.997681	1240.158813	4683.021973	3752.333740	72.967606
829.302124	1210.577026	4346.244629	3247.168213	64.949211
829.606567	1244.709839	3888.864990	3040.095703	67.900169
829.910828	1242.434326	3495.199951	2844.401123	71.111115
830.215149	1287.944824	3313.158203	2719.247314	70.674156
830.519348	1308.424438	3035.544678	2557.685303	72.332016
830.823547	1299.322388	3028.718262	2443.909424	66.184212
831.127686	1240.158813	2848.952148	2373.368164	70.438469
831.431763	1258.363037	2650.981689	2191.326416	66.993454
831.735779	1290.220337	2525.828125	2243.663574	77.163910
832.039734	1299.322388	2559.960938	2170.846924	69.133575
832.343628	1246.985352	2425.705078	2038.866699	67.181480
832.647461	1212.852539	2425.705078	1984.254150	63.602261
832.951233	1272.016113	2402.949951	2034.315552	67.404427
833.255127	1251.536499	2371.092773	1963.774414	63.617874
833.558777	1242.434326	2468.940186	2025.213501	63.821888
833.862366	1260.638550	2537.205811	2084.376953	64.527618
834.165955	1246.985352	2680.563477	2248.214600	69.841278
834.469482	1349.383789	3076.504150	2498.521729	66.534904
834.773010	1312.975464	3347.291016	2721.522949	69.239380
835.076416	1224.230225	3722.751953	2930.870850	68.306015
835.379822	1235.607788	3652.210938	2951.350586	70.998123
835.683105	1299.322388	3542.985840	2789.788574	66.430023
835.986389	1244.709839	3274.474365	2639.604248	68.721985
836.289612	1251.536499	3124.290039	2646.430664	74.483597
836.592773	1253.812012	2930.870850	2398.398926	68.249657
836.895874	1253.812012	2755.655762	2257.316650	66.818176
837.198914	1256.087524	2562.236328	2209.530762	72.996529
837.501892	1317.526489	2498.521729	2150.367188	70.520241
837.804871	1349.383789	2423.429688	2059.346436	66.101707
838.107666	1249.260864	2450.735840	2034.315552	65.340912
838.410583	1299.322388	2355.164063	1970.601074	63.577591
838.713379	1287.944824	2245.938965	1934.192627	67.458427
839.016052	1231.056763	2220.908203	1813.590088	58.850582
839.318787	1294.771362	2041.142212	1827.243164	71.341454
839.621338	1269.740601	2084.376953	1820.416626	67.597771
839.923889	1258.363037	2068.448486	1902.335449	79.494377
840.226440	1249.260864	2123.060791	1781.732788	60.937511
840.528931	1226.505737	2093.479248	1918.264038	79.790016
840.831299	1196.923950	2191.326416	1854.549438	66.132729
841.133606	1278.842651	2311.929199	1913.713013	61.453743
841.435913	1251.536499	2318.755615	2063.897461	76.119415
841.738220	1303.873413	2341.510986	2002.458252	67.324554
842.040405	1249.260864	2154.918213	1991.080688	81.909546
842.342529	1338.006226	2143.540527	1854.549438	64.124298
842.644592	1324.353149	2057.070801	1836.345337	69.875778
842.946594	1258.363037	2034.315552	1793.110352	68.914955
843.248596	1251.536499	2027.489014	1743.048950	63.343109
843.550598	1276.567139	1986.529663	1811.314575	75.320518
843.852478	1258.363037	1918.264038	1733.946899	72.068970
844.154236	1303.873413	1904.610962	1692.987427	64.772713
844.455994	1251.536499	1893.233276	1633.823975	59.574474
844.757690	1294.771362	1843.171875	1617.895264	58.921154
845.059326	1378.965576	1827.243164	1686.160889	68.527924
845.360962	1322.077637	1868.202637	1688.436401	67.083321
845.662476	1312.975464	1752.151001	1636.099487	73.575142
845.963989	1274.291626	1758.977539	1667.956787	81.220673
846.265381	1233.332275	1811.314575	1629.272949	68.503944
846.566772	1292.495850	1859.100464	1663.405762	65.461861
846.868042	1176.444214	1840.896362	1574.660400	59.931507
847.169373	1240.158813	1845.447388	1656.579102	68.796982
847.470581	1265.189575	1840.896362	1615.619751	60.869556
847.771729	1276.567139	1856.824951	1592.864502	54.509800
848.072815	1272.016113	1754.426514	1631.548462	74.528313
848.373901	1281.118164	1733.946899	1631.548462	77.386940
848.674866	1301.597900	1761.253052	1626.997314	70.792076
848.975891	1256.087524	1633.823975	1579.211426	85.542152
849.276794	1287.944824	1706.640625	1611.068726	77.173904
849.577637	1274.291626	1770.355225	1601.966675	66.055046
849.878357	1317.526489	1756.702026	1597.415649	63.730591
850.179077	1365.312500	1809.039063	1554.180664	42.564087
850.479736	1231.056763	1779.457275	1599.691162	67.219925
850.780396	1274.291626	1706.640625	1588.313477	72.631569
851.080994	1260.638550	1708.916138	1713.467163	101.015228
851.381470	1244.709839	1727.120239	1497.292725	52.358509
851.681946	1285.669312	1788.559326	1579.211426	58.371037
851.982361	1297.046875	1631.548462	1579.211426	84.353729
852.282715	1301.597900	1688.436401	1681.609863	98.235298
852.583008	1235.607788	1756.702026	1558.731689	62.008728
852.883240	1267.465088	1720.293701	1570.109375	66.834183
853.183411	1242.434326	1608.793213	1545.078613	82.608696
853.483521	1324.353149	1713.467163	1588.313477	67.836243
853.783630	1249.260864	1718.018188	1567.833862	67.961174
854.083679	1290.220337	1663.405762	1572.384888	75.609749
854.383667	1281.118164	1711.191650	1508.670288	52.910057
854.683533	1260.638550	1674.783325	1549.629639	69.780212
854.983337	1278.842651	1702.089600	1538.252075	61.290325
855.283203	1256.087524	1749.875488	1520.047852	53.456211
855.582886	1287.944824	1633.823975	1565.558350	80.263161
855.882629	1312.975464	1620.170776	1581.486938	87.407410
856.182312	1315.250977	1706.640625	1551.905151	60.465107
856.481873	1249.260864	1649.752563	1510.945801	65.340912
856.781372	1331.179688	1640.650513	1586.037964	82.352928
857.080872	1349.383789	1665.681274	1622.446289	86.330910
857.380310	1306.148926	1654.303589	1581.486938	79.084969
857.679688	1253.812012	1702.089600	1586.037964	74.111656
857.979004	1260.638550	1713.467163	1617.895264	78.894463
858.278259	1258.363037	1745.324463	1538.252075	57.476635
858.577454	1256.087524	1620.170776	1485.915039	63.124989
858.876648	1338.006226	1679.334351	1517.772339	52.666656
859.175720	1292.495850	1749.875488	1590.588989	65.174118
859.474792	1251.536499	1672.507813	1490.466064	56.756733
859.773743	1217.403687	1724.844727	1554.180664	66.367706
860.072693	1276.567139	1647.477051	1513.221313	63.803680
860.371521	1308.424438	1652.028076	1490.466064	52.980122
860.670349	1244.709839	1654.303589	1506.394775	63.888897
860.969116	1317.526489	1686.160889	1545.078613	61.728401
861.267883	1272.016113	1554.180664	1526.874512	90.322617
861.566589	1269.740601	1706.640625	1529.150024	59.375008
861.865112	1297.046875	1656.579102	1529.150024	64.556984
862.163635	1294.771362	1642.926025	1458.608887	47.058834
862.462158	1315.250977	1649.752563	1520.047852	61.224483
862.760620	1249.260864	1670.232300	1460.884399	50.270283
863.059021	1285.669312	1597.415649	1504.119263	70.072983
863.357361	1262.914063	1688.436401	1542.803101	65.775406
863.655640	1301.597900	1677.058838	1522.323364	58.787865
863.953857	1260.638550	1549.629639	1504.119263	84.251976
864.251953	1212.852539	1661.130127	1531.425537	71.066010
864.550110	1221.954712	1617.895264	1474.537476	63.793102
864.848206	1310.699951	1613.344238	1474.537476	54.135342
865.146179	1281.118164	1626.997314	1611.068726	95.394753
865.444092	1278.842651	1686.160889	1588.313477	75.977654
865.741943	1251.536499	1633.823975	1485.915039	61.309502
866.039795	1276.567139	1729.395752	1545.078613	59.296490
866.337646	1226.505737	1647.477051	1531.425537	72.432442
866.635376	1253.812012	1677.058838	1531.425537	65.591400
866.933044	1233.332275	1695.262939	1567.833862	72.413811
867.230652	1285.669312	1622.446289	1526.874512	71.621643
867.528198	1283.393677	1688.436401	1460.884399	43.820248
867.825745	1262.914063	1599.691162	1490.466064	67.567543
868.123230	1287.944824	1638.375000	1526.874512	68.181824
868.420593	1274.291626	1640.650513	1501.843750	62.111805
868.717896	1276.567139	1658.854614	1542.803101	69.642868
869.015198	1265.189575	1649.752563	1526.874512	68.047356
869.312439	1285.669312	1620.170776	1444.955688	47.619038
869.609619	1306.148926	1631.548462	1483.639526	54.545437
869.906738	1249.260864	1718.018188	1531.425537	60.194191
870.203796	1233.332275	1758.977539	1604.242188	70.562782
870.500854	1267.465088	1640.650513	1508.670288	64.634140
870.797791	1297.046875	1611.068726	1551.905151	81.159409
871.094666	1251.536499	1633.823975	1524.598877	71.428543
871.391602	1301.597900	1652.028076	1501.843750	57.142868
871.688293	1294.771362	1681.609863	1567.833862	70.588242
871.985107	1224.230225	1686.160889	1570.109375	74.876854
872.281738	1301.597900	1681.609863	1492.741699	50.299416
872.578369	1340.281738	1652.028076	1540.527588	64.233582
872.874939	1342.557251	1665.681274	1520.047852	54.929558
873.171509	1240.158813	1606.517700	1458.608887	59.627342
873.467957	1290.220337	1674.783325	1524.598877	60.946724
873.764343	1344.832764	1597.415649	1517.772339	68.468445
874.060669	1235.607788	1613.344238	1524.598877	76.506012
874.356995	1322.077637	1692.987427	1506.394775	49.693253
874.653198	1240.158813	1711.191650	1408.547363	35.748791
874.949463	1267.465088	1636.099487	1579.211426	84.567894
875.245544	1221.954712	1620.170776	1520.047852	74.857132
875.541626	1246.985352	1688.436401	1540.527588	66.494858
875.837646	1201.474976	1667.956787	1556.456177	76.097542
876.133606	1312.975464	1692.987427	1520.047852	54.491016
876.429565	1338.006226	1649.752563	1572.384888	75.182487
876.725403	1269.740601	1633.823975	1535.976563	73.125000
877.021179	1294.771362	1667.956787	1483.639526	50.609737
877.316956	1244.709839	1615.619751	1542.803101	80.368103
877.612610	1301.597900	1681.609863	1551.905151	65.868256
877.908203	1208.301514	1647.477051	1495.017212	65.284988
878.203857	1217.403687	1642.926025	1438.129150	51.871651
878.499390	1294.771362	1695.262939	1508.670288	53.409096
878.794800	1347.108276	1667.956787	1563.282837	67.375900
879.090271	1235.607788	1649.752563	1524.598877	69.780212
879.385559	1272.016113	1736.222412	1447.231201	37.745090
879.680847	1192.372925	1715.742676	1554.180664	69.130424
879.976196	1285.669312	1708.916138	1656.579102	87.634392
880.271301	1278.842651	1845.447388	1615.619751	59.437748
880.566467	1265.189575	1838.620850	1692.987427	74.603157
880.861572	1215.128052	1847.722900	1770.355225	87.769791
881.156555	1322.077637	1975.152100	1779.457275	70.034836
881.451477	1283.393677	2227.734863	1929.641602	68.433731
881.746460	1226.505737	2509.899414	2184.500000	74.645393
882.041321	1326.628662	3169.800537	2564.511963	67.160492
882.336121	1274.291626	4039.049316	3096.983887	65.925926
882.630798	1283.393677	4569.245605	3376.872803	63.711906
882.925537	1246.985352	4821.828613	3634.006836	66.772758
883.220215	1306.148926	4651.164551	3583.945313	68.095238
883.514771	1215.128052	4309.836426	3219.861816	64.779404
883.809326	1299.322388	3973.059326	3085.606201	66.808510
884.103760	1285.669312	3643.108887	2926.319824	69.594597
884.398132	1260.638550	3552.087891	2737.451416	64.448860
884.692505	1226.505737	3192.555664	2503.072998	64.930565
884.986816	1278.842651	3067.402100	2361.990479	60.559788
885.281067	1312.975464	3065.126465	2387.021240	61.298698
885.575256	1251.536499	2826.196777	2341.510986	69.219658
885.869385	1328.904175	2562.236328	2168.571289	68.081184
886.163452	1301.597900	2380.194824	2045.693237	68.987343
886.457458	1253.812012	2211.806152	1970.601074	74.821861
886.751465	1281.118164	2179.948975	1836.345337	61.772156
887.045410	1283.393677	2032.040039	1859.100464	76.899696
887.339233	1240.158813	2082.101563	1849.998413	72.432434
887.632996	1221.954712	1975.152100	1713.467163	65.256790
887.926758	1297.046875	1927.366089	1631.548462	53.068600
888.220398	1274.291626	1802.212524	1642.926025	69.827583
888.514099	1269.740601	1784.008301	1718.018188	87.168137
888.807678	1294.771362	1774.906250	1611.068726	65.876770
889.101196	1299.322388	1768.079712	1642.926025	73.300964
889.394653	1324.353149	1715.742676	1595.140137	69.186058
889.688049	1251.536499	1588.313477	1499.568237	73.648659
889.981384	1272.016113	1736.222412	1540.527588	57.843136
890.274719	1310.699951	1622.446289	1515.496826	65.693436
890.567932	1256.087524	1679.334351	1488.190552	54.838692
>>>>>End Processed Spectral Data<<<<<
