Jaz Data File
++++++++++++++++++++++++++++++++++++
Date: Wed Feb 07 06:39:53 2024
User: jaz
Dark Spectrum Present: Yes
Reference Spectrum Present: Yes
Processed Spectrum Present: Yes
Spectrometers: JAZA3692
Integration Time (usec): 43100 (JAZA3692)
Spectra Averaged: 1 (JAZA3692)
Boxcar Smoothing: 0 (JAZA3692)
Correct for Electrical Dark: No (JAZA3692)
Strobe/Lamp Enabled: Yes (JAZA3692)
Correct for Detector Non-linearity: No (JAZA3692)
Correct for Stray Light: No (JAZA3692)
Number of Pixels in Processed Spectrum: 2048
>>>>>Begin Processed Spectral Data<<<<<
W	D	R	S	P
190.244385	0.000000	0.000000	0.000000	0.000000
190.627136	0.000000	0.000000	0.000000	0.000000
191.009842	1165.066650	1165.066650	1208.301514	0.000000
191.392532	1169.617676	1219.679199	1105.903076	-127.272591
191.775177	1231.056763	1215.128052	1146.862427	528.569702
192.157791	1199.199463	1258.363037	1178.719727	-34.615448
192.540390	1246.985352	1210.577026	1215.128052	87.500038
192.922943	1276.567139	1251.536499	1153.689087	490.910553
193.305481	1253.812012	1281.118164	1135.484863	-433.335114
193.687958	1221.954712	1217.403687	1162.791138	1300.005371
194.070419	1253.812012	1246.985352	1167.342163	1266.649414
194.452866	1301.597900	1285.669312	1260.638550	257.143616
194.835251	1262.914063	1274.291626	1206.026001	-500.002136
195.217621	1196.923950	1231.056763	1187.821899	-26.666571
195.599960	1256.087524	1228.781250	1235.607788	75.000114
195.982254	1272.016113	1228.781250	1160.515625	257.894867
196.364517	1299.322388	1274.291626	1153.689087	581.817322
196.746750	1242.434326	1201.474976	1190.097412	127.777695
197.128952	1246.985352	1224.230225	1206.026001	180.000534
197.511139	1312.975464	1221.954712	1187.821899	137.500031
197.893280	1256.087524	1290.220337	1219.679199	-106.666641
198.275391	1160.515625	1274.291626	1149.138062	-9.999968
198.657471	1224.230225	1224.230225	1203.750488	0.000000
199.039520	1199.199463	1201.474976	1169.617676	-1300.005371
199.421539	1285.669312	1265.189575	1237.883301	233.333130
199.803513	1358.485962	1306.148926	1228.781250	247.825867
200.185471	1301.597900	1338.006226	1203.750488	-268.750092
200.567383	1165.066650	1278.842651	1190.097412	22.000036
200.949265	1240.158813	1335.730713	1183.270874	-59.523708
201.331131	1212.852539	1299.322388	1262.914063	57.894775
201.712967	1294.771362	1319.802124	1212.852539	-327.272583
202.094742	1283.393677	1278.842651	1183.270874	2200.005371
202.476517	1253.812012	1324.353149	1178.719727	-106.451767
202.858231	1358.485962	1237.883301	1201.474976	130.188660
203.239944	1267.465088	1253.812012	1180.995239	633.335999
203.621582	1301.597900	1262.914063	1276.567139	64.705994
204.003235	1260.638550	1233.332275	1281.118164	-74.999664
204.384827	1201.474976	1242.434326	1242.434326	100.000000
204.766388	1249.260864	1315.250977	1299.322388	75.862160
205.147934	1253.812012	1315.250977	1235.607788	-29.629770
205.529449	1253.812012	1269.740601	1212.852539	-257.144379
205.910904	1237.883301	1219.679199	1265.189575	-150.000671
206.292343	1242.434326	1217.403687	1219.679199	90.909088
206.673767	1215.128052	1233.332275	1203.750488	-62.499580
207.055115	1235.607788	1208.301514	1244.709839	-33.333183
207.436462	1180.995239	1215.128052	1215.128052	100.000000
207.817780	1297.046875	1262.914063	1176.444214	353.333496
208.199051	1160.515625	1283.393677	1240.158813	64.814819
208.580307	1235.607788	1274.291626	1192.372925	-111.764671
208.961517	1233.332275	1272.016113	1208.301514	-64.705994
209.342712	1171.893188	1242.434326	1212.852539	58.064487
209.723846	1165.066650	1308.424438	1190.097412	17.460342
210.104965	1196.923950	1240.158813	1249.260864	121.052574
210.486069	1231.056763	1256.087524	1217.403687	-54.545189
210.867111	1253.812012	1344.832764	1219.679199	-37.500034
211.248123	1201.474976	1315.250977	1221.954712	18.000050
211.629120	1210.577026	1244.709839	1203.750488	-19.999928
212.010071	1237.883301	1322.077637	1256.087524	21.621672
212.390991	1297.046875	1249.260864	1092.250000	428.570770
212.771881	1242.434326	1301.597900	1272.016113	50.000000
213.152756	1299.322388	1235.607788	1237.883301	96.428589
213.533569	1292.495850	1294.771362	1285.669312	-300.000000
213.914368	1203.750488	1369.863525	1240.158813	21.917801
214.295135	1158.240112	1274.291626	1217.403687	50.980442
214.675858	1256.087524	1237.883301	1187.821899	374.998840
215.056549	1233.332275	1310.699951	1244.709839	14.705836
215.437225	1237.883301	1258.363037	1094.525513	-699.998230
215.817841	1217.403687	1251.536499	1183.270874	-100.000000
216.198441	1190.097412	1235.607788	1155.964600	-75.000069
216.579025	1196.923950	1258.363037	1242.434326	74.073975
216.959549	1199.199463	1338.006226	1187.821899	-8.196692
217.340057	1242.434326	1219.679199	1194.648438	210.000534
217.720535	1224.230225	1169.617676	1242.434326	-33.333183
218.100967	1199.199463	1290.220337	1206.026001	7.499970
218.481369	1183.270874	1258.363037	1319.802124	181.818237
218.861740	1251.536499	1210.577026	1226.505737	61.111046
219.242065	1244.709839	1276.567139	1267.465088	71.428680
219.622391	1253.812012	1237.883301	1258.363037	-28.571209
220.002670	1237.883301	1281.118164	1210.577026	-63.157997
220.382919	1228.781250	1240.158813	1253.812012	220.001068
220.763123	1249.260864	1290.220337	1244.709839	-11.111045
221.143295	1281.118164	1292.495850	1267.465088	-119.998711
221.523453	1242.434326	1290.220337	1201.474976	-85.714104
221.903549	1226.505737	1290.220337	1246.985352	32.142735
222.283630	1242.434326	1338.006226	1226.505737	-16.666603
222.663696	1246.985352	1224.230225	1149.138062	430.001068
223.043701	1219.679199	1281.118164	1142.311401	-125.926270
223.423676	1192.372925	1272.016113	1233.332275	51.428566
223.803635	1219.679199	1215.128052	1201.474976	399.991943
224.183548	1194.648438	1331.179688	1228.781250	25.000000
224.563431	1201.474976	1281.118164	1219.679199	22.857225
224.943283	1246.985352	1244.709839	1210.577026	1600.005371
225.323105	1192.372925	1340.281738	1174.168701	-12.307734
225.702881	1267.465088	1308.424438	1190.097412	-188.888916
226.082642	1196.923950	1328.904175	1260.638550	48.275867
226.462357	1251.536499	1342.557251	1265.189575	14.999960
226.842041	1221.954712	1301.597900	1185.546387	-45.714298
227.221695	1281.118164	1333.455200	1215.128052	-126.086838
227.601318	1212.852539	1317.526489	1212.852539	0.000000
227.980911	1196.923950	1385.792114	1142.311401	-28.915699
228.360474	1215.128052	1376.690063	1194.648438	-12.676008
228.739990	1196.923950	1365.312500	1210.577026	8.108079
229.119476	1221.954712	1456.333252	1233.332275	4.854354
229.498932	1246.985352	1467.710938	1203.750488	-19.587608
229.878372	1228.781250	1481.364014	1221.954712	-2.702693
230.257736	1242.434326	1554.180664	1169.617676	-23.357660
230.637115	1192.372925	1542.803101	1185.546387	-1.948045
231.016449	1240.158813	1588.313477	1215.128052	-7.189552
231.395737	1278.842651	1549.629639	1249.260864	-10.924376
231.774994	1206.026001	1467.710938	1237.883301	12.173914
232.154221	1219.679199	1424.476074	1246.985352	13.333285
232.533417	1203.750488	1460.884399	1169.617676	-13.274333
232.912582	1237.883301	1495.017212	1285.669312	18.584095
233.291702	1240.158813	1513.221313	1178.719727	-22.500010
233.670792	1215.128052	1372.139038	1237.883301	14.492775
234.049866	1237.883301	1408.547363	1228.781250	-5.333314
234.428894	1276.567139	1444.955688	1237.883301	-22.972961
234.807892	1206.026001	1435.853638	1260.638550	23.762394
235.186874	1251.536499	1372.139038	1235.607788	-13.207608
235.565781	1194.648438	1433.578125	1242.434326	19.999979
235.944687	1192.372925	1435.853638	1272.016113	32.710266
236.323547	1201.474976	1449.506714	1187.821899	-5.504568
236.702377	1208.301514	1563.282837	1246.985352	10.897429
237.081177	1180.995239	1501.843750	1185.546387	1.418472
237.459946	1322.077637	1474.537476	1135.484863	-122.388145
237.838669	1260.638550	1492.741699	1192.372925	-29.411762
238.217361	1260.638550	1472.261963	1206.026001	-25.806479
238.596039	1219.679199	1458.608887	1228.781250	3.809510
238.974670	1251.536499	1510.945801	1215.128052	-14.035135
239.353271	1244.709839	1504.119263	1246.985352	0.877190
239.731842	1199.199463	1447.231201	1203.750488	1.834856
240.110367	1256.087524	1545.078613	1215.128052	-14.173265
240.488876	1228.781250	1522.323364	1155.964600	-24.806202
240.867340	1219.679199	1595.140137	1201.474976	-4.848500
241.245789	1253.812012	1586.037964	1196.923950	-17.123304
241.624176	1208.301514	1711.191650	1196.923950	-2.262435
242.002548	1294.771362	1649.752563	1185.546387	-30.769228
242.380890	1292.495850	1822.692139	1196.923950	-18.025759
242.759186	1192.372925	1843.171875	1219.679199	4.195808
243.137451	1251.536499	1934.192627	1194.648438	-8.333341
243.515686	1253.812012	2088.927979	1228.781250	-2.997280
243.893890	1185.546387	2043.417725	1233.332275	5.570286
244.272049	1267.465088	2148.091553	1303.873413	4.134367
244.650192	1237.883301	2075.274902	1210.577026	-3.260873
245.028290	1221.954712	1895.508789	1185.546387	-5.405405
245.406357	1203.750488	1847.722900	1221.954712	2.826864
245.784393	1199.199463	1804.488037	1262.914063	10.526318
246.162384	1251.536499	1843.171875	1196.923950	-9.230778
246.540359	1242.434326	1925.090576	1203.750488	-5.666664
246.918289	1240.158813	2002.458252	1256.087524	2.089561
247.296204	1251.536499	2186.775391	1201.474976	-5.352806
247.674057	1215.128052	2464.388916	1183.270874	-2.550082
248.051895	1237.883301	2691.941162	1265.189575	1.877936
248.429703	1233.332275	2767.033203	1210.577026	-1.483682
248.807465	1285.669312	2839.849854	1274.291626	-0.732070
249.185196	1278.842651	2546.307861	1283.393677	0.359065
249.562897	1240.158813	2373.368164	1253.812012	1.204826
249.940567	1180.995239	2311.929199	1231.056763	4.426565
250.318192	1174.168701	2102.581299	1212.852539	4.166665
250.695801	1210.577026	2088.927979	1253.812012	4.922290
251.073349	1185.546387	1945.570313	1274.291626	11.676638
251.450882	1235.607788	1927.366089	1228.781250	-0.986839
251.828400	1281.118164	1879.580200	1178.719727	-17.110264
252.205872	1251.536499	1931.917114	1253.812012	0.334447
252.583313	1235.607788	2025.213501	1233.332275	-0.288183
252.960693	1185.546387	2091.203613	1221.954712	4.020100
253.338074	1278.842651	2291.449463	1303.873413	2.471913
253.715408	1260.638550	2239.112549	1276.567139	1.627901
254.092682	1240.158813	2047.968750	1228.781250	-1.408446
254.469955	1142.311401	1890.957764	1294.771362	20.364750
254.847198	1217.403687	1936.468262	1265.189575	6.645563
255.224365	1215.128052	1913.713013	1208.301514	-0.977195
255.601563	1269.740601	1877.304688	1215.128052	-8.988771
255.978683	1256.087524	1802.212524	1194.648438	-11.250005
256.355743	1199.199463	1859.100464	1217.403687	2.758630
256.732819	1251.536499	1890.957764	1224.230225	-4.270467
257.109894	1176.444214	1954.672363	1253.812012	9.941532
257.486877	1226.505737	1909.161987	1190.097412	-5.333332
257.863831	1267.465088	2066.172852	1180.995239	-10.826219
258.240753	1192.372925	2120.785400	1256.087524	6.862747
258.617645	1219.679199	2198.153076	1217.403687	-0.232557
258.994507	1110.454102	2280.071777	1251.536499	12.062266
259.371307	1274.291626	2232.285889	1262.914063	-1.187644
259.748108	1162.791138	2509.899414	1167.342163	0.337837
260.124878	1158.240112	2751.104736	1217.403687	3.714288
260.501617	1249.260864	3106.085938	1274.291626	1.348041
260.878296	1297.046875	3319.984863	1212.852539	-4.161983
261.254944	1201.474976	3445.138428	1256.087524	2.434079
261.631561	1199.199463	3299.505127	1319.802124	5.742148
262.008179	1167.342163	3056.024414	1272.016113	5.542168
262.384735	1240.158813	2762.482178	1240.158813	0.000000
262.761261	1237.883301	2503.072998	1217.403687	-1.618699
263.137695	1199.199463	2373.368164	1192.372925	-0.581393
263.514191	1269.740601	2416.603027	1276.567139	0.595236
263.890594	1260.638550	2318.755615	1212.852539	-4.516137
264.267029	1249.260864	2373.368164	1219.679199	-2.631570
264.643341	1203.750488	2264.143311	1169.617676	-3.218884
265.019653	1226.505737	2191.326416	1171.893188	-5.660383
265.395935	1224.230225	2234.561523	1208.301514	-1.576583
265.772217	1231.056763	2193.602051	1180.995239	-5.200953
266.148407	1228.781250	2264.143311	1201.474976	-2.637365
266.524597	1281.118164	2405.225586	1155.964600	-11.133595
266.900726	1226.505737	2441.633789	1249.260864	1.872653
267.276855	1237.883301	2459.837891	1151.413574	-7.076345
267.652924	1228.781250	2580.440674	1249.260864	1.515146
268.028992	1183.270874	2539.481201	1228.781250	3.355702
268.404999	1185.546387	2603.195801	1256.087524	4.975923
268.781006	1224.230225	2589.542725	1162.791138	-4.500002
269.156921	1155.964600	2589.542725	1299.322388	9.999998
269.532837	1249.260864	2534.930176	1267.465088	1.415934
269.908661	1306.148926	2587.267090	1228.781250	-6.039074
270.284546	1269.740601	2571.338623	1206.026001	-4.895106
270.660339	1269.740601	2655.532715	1224.230225	-3.284070
271.036133	1244.709839	2587.267090	1233.332275	-0.847455
271.411835	1292.495850	2705.594238	1210.577026	-5.797107
271.787537	1183.270874	2858.054199	1235.607788	3.124996
272.163239	1237.883301	3112.912354	1256.087524	0.970877
272.538849	1201.474976	3283.576416	1281.118164	3.825135
272.914459	1215.128052	3324.535889	1260.638550	2.157501
273.290070	1258.363037	3096.983887	1272.016113	0.742572
273.665588	1169.617676	2990.034424	1226.505737	3.125002
274.041046	1294.771362	2994.585449	1276.567139	-1.070954
274.416565	1203.750488	2912.666504	1208.301514	0.266311
274.791962	1219.679199	2807.992676	1322.077637	6.446991
275.167389	1274.291626	2796.614990	1226.505737	-3.139010
275.542755	1199.199463	2833.023438	1322.077637	7.520894
275.918060	1206.026001	2769.308838	1180.995239	-1.601166
276.293365	1151.413574	2792.063965	1226.505737	4.576975
276.668640	1215.128052	2851.227539	1269.740601	3.337972
277.043854	1256.087524	2864.880615	1231.056763	-1.555872
277.419037	1292.495850	2990.034424	1331.179688	2.278819
277.794189	1171.893188	3026.442627	1253.812012	4.417182
278.169312	1228.781250	2967.279053	1267.465088	2.225130
278.544373	1258.363037	2885.360352	1258.363037	0.000000
278.919464	1260.638550	2903.564453	1242.434326	-1.108037
279.294464	1226.505737	2924.044189	1246.985352	1.206430
279.669464	1153.689087	2871.707275	1256.087524	5.960265
280.044403	1212.852539	2735.176025	1240.158813	1.793723
280.419312	1206.026001	2919.493164	1228.781250	1.328024
280.794189	1208.301514	2955.901611	1167.342163	-2.343749
281.169037	1226.505737	3053.749023	1240.158813	0.747195
281.543854	1235.607788	3087.881836	1187.821899	-2.579850
281.918671	1251.536499	3124.290039	1246.985352	-0.243019
282.293365	1283.393677	3381.423828	1212.852539	-3.362256
282.668091	1258.363037	3310.882813	1335.730713	3.769400
283.042786	1249.260864	3506.577637	1322.077637	3.225811
283.417419	1251.536499	3540.710449	1226.505737	-1.093441
283.792053	1219.679199	3379.148438	1292.495850	3.371970
284.166595	1249.260864	3333.637939	1231.056763	-0.873359
284.541138	1210.577026	3147.045166	1240.158813	1.527615
284.915619	1262.914063	3301.780762	1274.291626	0.558034
285.290100	1283.393677	3363.219727	1306.148926	1.094094
285.664520	1219.679199	3438.312012	1269.740601	2.256408
286.038940	1185.546387	3351.842041	1287.944824	4.726891
286.413300	1228.781250	3604.425049	1221.954712	-0.287355
286.787628	1265.189575	3699.996826	1290.220337	1.028039
287.161896	1237.883301	3836.528076	1285.669312	1.838882
287.536194	1180.995239	3870.660889	1246.985352	2.453469
287.910400	1274.291626	3847.905762	1212.852539	-2.387269
288.284607	1206.026001	3638.557861	1319.802124	4.677272
288.658752	1253.812012	3340.464600	1267.465088	0.654305
289.032867	1240.158813	3247.168213	1221.954712	-0.907026
289.406921	1187.821899	3363.219727	1299.322388	5.125522
289.781006	1190.097412	3447.414063	1251.536499	2.721775
290.154999	1331.179688	3436.036377	1290.220337	-1.945945
290.529022	1240.158813	3615.802490	1240.158813	0.000000
290.902954	1251.536499	3738.680664	1206.026001	-1.829830
291.276825	1253.812012	3886.589600	1258.363037	0.172860
291.650757	1201.474976	3866.109863	1203.750488	0.085397
292.024597	1233.332275	3841.079102	1281.118164	1.832459
292.398407	1219.679199	3704.547852	1206.026001	-0.549453
292.772156	1242.434326	3670.415039	1272.016113	1.218370
293.145905	1249.260864	3531.608398	1297.046875	2.093722
293.519592	1249.260864	3527.057129	1310.699951	2.697304
293.893280	1281.118164	3563.465576	1237.883301	-1.894316
294.266907	1246.985352	3574.843262	1265.189575	0.782016
294.640533	1178.719727	3781.915527	1237.883301	2.272728
295.014069	1169.617676	3988.988037	1253.812012	2.986282
295.387604	1258.363037	4102.764160	1281.118164	0.799997
295.761078	1228.781250	4148.274414	1256.087524	0.935309
296.134552	1226.505737	4029.947266	1219.679199	-0.243506
296.507996	1217.403687	4000.365479	1228.781250	0.408829
296.881378	1317.526489	4196.060547	1224.230225	-3.241103
297.254730	1244.709839	4341.693848	1210.577026	-1.102131
297.628021	1206.026001	4639.787109	1278.842651	2.120609
298.001282	1258.363037	4623.858398	1331.179688	2.163624
298.374573	1253.812012	4705.776855	1333.455200	2.307184
298.747803	1169.617676	4519.184082	1226.505737	1.698371
299.121002	1244.709839	4348.520020	1351.659302	3.445748
299.494141	1162.791138	4120.968262	1294.771362	4.461539
299.867188	1135.484863	4009.467773	1342.557251	7.205067
300.240265	1183.270874	3886.589600	1301.597900	4.377102
300.613312	1287.944824	3936.650879	1310.699951	0.859104
300.986328	1196.923950	3932.099854	1212.852539	0.582361
301.359314	1242.434326	3852.456787	1301.597900	2.266784
301.732239	1206.026001	3786.466553	1208.301514	0.088183
302.105103	1262.914063	3674.966064	1233.332275	-1.226416
302.477997	1260.638550	3756.884766	1317.526489	2.278939
302.850830	1185.546387	3963.957275	1265.189575	2.866502
303.223602	1235.607788	3699.996826	1319.802124	3.416438
303.596375	1219.679199	3638.557861	1226.505737	0.282219
303.969116	1219.679199	3613.527100	1353.934937	5.608366
304.341766	1194.648438	3540.710449	1358.485962	6.983512
304.714478	1233.332275	3572.567627	1292.495850	2.529184
305.087067	1242.434326	3581.669678	1287.944824	1.945529
305.459656	1231.056763	3561.189941	1424.476074	8.300783
305.832214	1269.740601	3634.006836	1353.934937	3.561119
306.204681	1297.046875	3438.312012	1372.139038	3.506906
306.577148	1260.638550	3533.883789	1449.506714	8.308306
306.949646	1265.189575	3574.843262	1413.098389	6.403939
307.322021	1281.118164	3608.976074	1344.832764	2.737048
307.694397	1237.883301	3547.536865	1515.496826	12.019704
308.066742	1308.424438	3481.546875	1522.323364	9.842930
308.439026	1253.812012	3586.220703	1531.425537	11.902439
308.811279	1276.567139	3950.304199	1501.843750	8.425533
309.183502	1258.363037	3904.793701	1508.670288	9.458296
309.555695	1242.434326	3954.855225	1531.425537	10.654365
309.927887	1244.709839	3866.109863	1588.313477	13.107639
310.299988	1169.617676	3966.232666	1626.997314	16.354759
310.672058	1162.791138	4020.845215	1622.446289	16.082800
311.044128	1228.781250	4218.815430	1617.895264	13.013698
311.416168	1251.536499	4189.233887	1692.987427	15.027107
311.788147	1171.893188	4011.743164	1756.702026	20.592947
312.160065	1215.128052	4109.590332	1777.181763	19.418242
312.531982	1212.852539	4182.407227	1745.324463	17.931036
312.903870	1208.301514	4050.427002	1702.089600	17.373901
313.275696	1272.016113	3895.691650	1670.232300	15.177798
313.647491	1146.862427	3927.548828	1704.365112	20.049103
314.019318	1240.158813	3841.079102	1713.467163	18.197725
314.391022	1281.118164	3800.119629	1695.262939	16.440830
314.762726	1253.812012	3884.313965	1720.293701	17.733562
315.134369	1242.434326	4048.151611	1679.334351	15.571776
315.505981	1246.985352	4266.601563	1809.039063	18.613415
315.877594	1199.199463	4191.509277	1836.345337	21.292778
316.249146	1187.821899	4189.233887	1781.732788	19.787716
316.620636	1169.617676	4023.120850	1683.885376	18.022327
316.992157	1301.597900	3831.977051	1672.507813	14.658274
317.363586	1287.944824	3699.996826	1683.885376	16.415092
317.735016	1178.719727	3697.721191	1636.099487	18.157185
318.106354	1187.821899	3809.221924	1697.538574	19.444445
318.477722	1208.301514	3763.711426	1670.232300	18.076582
318.849060	1206.026001	3722.751953	1724.844727	20.614826
319.220306	1190.097412	3718.200928	1556.456177	14.491446
319.591522	1199.199463	3861.558838	1645.201538	16.752136
319.962738	1192.372925	3836.528076	1724.844727	20.137690
320.333923	1262.914063	3836.528076	1708.916138	17.329796
320.705017	1294.771362	3731.854004	1665.681274	15.219423
321.076111	1215.128052	3768.262451	1674.783325	18.003569
321.447144	1269.740601	3661.312988	1745.324463	19.885824
321.818176	1258.363037	3695.445801	1688.436401	17.647057
322.189178	1249.260864	3688.619141	1697.538574	18.376869
322.560120	1276.567139	3809.221924	1681.609863	15.992812
322.931030	1233.332275	3684.068115	1597.415649	14.856084
323.301910	1240.158813	3968.508301	1629.272949	14.261887
323.672729	1237.883301	4068.631104	1645.201538	14.389069
324.043549	1142.311401	4216.540039	1672.507813	17.246487
324.414337	1217.403687	4394.030762	1756.702026	16.977076
324.785095	1208.301514	4475.949219	1781.732788	17.548748
325.155792	1217.403687	4669.368652	1720.293701	14.568225
325.526428	1260.638550	4594.276367	1699.814087	13.174064
325.897034	1226.505737	4546.490723	1702.089600	14.324881
326.267670	1199.199463	4369.000000	1740.773438	17.085428
326.638184	1206.026001	4482.775879	1790.834839	17.847221
327.008728	1258.363037	4469.123047	1774.906250	16.087879
327.379211	1281.118164	4460.020996	1758.977539	15.032210
327.749634	1215.128052	4387.204102	1654.303589	13.845050
328.120026	1199.199463	4143.723145	1720.293701	17.697063
328.490417	1265.189575	4264.326172	1727.120239	15.402121
328.860748	1212.852539	4100.488281	1608.793213	13.711587
329.231079	1276.567139	4150.549805	1667.956787	13.618372
329.601318	1306.148926	4209.713379	1670.232300	12.539186
329.971558	1203.750488	4350.795898	1679.334351	15.112075
330.341736	1210.577026	4332.591797	1706.640625	15.889215
330.711914	1215.128052	4207.437988	1677.058838	15.437263
331.082062	1212.852539	4250.672852	1699.814087	16.029966
331.452148	1201.474976	4271.152344	1645.201538	14.455153
331.822174	1212.852539	4293.907715	1674.783325	14.992617
332.192200	1183.270874	4321.213867	1706.640625	16.678753
332.562134	1158.240112	4432.714355	1665.681274	15.496875
332.932129	1178.719727	4398.581543	1745.324463	17.597176
333.302063	1274.291626	4623.858398	1711.191650	13.043478
333.671906	1249.260864	4726.256836	1686.160889	12.565445
334.041718	1281.118164	4632.960449	1695.262939	12.355736
334.411499	1169.617676	4926.502441	1727.120239	14.839491
334.781281	1292.495850	4660.266602	1729.395752	12.972970
335.151001	1262.914063	4719.430176	1738.497925	13.759052
335.520721	1203.750488	4560.143555	1740.773438	16.000002
335.890350	1226.505737	4683.021973	1738.497925	14.812377
336.259979	1272.016113	4749.011719	1758.977539	14.005236
336.629547	1233.332275	4719.430176	1761.253052	15.143601
336.999084	1224.230225	4578.347656	1697.538574	14.111263
337.368622	1294.771362	4710.328125	1729.395752	12.724848
337.738098	1244.709839	4698.950684	1665.681274	12.187090
338.107513	1217.403687	4701.226074	1761.253052	15.610709
338.476898	1196.923950	4630.685059	1749.875488	16.103378
338.846252	1226.505737	4712.603516	1747.599976	14.947781
339.215576	1199.199463	4867.338867	1788.559326	16.066998
339.584869	1306.148926	4667.093262	1706.640625	11.916047
339.954132	1169.617676	4696.674805	1729.395752	15.870967
340.323334	1276.567139	4539.664063	1724.844727	13.737796
340.692505	1244.709839	4535.112793	1674.783325	13.070542
341.061646	1233.332275	4537.388672	1683.885376	13.636362
341.430786	1237.883301	4523.735352	1677.058838	13.365651
341.799896	1201.474976	4660.266602	1652.028076	13.026316
342.168915	1199.199463	4717.154785	1661.130127	13.130657
342.537903	1201.474976	4974.288574	1658.854614	12.123038
342.906830	1290.220337	4944.706543	1815.865601	14.383561
343.275757	1210.577026	4956.084473	1722.569214	13.669501
343.644684	1196.923950	4887.818848	1822.692139	16.954374
344.013550	1246.985352	4976.563965	1756.702026	13.666870
344.382355	1237.883301	5204.116211	1843.171875	15.261045
344.751129	1226.505737	5336.096191	1847.722900	15.116280
345.119873	1219.679199	5625.087402	1875.029175	14.876033
345.488586	1187.821899	5827.608887	1890.957764	15.154486
345.857269	1217.403687	6066.538574	1886.406738	13.796339
346.225891	1217.403687	6011.925781	1988.805176	16.089226
346.594482	1258.363037	5973.242188	1902.335449	13.658302
346.963043	1208.301514	5959.588867	1890.957764	14.367817
347.331543	1258.363037	5477.178711	1947.845825	16.343042
347.700043	1294.771362	5540.893066	1824.967651	12.486602
348.068512	1308.424438	5320.167480	1870.478149	14.010212
348.436951	1310.699951	5261.003906	1786.283813	12.039171
348.805328	1253.812012	5174.534180	1786.283813	13.580962
349.173645	1215.128052	5067.584961	1747.599976	13.821619
349.541931	1281.118164	5185.912109	1752.151001	12.062937
349.910217	1272.016113	5224.595703	1881.855713	15.428902
350.278473	1240.158813	5386.157715	1893.233276	15.751921
350.646667	1242.434326	5484.005371	1909.161987	15.718884
351.014801	1160.515625	5627.362793	1861.375977	15.690269
351.382935	1258.363037	5631.914063	1838.620850	13.267430
351.751007	1240.158813	5522.688965	1893.233276	15.249734
352.119049	1199.199463	5677.424316	1906.886475	15.802848
352.487091	1171.893188	5593.229980	1879.580200	16.006178
352.855072	1192.372925	5625.087402	1968.325439	17.505133
353.222992	1267.465088	5622.812012	1938.743774	15.412750
353.590881	1299.322388	5795.751465	1934.192627	14.119431
353.958740	1226.505737	6030.129883	1981.978638	15.727144
354.326599	1199.199463	6168.937012	1906.886475	14.239928
354.694397	1242.434326	6319.121094	2034.315552	15.598388
355.062134	1192.372925	6501.163086	2011.560425	15.430776
355.429840	1180.995239	6391.937988	2059.346436	16.855898
355.797516	1201.474976	6494.336426	2102.581299	17.024937
356.165192	1237.883301	6635.418457	2141.265137	16.736933
356.532776	1210.577026	6897.103516	2143.540527	16.406563
356.900360	1130.933838	7156.512695	2116.234375	16.351965
357.267883	1224.230225	7131.482422	2255.041016	17.449921
357.635376	1267.465088	7511.494141	2355.164063	17.419825
358.002808	1242.434326	7932.465332	2314.204590	16.020407
358.370270	1283.393677	8187.323730	2412.052002	16.348055
358.737640	1272.016113	8210.079102	2387.021240	16.070843
359.105011	1253.812012	8091.751953	2368.817139	16.306156
359.472321	1233.332275	7657.127441	2286.898438	16.400993
359.839569	1153.689087	7543.351563	2348.337402	18.696579
360.206787	1231.056763	7584.311035	2289.173828	16.654726
360.574005	1231.056763	7950.669922	2384.745850	17.168980
360.941193	1217.403687	8141.813477	2332.408936	16.102531
361.308319	1258.363037	8699.316406	2619.124512	18.287462
361.675415	1212.852539	9290.951172	2678.288086	18.140848
362.042450	1224.230225	9570.840820	2826.196777	19.193020
362.409424	1283.393677	10344.517578	2801.166016	16.750376
362.776428	1231.056763	10590.273438	2921.768799	18.064674
363.143402	1306.148926	10230.741211	2901.289063	17.873535
363.510284	1231.056763	9579.942383	2762.482178	18.342873
363.877136	1249.260864	8412.600586	2591.818115	18.742058
364.243988	1267.465088	7871.026367	2459.837891	18.056511
364.610779	1242.434326	7663.954102	2396.123291	17.965981
364.977539	1240.158813	7645.750000	2514.450439	19.893427
365.344269	1210.577026	7443.228516	2475.766602	20.299379
365.710938	1226.505737	7204.298828	2384.745850	19.375715
366.077576	1276.567139	7147.410645	2409.776611	19.302328
366.444183	1297.046875	6719.612793	2450.735840	21.275702
366.810760	1219.679199	6890.276855	2380.194824	20.465490
367.177277	1180.995239	7065.492188	2475.766602	22.003094
367.543823	1206.026001	7072.318848	2393.847900	20.248255
367.910248	1235.607788	7099.625000	2482.593262	21.265038
368.276642	1244.709839	7019.981445	2414.327637	20.252171
368.643036	1215.128052	6774.225586	2352.888428	20.466639
369.009399	1267.465088	6890.276855	2489.419678	21.732092
369.375671	1251.536499	6610.387695	2421.154053	21.825901
369.741974	1251.536499	6573.979492	2473.491211	22.958530
370.108215	1183.270874	6665.000488	2509.899414	24.200912
370.474396	1338.006226	6669.551270	2453.011475	20.913361
370.840546	1299.322388	6603.561523	2427.980713	21.278419
371.206665	1228.781250	6892.552734	2473.491211	21.976698
371.572784	1272.016113	6878.899414	2621.399902	24.066557
371.938843	1231.056763	6958.542480	2639.604248	24.592772
372.304840	1242.434326	7151.961914	2578.165039	22.603004
372.670807	1215.128052	7274.839844	2676.012451	24.108149
373.036713	1246.985352	7199.748047	2544.032227	21.788990
373.402649	1244.709839	7022.257324	2644.155273	24.222137
373.768524	1244.709839	6906.205566	2657.808350	24.959810
374.134308	1256.087524	6960.818359	2598.644775	23.534103
374.500122	1244.709839	7056.390137	2600.920166	23.335941
374.865875	1253.812012	7186.094727	2703.318604	24.434214
375.231567	1244.709839	7206.574219	2712.420898	24.618324
375.597260	1160.515625	7247.533691	2673.737061	24.859816
375.962891	1224.230225	7440.953125	2716.971924	24.011715
376.328461	1224.230225	7504.667480	2862.605225	26.086956
376.694031	1253.812012	7816.414063	3042.371338	27.253813
377.059540	1203.750488	8107.680664	3028.718262	26.433752
377.425049	1206.026001	8487.692383	3131.116699	26.437502
377.790497	1196.923950	8774.408203	3338.188965	28.258259
378.155945	1265.189575	8922.317383	3365.495361	27.429419
378.521301	1226.505737	8849.500000	3363.219727	28.029850
378.886597	1235.607788	8797.163086	3415.556641	28.829370
379.251892	1231.056763	8307.926758	3304.056152	29.292604
379.617157	1297.046875	8055.343750	3094.708252	26.599325
379.982422	1158.240112	7823.240723	3062.851074	28.576307
380.347595	1240.158813	7732.219727	3003.687500	27.164389
380.712738	1190.097412	7723.117676	3172.075928	30.337858
381.077820	1196.923950	7709.464355	3256.270264	31.621243
381.442902	1185.546387	7618.443848	3185.729004	31.093029
381.807953	1215.128052	7743.597168	3322.260254	32.276054
382.172974	1244.709839	7679.882813	3299.505127	31.930695
382.537933	1155.964600	7830.066895	3365.495361	33.106037
382.902832	1228.781250	7736.770508	3265.372314	31.293707
383.267700	1212.852539	7732.219727	3426.934326	33.961605
383.632538	1215.128052	8082.649902	3429.209961	32.239899
383.997345	1183.270874	8014.384277	3606.700439	35.476349
384.362152	1258.363037	8180.497070	3665.864014	34.779751
384.726898	1260.638550	8385.293945	3740.956299	34.813164
385.091553	1194.648438	8551.407227	3802.395264	35.446953
385.456238	1196.923950	8433.080078	3802.395264	36.006287
385.820862	1224.230225	8419.426758	3818.323975	36.053135
386.185425	1240.158813	8342.059570	3706.823486	34.732456
386.549988	1210.577026	8435.355469	3954.855225	37.984257
386.914490	1196.923950	8569.611328	4064.080078	38.888889
387.278961	1235.607788	8553.682617	4255.224121	41.262440
387.643372	1203.750488	8890.459961	4191.509277	38.869152
388.007782	1190.097412	8881.357422	4448.643066	42.366867
388.372101	1171.893188	9040.644531	4526.010742	42.625793
388.736450	1240.158813	9140.766602	4466.847168	40.841015
389.100739	1274.291626	8869.980469	4485.051270	42.270817
389.464966	1226.505737	8856.327148	4505.531250	42.976437
389.829163	1196.923950	8733.449219	4487.327148	43.659420
390.193329	1258.363037	8583.264648	4482.775879	44.019882
390.557495	1258.363037	8667.458984	4648.889160	45.761673
390.921570	1303.873413	9015.613281	4628.409180	43.110062
391.285614	1353.934937	9065.674805	4931.053711	46.385365
391.649597	1171.893188	9434.309570	5283.759277	49.765907
392.013550	1180.995239	9752.881836	5543.168457	50.889301
392.377502	1215.128052	10246.669922	5613.709961	48.702446
392.741455	1192.372925	10289.905273	5779.822754	50.425209
393.105316	1224.230225	9975.882813	5625.087402	50.286018
393.469086	1199.199463	9823.422852	5795.751465	53.298153
393.832886	1178.719727	9862.107422	5900.425293	54.376308
394.196655	1233.332275	9702.820313	5804.853516	53.976360
394.560333	1260.638550	9912.168945	6071.089355	55.602310
394.924042	1140.035889	10035.046875	6184.865723	56.715279
395.287659	1180.995239	10016.842773	6173.487793	56.502701
395.651245	1151.413574	9882.586914	6234.926758	58.222565
396.014771	1240.158813	9652.758789	6323.672363	60.427383
396.378296	1246.985352	9418.380859	5986.895020	58.006123
396.741791	1128.658325	9306.879883	6084.742676	60.601006
397.105255	1185.546387	9254.542969	6018.752441	59.898476
397.468628	1272.016113	8910.939453	5984.619629	61.691986
397.832001	1265.189575	9152.144531	5961.864258	59.549911
398.195313	1256.087524	9026.991211	6200.793945	63.631035
398.558624	1199.199463	8986.031250	6244.029297	64.786682
398.921844	1294.771362	8990.583008	6407.866699	66.439972
399.285095	1237.883301	8929.143555	6487.509766	68.254440
399.648254	1199.199463	9202.206055	6630.867676	67.870338
400.011383	1242.434326	9306.879883	6605.836914	66.506775
400.374451	1262.914063	8765.305664	6692.306641	72.368828
400.737549	1240.158813	9143.042969	6733.266113	69.507629
401.100586	1292.495850	9108.910156	6651.347168	68.558952
401.463562	1231.056763	9140.766602	6708.235352	69.246262
401.826508	1210.577026	9420.656250	7277.115723	73.891350
402.189392	1153.689087	9042.919922	7095.073730	75.310066
402.552246	1176.444214	9131.665039	7092.798340	74.370712
402.915070	1294.771362	9213.583984	7129.206543	73.678154
403.277893	1260.638550	9452.513672	7698.086914	78.583328
403.640656	1242.434326	9579.942383	7500.116699	75.054596
404.003326	1201.474976	10000.914063	7852.822266	75.588303
404.366028	1231.056763	9887.137695	7766.352539	75.499474
404.728699	1171.893188	10574.344727	8296.548828	75.774452
405.091248	1278.842651	10603.926758	8715.245117	79.746223
405.453857	1281.118164	10738.182617	8535.478516	76.708374
405.816345	1246.985352	10483.324219	8656.081055	80.216805
406.178833	1249.260864	10405.957031	8540.029297	79.622261
406.541260	1199.199463	10626.682617	8888.184570	81.559258
406.903687	1258.363037	10362.721680	8640.152344	81.079727
407.266052	1224.230225	10148.823242	8549.131836	82.075470
407.628387	1260.638550	10012.291992	8433.080078	81.955276
407.990662	1290.220337	9789.290039	8342.059570	82.971901
408.352905	1265.189575	9832.525391	8414.875977	83.452858
408.715118	1206.026001	10057.801758	8640.152344	83.984581
409.077332	1240.158813	10089.659180	8385.293945	80.740555
409.439484	1174.168701	9953.127930	8678.835938	85.484703
409.801575	1206.026001	9973.607422	8621.948242	84.583450
410.163605	1212.852539	9996.363281	9033.817383	89.041443
410.525635	1201.474976	10428.711914	8961.000977	84.093704
410.887604	1210.577026	10565.243164	9197.655273	85.380684
411.249573	1180.995239	10551.589844	9215.859375	85.745514
411.611481	1235.607788	10565.243164	9231.788086	85.707314
411.973328	1244.709839	10519.732422	9265.920898	86.481850
412.335144	1194.648438	10246.669922	9211.308594	88.562096
412.696930	1206.026001	10155.649414	9045.195313	87.592171
413.058685	1244.709839	10237.568359	8990.583008	86.133606
413.420410	1183.270874	10141.996094	9031.541992	87.604767
413.782104	1210.577026	10351.343750	9190.828125	87.303955
414.143707	1208.301514	10217.088867	9181.726563	88.507195
414.505310	1224.230225	10294.456055	8976.929688	85.474159
414.866852	1203.750488	10442.365234	9095.256836	85.418716
415.228394	1237.883301	10594.825195	9286.400391	86.016541
415.589874	1208.301514	10838.305664	9523.054688	86.342155
415.951324	1217.403687	11122.746094	9725.576172	85.894783
416.312683	1224.230225	11279.756836	10037.322266	87.644264
416.674072	1208.301514	11368.501953	10346.792969	89.944008
417.035370	1178.719727	11784.921875	10626.682617	89.079605
417.396667	1215.128052	11905.524414	10444.640625	86.334618
417.757935	1290.220337	12092.117188	10776.866211	87.823891
418.119141	1294.771362	12731.539063	11095.439453	85.694389
418.480286	1183.270874	12881.723633	11523.237305	88.387474
418.841400	1228.781250	13366.409180	12096.668945	89.538811
419.202484	1244.709839	13887.503906	12096.668945	85.835136
419.563568	1249.260864	14388.118164	12645.069336	86.733635
419.924591	1203.750488	15157.244141	13684.982422	89.448799
420.285553	1262.914063	15409.827148	13810.135742	88.692291
420.646484	1244.709839	16210.810547	14326.678711	87.410667
421.007355	1256.087524	16884.365234	15013.886719	88.031448
421.368225	1219.679199	17639.837891	15707.919922	88.234474
421.729065	1297.046875	18115.421875	15994.635742	87.390068
422.089874	1267.465088	18518.187500	16356.443359	87.468674
422.450592	1262.914063	18575.076172	16504.351563	88.038902
422.811279	1210.577026	18636.515625	16499.800781	87.738304
423.171936	1210.577026	18238.298828	15787.563477	85.607376
423.532593	1246.985352	17846.910156	16040.146484	89.115829
423.893127	1201.474976	18108.593750	16213.085938	88.788704
424.253723	1162.791138	18716.158203	16563.515625	87.736580
424.614197	1233.332275	18522.740234	16506.626953	88.339027
424.974670	1233.332275	18982.394531	16886.640625	88.192314
425.335052	1333.455200	19421.570313	17298.509766	88.262680
425.695496	1183.270874	18304.289063	16160.749023	87.480072
426.055817	1183.270874	18718.433594	16520.281250	87.464325
426.416168	1226.505737	18079.013672	16322.310547	89.576012
426.776398	1192.372925	17391.804688	15587.317383	88.860802
427.136627	1190.097412	16711.423828	15029.814453	89.165817
427.496826	1233.332275	16417.882813	14715.792969	88.790649
427.856995	1174.168701	15971.880859	13889.779297	85.929573
428.217102	1262.914063	15259.642578	13609.889648	88.213295
428.577179	1306.148926	15261.917969	13732.767578	89.042877
428.937195	1221.954712	14916.039063	12988.672852	85.925552
429.297180	1262.914063	14328.954102	12747.467773	87.896210
429.657135	1315.250977	14472.312500	12729.263672	86.751991
430.017059	1210.577026	14540.578125	12949.989258	88.067604
430.376984	1226.505737	14297.097656	12656.446289	87.447762
430.736786	1224.230225	13944.391602	12613.211914	89.534882
431.096588	1249.260864	14074.095703	12319.669922	86.320091
431.456360	1208.301514	14046.790039	12588.180664	88.638779
431.816071	1253.812012	13596.236328	12310.567383	89.583344
432.175781	1171.893188	13821.513672	12390.210938	88.685013
432.535400	1249.260864	13653.125000	12196.791016	88.259033
432.895020	1219.679199	13844.268555	12228.648438	87.202583
433.254578	1276.567139	14096.851563	12467.578125	87.291443
433.614105	1185.546387	14256.137695	12656.446289	87.761139
433.973602	1185.546387	14367.638672	12981.845703	89.487305
434.333038	1231.056763	14620.220703	12895.375977	87.117607
434.692444	1308.424438	14567.883789	13059.213867	88.621933
435.051819	1215.128052	14797.711914	13302.694336	88.993126
435.411133	1208.301514	14984.304688	13264.010742	87.512390
435.770416	1153.689087	14404.046875	12410.690430	84.956207
436.129669	1224.230225	14797.711914	13264.010742	88.700752
436.488861	1210.577026	14413.148438	12990.948242	89.227852
436.848083	1158.240112	14467.761719	12868.070313	87.980850
437.207184	1212.852539	14633.874023	13047.835938	88.182434
437.566254	1194.648438	15009.334961	13111.550781	86.262558
437.925293	1210.577026	14615.669922	13084.244141	88.575790
438.284363	1228.781250	14820.466797	13382.337891	89.419052
438.643311	1206.026001	15284.672852	13498.389648	87.312111
439.002258	1292.495850	15327.908203	13550.726563	87.337875
439.361145	1253.812012	15434.857422	13885.227539	89.072533
439.719971	1306.148926	16260.872070	14415.423828	87.659767
440.078827	1224.230225	16556.689453	14501.894531	86.598396
440.437592	1212.852539	16693.220703	14895.559570	88.387482
440.796295	1269.740601	17098.263672	15084.427734	87.277168
441.155029	1258.363037	18181.412109	15940.023438	86.755409
441.513672	1249.260864	18613.759766	16370.096680	87.079025
441.872253	1194.648438	18415.789063	16115.238281	86.641121
442.230865	1256.087524	17997.093750	16097.034180	88.650269
442.589386	1269.740601	17762.714844	15992.360352	89.266006
442.947876	1153.689087	17644.388672	15457.613281	86.739342
443.306335	1281.118164	17362.224609	15418.928711	87.915657
443.664764	1251.536499	16515.730469	14638.425781	87.701256
444.023102	1237.883301	16918.498047	14963.825195	87.534454
444.381500	1212.852539	16902.568359	14777.232422	86.453957
444.739777	1210.577026	16718.251953	14847.773438	87.938370
445.098022	1210.577026	17025.447266	15421.204102	89.856110
445.456238	1244.709839	17293.958984	14922.865234	85.226135
445.814423	1244.709839	17737.685547	15705.644531	87.679352
446.172577	1244.709839	18317.943359	16629.505859	90.110611
446.530701	1221.954712	19007.425781	16495.250000	85.875122
446.888733	1262.914063	19253.181641	17036.824219	87.680244
447.246765	1324.353149	20233.931641	17803.673828	87.148003
447.604736	1242.434326	19296.416016	17314.437500	89.021927
447.962677	1228.781250	19835.714844	17582.949219	87.892868
448.320587	1185.546387	20293.093750	17858.287109	87.257355
448.678436	1194.648438	19790.205078	17503.306641	87.701912
449.036255	1194.648438	19555.826172	17070.957031	86.466721
449.394043	1233.332275	18208.716797	16290.453125	88.699738
449.751770	1155.964600	18313.390625	16135.717773	87.307693
450.109467	1265.189575	18003.919922	15992.360352	87.982605
450.467163	1246.985352	17712.654297	15612.348633	87.244339
450.824768	1215.128052	17571.572266	15555.459961	87.673897
451.182343	1283.393677	17346.294922	15569.113281	88.936111
451.539886	1162.791138	16715.976563	14583.812500	86.291145
451.897369	1142.311401	16938.976563	15045.743164	88.014984
452.254822	1242.434326	16777.414063	14986.580078	88.472244
452.612274	1187.821899	17359.947266	15063.947266	85.802734
452.969635	1221.954712	17036.824219	14997.958008	87.107918
453.326965	1192.372925	17020.896484	15068.499023	87.665321
453.684326	1192.372925	16861.609375	14838.670898	87.089745
454.041534	1235.607788	16235.840820	14506.445313	88.470879
454.398773	1221.954712	16190.330078	14194.699219	86.667686
454.755951	1233.332275	15771.634766	13826.064453	86.617622
455.113098	1192.372925	15191.376953	13414.195313	87.304939
455.470215	1194.648438	15318.805664	13964.871094	90.414047
455.827240	1221.954712	15455.336914	13612.165039	87.050362
456.184265	1196.923950	14975.202148	13377.787109	88.406281
456.541260	1235.607788	15309.704102	13598.512695	87.841553
456.898193	1208.301514	15241.438477	13291.317383	86.103455
457.255096	1267.465088	15355.214844	13568.930664	87.320305
457.611969	1244.709839	15123.111328	13286.765625	86.768318
457.968781	1210.577026	15546.358398	13411.919922	85.111115
458.325531	1162.791138	15468.990234	13794.207031	88.293304
458.682312	1153.689087	16103.860352	14335.781250	88.173515
459.039001	1178.719727	17029.998047	14913.763672	86.649437
459.395630	1224.230225	18122.248047	15660.133789	85.429565
459.752289	1272.016113	19023.353516	16868.435547	87.860535
460.108856	1185.546387	20518.371094	18140.451172	87.700089
460.465363	1258.363037	21348.935547	18955.087891	88.084724
460.821899	1228.781250	21310.251953	19155.333984	89.269119
461.178345	1281.118164	20634.421875	18190.513672	87.372131
461.534760	1201.474976	20145.185547	18056.257813	88.972977
461.891144	1265.189575	19469.355469	17423.662109	88.762497
462.247467	1265.189575	18468.126953	16704.597656	89.748672
462.603760	1274.291626	18317.943359	15996.911133	86.381828
462.960052	1267.465088	17387.253906	15464.439453	88.071716
463.316254	1187.821899	16854.783203	14943.344727	87.799561
463.672424	1194.648438	16572.617188	14620.220703	87.303940
464.028564	1262.914063	16060.625977	14435.904297	89.020454
464.384644	1256.087524	16140.269531	14249.311523	87.295517
464.740723	1265.189575	16153.921875	14099.126953	86.198990
465.096741	1269.740601	16083.380859	13999.003906	85.929337
465.452698	1212.852539	15944.574219	14062.718750	87.225830
465.808655	1231.056763	16090.208008	14328.954102	88.147011
466.164520	1196.923950	15971.880859	14276.617188	88.526100
466.520355	1215.128052	16570.341797	14836.395508	88.707771
466.876190	1212.852539	16900.292969	14761.303711	86.364960
467.231964	1210.577026	16659.087891	14708.966797	87.376640
467.587677	1242.434326	17318.988281	15459.888672	88.435959
467.943390	1208.301514	17587.500000	15371.142578	86.468460
468.299011	1187.821899	16756.935547	14770.405273	87.240570
468.654633	1190.097412	16677.291016	14715.792969	87.334709
469.010223	1169.617676	16775.138672	15011.610352	88.699326
469.365723	1244.709839	16388.300781	14347.158203	86.521408
469.721191	1206.026001	16700.046875	14617.945313	86.561905
470.076660	1260.638550	15874.033203	14126.433594	88.041115
470.432068	1208.301514	16217.636719	14237.933594	86.810188
470.787445	1167.342163	15839.900391	14171.943359	88.632133
471.142792	1233.332275	15867.207031	14237.933594	88.866425
471.498016	1269.740601	16320.035156	14235.658203	86.150589
471.853271	1228.781250	16069.727539	14165.117188	87.166519
472.208496	1228.781250	16072.003906	14115.055664	86.815880
472.563660	1192.372925	16379.198242	14185.596680	85.555893
472.918762	1210.577026	16613.578125	14570.160156	86.733635
473.273865	1246.985352	16847.955078	15143.590820	89.075264
473.628876	1242.434326	17532.888672	15387.071289	86.827759
473.983917	1212.852539	17476.000000	15189.101563	85.938156
474.338837	1226.505737	17359.947266	15364.316406	87.630470
474.693787	1206.026001	17378.152344	15466.714844	88.180664
475.048645	1251.536499	17082.333984	15300.601563	88.745148
475.403503	1215.128052	17630.734375	15275.571289	85.652908
475.758270	1217.403687	17526.060547	15810.318359	89.479561
476.113037	1244.709839	17252.998047	15343.836914	88.073921
476.467773	1219.679199	17967.511719	15826.247070	87.214684
476.822418	1269.740601	18734.363281	16479.322266	87.087952
477.177063	1208.301514	18440.820313	16356.443359	87.904396
477.531647	1256.087524	19077.966797	16558.964844	85.865677
477.886200	1283.393677	19439.773438	17080.058594	87.003387
478.240723	1274.291626	19863.021484	17516.958984	87.379112
478.595184	1228.781250	19842.541016	17712.654297	88.557465
478.949585	1237.883301	20584.361328	17835.531250	85.791573
479.303986	1176.444214	20584.361328	18224.646484	87.841484
479.658325	1162.791138	21278.394531	18338.421875	85.384613
480.012634	1178.719727	21009.882813	18433.994141	87.010895
480.366913	1217.403687	21628.826172	18950.537109	86.878479
480.721130	1226.505737	22163.572266	19062.037109	85.186394
481.075317	1206.026001	22454.839844	19826.613281	87.631187
481.429474	1187.821899	23765.539063	20914.312500	87.371498
481.783569	1235.607788	24502.808594	21874.582031	88.704155
482.137604	1203.750488	25542.720703	22559.513672	87.743088
482.491669	1272.016113	28334.785156	24953.361328	87.505257
482.845612	1176.444214	30655.816406	26785.156250	86.869934
483.199554	1187.821899	34166.945313	30489.703125	88.849785
483.553436	1215.128052	40363.187500	35443.511719	87.433159
483.907318	1292.495850	47221.609375	42110.789063	88.872375
484.261139	1246.985352	53802.414063	47967.976563	88.898506
484.614899	1253.812012	56687.773438	50512.011719	88.859245
484.968628	1315.250977	56644.539063	51483.656250	90.672424
485.322357	1228.781250	54510.101563	48630.156250	88.964340
485.675964	1249.260864	51294.789063	45030.281250	87.482384
486.029572	1246.985352	47205.679688	41107.285156	86.730705
486.383148	1256.087524	43653.589844	38274.261719	87.312157
486.736694	1235.607788	41107.285156	36656.363281	88.836884
487.090149	1244.709839	41309.804688	36094.312500	86.982452
487.443604	1267.465088	42458.941406	36922.601563	86.559502
487.796997	1119.556274	43940.308594	38758.945313	87.899879
488.150360	1215.128052	45651.500000	40065.093750	87.428299
488.503693	1240.158813	46825.667969	40508.820313	86.142860
488.856964	1262.914063	45480.835938	39939.941406	87.469124
489.210175	1253.812012	43394.183594	38096.769531	87.429123
489.563416	1285.669312	40982.128906	35953.230469	87.331619
489.916565	1192.372925	38649.722656	33627.644531	86.592537
490.269653	1206.026001	36230.843750	31622.912109	86.843819
490.622772	1256.087524	34678.937500	30742.285156	88.221672
490.975769	1178.719727	34526.476563	30050.527344	86.577957
491.328735	1272.016113	36183.054688	31324.820313	86.083961
491.681732	1262.914063	38012.574219	33070.144531	86.551086
492.034607	1249.260864	40235.757813	35382.074219	87.550346
492.387482	1253.812012	40970.753906	36080.656250	87.687630
492.740326	1199.199463	40765.957031	35247.816406	86.053596
493.093079	1260.638550	38988.773438	33791.484375	86.224365
493.445862	1228.781250	35231.886719	31035.828125	87.659775
493.798523	1215.128052	32874.449219	28778.511719	87.062462
494.151215	1217.403687	30460.121094	26543.949219	86.608040
494.503815	1240.158813	27938.843750	24414.062500	86.797920
494.856384	1233.332275	26607.664063	23160.250000	86.413773
495.208923	1217.403687	25504.037109	22097.582031	85.973953
495.561432	1199.199463	24748.564453	21362.589844	85.621803
495.913879	1217.403687	24127.347656	21362.589844	87.932060
496.266296	1274.291626	24402.685547	21501.396484	87.455727
496.618683	1265.189575	24507.359375	21212.404297	85.823380
496.970978	1221.954712	25073.962891	21883.683594	86.624695
497.323273	1219.679199	25228.699219	21865.478516	85.991844
497.675507	1249.260864	25574.578125	22361.542969	86.791397
498.027710	1256.087524	25626.916016	21904.164063	84.724556
498.379852	1272.016113	25340.199219	21949.673828	85.912834
498.731995	1265.189575	24750.839844	21826.794922	87.549652
499.084076	1256.087524	24982.943359	21007.607422	83.245415
499.436096	1231.056763	23988.541016	20902.933594	86.441353
499.788086	1226.505737	23685.896484	20677.658203	86.605881
500.140106	1237.883301	23103.363281	20279.441406	87.085022
500.491943	1231.056763	22491.248047	19719.664063	86.963501
500.843842	1260.638550	22500.349609	19608.162109	86.383110
501.195679	1235.607788	21735.775391	18886.822266	86.102783
501.547455	1206.026001	21428.580078	18875.445313	87.374817
501.899231	1283.393677	21314.802734	18732.087891	87.106674
502.250885	1190.097412	21396.722656	18361.177734	84.977478
502.602600	1228.781250	21139.587891	18586.453125	87.177139
502.954193	1194.648438	20973.474609	18224.646484	86.102165
503.305786	1228.781250	21130.486328	18210.992188	85.330429
503.657379	1212.852539	21123.660156	18129.074219	84.959999
504.008820	1276.567139	21389.896484	18261.054688	84.443939
504.360291	1221.954712	21594.693359	18625.138672	85.423882
504.711700	1233.332275	21694.814453	18581.902344	84.786476
505.063080	1208.301514	21781.285156	18807.179688	85.543633
505.414368	1269.740601	21435.406250	18668.373047	86.278496
505.765656	1194.648438	21301.150391	18843.587891	87.777275
506.116943	1169.617676	21351.210938	18529.566406	86.018723
506.468109	1210.577026	21337.558594	18261.054688	84.714531
506.819305	1242.434326	21187.375000	18292.912109	85.487732
507.170410	1242.434326	21155.517578	18179.134766	85.053131
507.521484	1237.883301	21219.232422	18440.820313	86.094971
507.872559	1278.842651	21373.966797	18342.972656	84.916771
508.223480	1251.536499	21260.191406	18381.656250	85.613548
508.574493	1244.709839	21697.091797	18404.412109	83.900749
508.925385	1196.923950	22113.511719	19221.324219	86.172760
509.276245	1228.781250	22090.755859	19257.732422	86.420158
509.627045	1183.270874	22559.513672	19487.560547	85.629128
509.977814	1215.128052	22600.472656	19690.082031	86.390724
510.328613	1190.097412	22757.484375	19437.498047	84.606453
510.679260	1199.199463	23014.617188	20020.031250	86.273079
511.029999	1251.536499	23526.609375	19612.712891	82.429253
511.380585	1265.189575	23458.343750	20231.656250	85.460892
511.731140	1192.372925	23424.210938	20336.330078	86.110550
512.081726	1233.332275	23965.785156	20550.228516	84.974976
512.432129	1315.250977	24143.275391	21087.251953	86.612846
512.782654	1226.505737	24102.316406	20748.199219	85.337715
513.133057	1224.230225	24307.113281	21178.271484	86.445183
513.483398	1221.954712	23981.712891	20741.373047	85.762856
513.833801	1183.270874	24307.113281	20752.750000	84.629013
514.183960	1167.342163	23760.988281	20447.830078	85.335884
514.534302	1190.097412	23724.580078	20202.074219	84.368378
514.884460	1281.118164	23811.048828	20406.871094	84.890427
515.234619	1228.781250	23453.792969	20354.533203	86.055084
515.584717	1210.577026	23474.273438	20309.023438	85.782913
515.934753	1158.240112	23328.638672	20324.951172	86.451813
516.284851	1290.220337	23355.945313	20101.951172	85.253174
516.634766	1237.883301	23799.671875	20541.126953	85.557243
516.984741	1174.168701	24238.847656	20871.076172	85.398575
517.334595	1242.434326	24837.308594	21353.486328	85.234833
517.684448	1260.638550	25847.640625	22197.705078	85.155022
518.034363	1244.709839	26798.808594	22955.453125	84.959923
518.384094	1208.301514	28100.406250	23872.488281	84.278221
518.733826	1219.679199	28753.480469	24648.441406	85.090912
519.083496	1228.781250	29606.800781	25606.435547	85.903297
519.433167	1183.270874	29709.199219	25795.304688	86.279518
519.782776	1221.954712	29913.996094	25479.005859	84.542786
520.132324	1269.740601	29586.322266	25208.218750	84.538727
520.481873	1206.026001	28940.074219	24687.125000	84.665245
520.831299	1294.771362	27906.986328	24181.958984	86.002563
521.180786	1244.709839	27112.830078	23385.527344	85.591133
521.530151	1251.536499	26903.482422	23237.619141	85.709221
521.879517	1285.669312	26334.601563	22709.697266	85.528709
522.228882	1244.709839	26427.898438	22700.595703	85.199242
522.578064	1294.771362	26198.070313	22407.052734	84.777046
522.927307	1272.016113	25938.662109	22507.175781	86.088554
523.276489	1228.781250	26025.130859	22775.687500	86.895477
523.625610	1303.873413	26389.214844	22240.939453	83.463348
523.974792	1328.904175	26837.492188	23051.025391	85.156113
524.323792	1262.914063	27101.453125	23551.640625	86.261559
524.672852	1221.954712	27763.628906	23822.427734	85.150894
525.021790	1194.648438	28833.125000	24891.921875	85.740158
525.370728	1299.322388	29977.710938	25879.498047	85.709755
525.719604	1260.638550	31652.494141	26842.042969	84.171906
526.068420	1342.557251	33436.503906	28992.410156	86.152863
526.417297	1208.301514	35222.785156	29731.955078	83.857376
526.765991	1297.046875	35812.144531	30699.050781	85.185921
527.114746	1210.577026	36704.152344	31695.728516	85.889214
527.463379	1155.964600	37471.000000	32737.917969	86.966606
527.812012	1194.648438	39951.320313	34647.078125	86.313988
528.160706	1210.577026	43264.476563	37496.031250	86.283211
528.509155	1285.669312	48015.765625	41655.683594	86.389755
528.857727	1265.189575	52737.468750	45813.058594	86.547302
529.206177	1199.199463	55773.015625	49731.507813	88.929657
529.554565	1260.638550	56462.496094	50086.488281	88.449654
529.902893	1196.923950	55342.941406	48379.847656	87.140152
530.251221	1251.536499	53037.839844	45719.765625	85.868706
530.599548	1231.056763	49765.640625	42472.597656	84.973511
530.947876	1224.230225	45637.843750	39004.703125	85.065071
531.296021	1265.189575	41912.816406	36210.363281	85.971008
531.644165	1219.679199	39041.109375	33482.011719	85.301727
531.992249	1249.260864	37530.164063	31895.974609	84.470650
532.340454	1228.781250	36483.425781	31085.890625	84.689857
532.688354	1190.097412	36956.734375	31427.218750	84.540016
533.036438	1256.087524	37571.125000	31650.218750	83.695709
533.384338	1258.363037	39669.152344	33875.679688	84.917068
533.732239	1246.985352	41514.601563	35325.183594	84.629295
534.080139	1144.586914	42859.433594	36406.058594	84.529785
534.427917	1137.760376	41603.347656	35730.226563	85.486130
534.775757	1226.505737	40201.625000	34465.039063	85.281418
535.123474	1194.648438	38244.679688	32585.457031	84.725456
535.471191	1256.087524	36428.812500	30735.458984	83.813156
535.818848	1201.474976	34788.160156	29513.503906	84.295403
536.166382	1283.393677	33909.812500	28348.437500	82.954384
536.513977	1262.914063	33718.667969	28962.828125	85.346695
536.861511	1185.546387	34191.976563	29367.871094	85.384346
537.208984	1253.812012	34292.097656	29047.023438	84.124252
537.556396	1297.046875	33857.472656	29037.921875	85.198135
537.903809	1224.230225	33086.074219	28016.212891	84.087982
538.251160	1269.740601	32189.517578	27640.751953	85.288490
538.598389	1235.607788	31019.900391	26386.939453	84.444954
538.945740	1256.087524	30071.007813	25642.843750	84.632393
539.292969	1160.515625	29766.087891	24912.402344	83.032379
539.640137	1246.985352	29474.820313	25083.066406	84.441765
539.987244	1240.158813	29672.791016	25210.494141	84.305717
540.334351	1212.852539	30328.140625	26154.835938	85.666275
540.681458	1226.505737	31845.914063	27369.964844	85.381989
541.028442	1203.750488	34333.058594	29529.433594	85.500374
541.375366	1228.781250	37848.738281	32769.773438	86.130608
541.722290	1169.617676	41000.332031	35691.542969	86.671623
542.069153	1217.403687	43325.917969	37081.886719	85.171570
542.416016	1178.719727	43712.753906	37150.152344	84.570938
542.762756	1265.189575	42518.105469	36820.203125	86.187881
543.109558	1312.975464	40963.925781	35457.164063	86.111908
543.456299	1269.740601	39225.425781	33884.781250	85.929268
543.802917	1160.515625	37935.207031	32144.007813	84.252213
544.149536	1187.821899	36151.199219	30878.816406	84.920265
544.496094	1192.372925	33750.523438	28903.666016	85.113228
544.842651	1269.740601	32203.169922	27379.066406	84.404884
545.189148	1324.353149	30630.785156	26384.664063	85.511299
545.535583	1242.434326	29820.699219	25754.343750	85.771164
545.882019	1210.577026	28949.175781	24734.910156	84.807213
546.228333	1215.128052	28211.906250	24425.439453	85.974373
546.574707	1199.199463	27859.201172	24666.644531	88.024918
546.920898	1201.474976	28211.906250	24448.195313	86.065712
547.267212	1180.995239	28573.714844	24457.296875	84.972580
547.613342	1231.056763	27904.710938	24398.134766	86.853783
547.959473	1176.444214	27656.679688	24043.152344	86.353874
548.305664	1153.689087	27171.994141	23449.242188	85.691795
548.651611	1242.434326	25813.507813	22682.390625	87.256897
548.997742	1206.026001	25262.832031	21562.835938	84.619751
549.343689	1178.719727	23729.130859	20447.830078	85.449043
549.689575	1199.199463	23246.720703	19649.123047	83.682533
550.035522	1183.270874	22370.644531	19014.251953	84.158524
550.381287	1208.301514	21599.244141	18889.097656	86.709068
550.727173	1226.505737	21398.998047	18190.513672	84.094757
551.072876	1290.220337	20659.453125	17669.419922	84.562973
551.418640	1231.056763	20716.341797	17380.427734	82.879829
551.764282	1217.403687	20227.103516	17428.212891	85.276520
552.109863	1283.393677	20636.697266	17489.652344	83.738983
552.455505	1297.046875	20677.658203	17532.888672	83.773628
552.801025	1246.985352	21344.384766	17628.458984	81.510422
553.146545	1267.465088	21355.763672	18172.308594	84.152687
553.491943	1196.923950	21428.580078	18313.390625	84.602402
553.837341	1267.465088	21571.937500	18258.779297	83.682617
554.182800	1251.536499	21273.843750	18042.603516	83.861801
554.528015	1228.781250	20893.832031	17826.429688	84.401756
554.873352	1251.536499	20643.525391	17321.263672	82.867867
555.218628	1244.709839	20445.554688	17216.589844	83.183212
555.563721	1253.812012	20092.849609	16932.150391	83.222610
555.908875	1208.301514	19371.507813	16606.750000	84.778244
556.254028	1237.883301	19351.029297	16449.740234	83.982414
556.599121	1244.709839	19316.896484	16222.187500	82.875839
556.944031	1226.505737	18870.894531	15880.859375	83.053902
557.289063	1206.026001	18898.201172	16078.830078	84.064301
557.633972	1276.567139	18704.781250	15717.022461	82.856766
557.978882	1215.128052	18579.626953	15605.521484	82.872498
558.323792	1176.444214	18552.320313	15541.806641	82.674171
558.668518	1274.291626	18381.656250	15496.296875	83.133812
559.013306	1272.016113	18038.052734	15259.642578	83.428345
559.358032	1180.995239	18097.216797	15498.572266	84.638153
559.702637	1276.567139	18131.349609	15268.744141	83.016060
560.047363	1260.638550	18115.421875	15273.295898	83.137573
560.391846	1237.883301	18299.738281	15375.694336	82.862091
560.736450	1201.474976	18058.533203	15302.876953	83.652802
561.080933	1187.821899	18140.451172	15418.928711	83.946312
561.425354	1219.679199	18156.380859	15439.408203	83.958076
561.769775	1235.607788	18195.064453	15573.664063	84.543137
562.114136	1265.189575	18600.107422	15589.592773	82.633232
562.458496	1187.821899	18479.503906	15585.041992	83.260956
562.802673	1242.434326	18534.117188	15787.563477	84.116325
563.146912	1201.474976	18347.523438	15311.979492	82.295959
563.491150	1183.270874	17899.246094	15255.091797	84.181877
563.835266	1217.403687	17983.441406	15487.194336	85.111290
564.179443	1326.628662	18170.033203	15150.417969	82.072418
564.523438	1212.852539	18201.890625	15209.581055	82.386818
564.867493	1235.607788	18222.371094	15373.418945	83.228401
565.211426	1231.056763	18454.474609	15767.083984	84.396881
565.555359	1240.158813	18993.771484	15480.368164	80.210205
565.899231	1285.669312	19102.998047	16090.208008	83.090683
566.243042	1269.740601	19667.326172	16583.996094	83.240570
566.586914	1233.332275	20106.501953	16700.046875	81.950806
566.930603	1160.515625	20638.974609	17070.957031	81.682236
567.274292	1260.638550	20529.748047	17177.906250	82.605103
567.617981	1233.332275	20252.134766	17403.183594	85.020348
567.961609	1299.322388	20397.767578	16934.425781	81.865845
568.305237	1183.270874	19594.509766	16681.843750	84.179962
568.648682	1240.158813	19933.562500	16329.137695	80.718193
568.992188	1265.189575	19082.517578	16194.881836	83.793106
569.335632	1226.505737	19073.416016	16037.871094	82.991203
569.679016	1235.607788	18725.259766	16042.421875	84.660431
570.022461	1262.914063	19105.273438	15748.879883	81.188622
570.365662	1228.781250	19027.904297	16178.953125	83.993866
570.708984	1194.648438	19184.916016	15849.001953	81.457115
571.052185	1237.883301	19114.375000	15928.645508	82.179222
571.395386	1178.719727	19332.824219	16367.821289	83.667587
571.738525	1278.842651	19913.082031	16518.005859	81.780434
572.081604	1219.679199	20215.726563	16832.027344	82.187347
572.424683	1303.873413	20145.185547	17264.376953	84.710152
572.767578	1246.985352	20814.189453	17378.152344	82.439819
573.110596	1267.465088	20488.789063	17168.804688	82.727600
573.453552	1194.648438	20302.197266	17132.396484	83.410744
573.796387	1278.842651	20283.992188	17000.416016	82.722702
574.139282	1278.842651	20222.552734	16725.078125	81.537537
574.481995	1196.923950	19767.449219	16365.545898	81.681168
574.824768	1176.444214	19728.765625	16372.372070	81.908493
575.167480	1228.781250	19815.234375	16654.537109	82.994621
575.510132	1251.536499	19555.826172	16597.648438	83.838890
575.852722	1235.607788	19869.847656	16497.525391	81.902550
576.195251	1208.301514	19560.376953	16219.912109	81.797890
576.537842	1235.607788	19417.019531	16415.607422	83.491867
576.880188	1201.474976	19164.435547	15860.379883	81.606285
577.222717	1158.240112	18618.310547	15744.328125	83.539688
577.565063	1190.097412	18272.431641	15293.775391	82.562943
577.907410	1219.679199	17908.349609	15152.693359	83.487862
578.249756	1233.332275	17419.111328	14868.252930	84.240128
578.591919	1260.638550	17080.058594	14187.872070	81.717491
578.934204	1219.679199	16841.128906	14267.515625	83.525131
579.276306	1201.474976	16558.964844	13971.697266	83.153061
579.618469	1242.434326	16244.943359	13639.471680	82.633095
579.960571	1297.046875	15826.247070	13566.655273	84.447929
580.302551	1269.740601	15801.216797	13061.489258	81.146255
580.644531	1221.954712	15691.991211	13195.745117	82.748863
580.986511	1281.118164	15348.387695	12886.274414	82.497574
581.328369	1217.403687	15389.347656	13127.479492	84.039818
581.670227	1217.403687	15102.631836	12788.426758	83.333328
582.012024	1231.056763	15157.244141	12883.999023	83.676476
582.353821	1231.056763	15107.182617	12722.436523	82.814034
582.695496	1208.301514	14972.926758	12540.395508	82.327660
583.037231	1174.168701	14629.323242	12494.884766	84.136650
583.378845	1287.944824	14911.488281	12494.884766	82.261566
583.720398	1319.802124	14815.916016	12556.324219	83.257462
584.062012	1258.363037	14793.161133	12212.719727	80.934761
584.403442	1185.546387	14977.477539	12456.201172	81.719185
584.744934	1240.158813	14617.945313	12183.138672	81.799629
585.086365	1215.128052	14627.047852	12242.301758	82.219208
585.427734	1244.709839	14476.863281	12185.414063	82.682716
585.768982	1265.189575	14397.219727	12237.750977	83.555710
586.110291	1180.995239	14349.434570	12271.883789	84.223259
586.451599	1237.883301	14235.658203	12130.801758	83.806015
586.792725	1269.740601	14513.271484	12333.322266	83.539520
587.133850	1199.199463	14215.178711	11996.545898	82.954544
587.474915	1278.842651	14331.230469	12076.188477	82.723145
587.815979	1187.821899	14333.505859	12374.282227	85.096069
588.157043	1180.995239	14536.027344	12346.975586	83.608788
588.497925	1194.648438	14704.415039	12474.405273	83.493347
588.838867	1240.158813	14526.924805	12265.056641	82.976532
589.179749	1269.740601	14745.375000	12346.975586	82.201958
589.520569	1169.617676	14966.100586	12590.457031	82.780807
589.861450	1208.301514	15218.683594	12604.109375	81.338310
590.202087	1194.648438	15129.937500	12617.762695	81.972565
590.542847	1192.372925	15143.590820	12729.263672	82.694504
590.883484	1228.781250	15111.733398	12535.843750	81.445663
591.224121	1260.638550	15088.978516	12419.792969	80.697716
591.564636	1258.363037	14982.029297	12595.007813	82.606529
591.905151	1242.434326	14945.621094	12551.772461	82.530716
592.245667	1260.638550	14615.669922	12492.609375	84.102913
592.585999	1206.026001	14647.527344	12219.546875	81.936684
592.926453	1267.465088	14476.863281	12185.414063	82.652885
593.266724	1274.291626	14485.965820	12283.261719	83.327591
593.607056	1215.128052	14768.129883	11962.413086	79.298187
593.947388	1221.954712	14495.067383	11900.973633	80.456024
594.287476	1283.393677	14727.170898	12260.505859	81.651993
594.627686	1208.301514	14795.436523	12435.720703	82.632721
594.967773	1221.954712	15052.570313	12574.528320	82.082924
595.307861	1276.567139	15405.275391	12852.141602	81.929459
595.647888	1212.852539	15077.600586	12815.733398	83.686203
595.987854	1278.842651	15760.256836	12733.814453	79.101196
596.327820	1258.363037	15521.327148	12824.834961	81.094444
596.667725	1276.567139	16058.350586	13405.092773	82.050491
597.007568	1206.026001	16597.648438	13844.268555	82.111176
597.347351	1240.158813	17246.171875	14219.729492	81.091843
597.687073	1165.066650	17633.009766	14533.750977	81.180046
598.026794	1169.617676	17428.212891	14415.423828	81.469559
598.366455	1258.363037	17225.693359	14094.576172	80.390480
598.706116	1246.985352	16659.087891	13566.655273	79.935036
599.045654	1217.403687	16433.810547	13393.715820	80.020943
599.385193	1135.484863	15521.327148	12918.131836	81.904465
599.724731	1235.607788	15032.090820	12538.119141	81.923134
600.064087	1203.750488	14451.833008	12221.822266	83.167297
600.403564	1258.363037	14035.412109	11878.218750	83.116653
600.742920	1246.985352	14249.311523	11687.075195	80.294014
601.082153	1242.434326	14092.300781	11618.809570	80.750839
601.421387	1228.781250	13903.431641	11641.564453	82.154404
601.760620	1210.577026	14033.136719	11630.186523	81.259979
602.099854	1237.883301	14115.055664	11514.135742	79.802086
602.438843	1219.679199	14101.402344	11637.013672	80.869102
602.778015	1190.097412	14105.953125	11921.453125	83.086678
603.117065	1183.270874	14510.996094	11821.330078	79.819016
603.456055	1196.923950	15002.508789	12394.761719	81.110924
603.794983	1253.812012	15191.376953	12667.824219	81.893875
604.133850	1180.995239	16033.319336	13127.479492	80.435120
604.472778	1180.995239	16367.821289	13386.888672	80.371590
604.811584	1201.474976	16850.232422	13867.023438	80.936447
605.150330	1176.444214	17264.376953	14470.037109	82.630836
605.489075	1251.536499	17717.205078	14360.811523	79.615814
605.827698	1183.270874	17455.519531	14297.097656	80.590134
606.166382	1237.883301	17282.580078	14030.861328	79.733376
606.504883	1249.260864	16568.066406	13771.452148	81.743912
606.843445	1194.648438	16251.769531	13270.836914	80.202507
607.181946	1244.709839	15805.767578	13054.663086	81.106422
607.520386	1206.026001	15211.856445	12674.650391	81.884644
607.858826	1196.923950	14754.476563	12123.974609	80.597519
608.197083	1240.158813	14683.935547	12012.474609	80.128639
608.535461	1265.189575	14390.393555	11853.187500	80.669205
608.873718	1258.363037	14490.516602	11980.617188	81.031815
609.211914	1215.128052	14654.353516	12048.882813	80.612938
609.550171	1212.852539	14966.100586	12556.324219	82.478493
609.888245	1315.250977	15398.449219	12872.621094	82.064957
610.226318	1244.709839	15892.237305	13102.449219	80.953865
610.564392	1206.026001	15616.899414	13172.990234	83.041214
610.902344	1269.740601	15712.470703	13607.614258	85.426186
611.240295	1274.291626	15393.898438	13434.674805	86.124092
611.578247	1285.669312	15184.550781	13543.899414	88.195801
611.916138	1315.250977	14997.958008	13270.836914	87.377342
612.253845	1235.607788	14447.281250	12840.763672	87.840164
612.591675	1233.332275	14224.280273	12463.027344	86.442459
612.929382	1258.363037	13848.819336	12092.117188	86.047348
613.267090	1237.883301	13393.715820	11536.890625	84.724831
613.604736	1256.087524	13425.572266	11320.715820	82.703819
613.942261	1256.087524	12940.886719	11259.277344	85.608574
614.279785	1219.679199	12954.540039	11186.459961	84.933098
614.617310	1187.821899	12660.998047	10915.672852	84.787773
614.954712	1224.230225	12492.609375	10603.926758	83.239090
615.292175	1237.883301	12472.129883	10526.559570	82.681793
615.629517	1258.363037	12672.375000	10430.987305	80.362839
615.966797	1287.944824	12451.649414	10378.650391	81.430893
616.304138	1278.842651	12551.772461	10351.343750	80.480415
616.641296	1153.689087	12285.537109	10562.967773	84.525757
616.978516	1178.719727	12292.363281	10335.415039	82.391479
617.315552	1267.465088	12192.240234	10296.731445	82.649452
617.652771	1219.679199	12267.333008	10410.507813	83.192574
617.989685	1219.679199	12510.813477	10492.426758	82.124146
618.326721	1203.750488	12494.884766	10212.537109	79.786377
618.663696	1310.699951	12638.242188	10310.384766	79.449577
619.000549	1233.332275	12331.046875	10153.374023	80.377289
619.337463	1203.750488	12647.344727	10426.436523	80.592560
619.674194	1267.465088	12258.230469	10287.629883	82.070396
620.010986	1185.546387	12155.832031	10053.250977	80.833862
620.347778	1203.750488	12333.322266	10151.098633	80.392555
620.684387	1224.230225	12133.077148	10087.383789	81.247391
621.020996	1260.638550	11912.351563	9950.852539	81.585129
621.357605	1258.363037	12167.209961	9923.545898	79.432617
621.694214	1240.158813	11921.453125	9864.382813	80.741379
622.030579	1208.301514	11882.769531	9918.995117	81.603073
622.367065	1146.862427	11898.698242	9800.667969	80.486771
622.703430	1215.128052	11898.698242	9782.463867	80.191696
623.039795	1208.301514	11839.535156	9925.821289	81.999138
623.376160	1224.230225	11682.523438	9841.627930	82.397743
623.712402	1199.199463	11536.890625	9589.044922	81.157829
624.048645	1196.923950	11666.594727	9780.188477	81.982185
624.384766	1253.812012	11693.901367	9559.462891	79.555351
624.720886	1260.638550	11885.044922	9673.239258	79.181839
625.057007	1319.802124	11987.443359	9807.495117	79.564850
625.392944	1299.322388	11871.391602	9711.922852	79.573830
625.729004	1231.056763	11807.677734	9632.279297	79.432007
626.064941	1278.842651	12030.678711	10073.730469	81.798943
626.400818	1221.954712	12187.689453	10171.578125	81.614441
626.736633	1272.016113	12351.527344	10080.557617	79.502968
627.072449	1162.791138	12845.314453	10535.661133	80.229843
627.408264	1210.577026	12954.540039	10701.774414	80.817673
627.743896	1199.199463	12758.844727	10904.295898	83.956696
628.079590	1199.199463	12956.815430	10353.620117	77.859497
628.415161	1269.740601	13015.978516	10442.365234	78.089897
628.750793	1256.087524	12460.751953	10355.895508	81.214462
629.086365	1251.536499	12437.997070	10239.843750	80.349876
629.421753	1253.812012	12326.496094	10089.659180	79.798607
629.757263	1278.842651	12164.934570	9966.781250	79.807693
630.092651	1215.128052	11784.921875	9975.882813	82.884819
630.427917	1249.260864	11602.880859	9670.963867	81.340660
630.763184	1272.016113	11361.675781	9600.421875	82.543968
631.098511	1224.230225	11643.839844	9518.503906	79.602539
631.433716	1308.424438	11336.644531	9272.747070	79.419106
631.768799	1224.230225	11122.746094	9397.901367	82.574715
632.103943	1201.474976	11077.235352	9047.470703	79.446999
632.438965	1240.158813	11131.847656	9249.992188	80.975395
632.773987	1249.260864	10638.059570	9165.797852	84.318954
633.109070	1231.056763	10774.590820	8763.030273	78.922272
633.443848	1192.372925	10997.591797	8799.438477	77.581802
633.778870	1258.363037	10876.989258	8844.949219	78.873909
634.113708	1226.505737	10867.887695	9054.296875	81.189514
634.448425	1272.016113	10876.989258	9052.021484	80.999763
634.783264	1251.536499	10997.591797	8992.858398	79.430305
635.117859	1267.465088	10888.367188	9140.766602	81.835381
635.452576	1215.128052	10929.326172	9008.787109	80.229568
635.787170	1160.515625	10583.447266	8774.408203	80.801735
636.121704	1203.750488	10567.518555	8760.754883	80.704742
636.456177	1272.016113	10494.702148	8656.081055	80.064148
636.790588	1228.781250	10544.763672	8510.448242	78.163170
637.125122	1210.577026	10041.873047	8460.386719	82.092247
637.459412	1183.270874	9973.607422	8312.477539	81.102768
637.793762	1251.536499	10244.394531	8198.701172	77.252014
638.128052	1226.505737	9916.719727	8403.498047	82.587059
638.462280	1201.474976	9684.616211	8109.956055	81.437767
638.796509	1135.484863	9766.535156	8123.609375	80.964935
639.130615	1212.852539	9677.790039	8212.354492	82.688171
639.464722	1253.812012	9809.770508	7971.149414	78.510628
639.798767	1242.434326	9498.023438	8018.935547	82.083801
640.132751	1219.679199	9666.412109	7973.424805	79.956902
640.466736	1258.363037	9589.044922	7800.485352	78.530457
640.800598	1256.087524	9393.349609	7861.924316	81.180092
641.134521	1344.832764	9256.818359	7714.015625	80.500435
641.468262	1258.363037	9345.563477	7741.321777	80.163208
641.802063	1262.914063	9313.707031	7609.341797	78.829849
642.135803	1256.087524	9102.083008	7381.789551	78.074249
642.469421	1221.954712	8942.796875	7541.076172	81.844978
642.803101	1251.536499	9020.164063	7463.708008	79.964851
643.136658	1190.097412	9054.296875	7379.514160	78.703712
643.470215	1294.771362	9113.460938	7552.453613	80.034927
643.803711	1237.883301	8920.041992	7461.432617	81.013031
644.137085	1212.852539	8929.143555	7290.768555	78.767326
644.470581	1256.087524	8899.561523	7509.218750	81.810066
644.803833	1246.985352	9011.062500	7406.820313	79.337631
645.137207	1183.270874	8974.654297	7256.635742	77.949760
645.470459	1228.781250	8940.521484	7281.666504	78.489227
645.803589	1212.852539	8954.174805	7347.656738	79.247498
646.136780	1231.056763	8931.418945	7472.810547	81.057922
646.469849	1278.842651	8872.255859	7256.635742	78.723404
646.802979	1221.954712	8974.654297	7440.953125	80.217201
647.135986	1192.372925	9049.746094	7268.013672	77.324066
647.468994	1249.260864	9038.368164	7286.217773	77.505119
647.801941	1221.954712	8942.796875	7222.502930	77.718834
648.134766	1221.954712	9124.838867	7365.860840	77.742584
648.467651	1142.311401	9045.195313	7575.208984	81.399368
648.800354	1237.883301	8749.377930	7183.819336	79.157829
649.133179	1169.617676	8972.378906	7263.462402	78.098564
649.465881	1278.842651	8908.664063	7265.737793	78.467041
649.798462	1249.260864	8931.418945	7202.023438	77.488159
650.131104	1228.781250	8778.958984	7261.187012	79.897530
650.463623	1224.230225	8856.327148	7372.687500	80.560524
650.796143	1301.597900	8815.367188	7368.136230	80.738945
651.128662	1244.709839	8872.255859	7236.156250	78.550117
651.461060	1235.607788	8906.388672	7377.238281	80.065254
651.793396	1301.597900	9029.266602	7272.564453	77.267372
652.125732	1262.914063	8951.898438	7495.565430	81.059486
652.458008	1226.505737	8890.459961	7497.840820	81.828972
652.790222	1187.821899	8879.082031	7459.157227	81.538467
653.122437	1253.812012	9097.532227	7343.105469	77.632721
653.454529	1183.270874	8740.275391	7279.391113	80.668472
653.786621	1299.322388	8826.745117	7151.961914	77.750908
654.118713	1206.026001	8580.989258	7179.268066	80.993515
654.450623	1272.016113	8815.367188	7167.890625	78.159882
654.782654	1276.567139	8505.896484	7076.869629	80.232933
655.114502	1262.914063	8624.223633	7056.390137	78.701706
655.446350	1233.332275	8583.264648	7117.829102	80.061920
655.778198	1258.363037	8665.183594	6960.818359	76.989243
656.109863	1253.812012	8603.744141	6906.205566	76.904022
656.441650	1196.923950	8478.590820	6990.399902	79.562500
656.773254	1165.066650	8433.080078	6942.613770	79.492790
657.104919	1217.403687	8469.488281	6997.226563	79.698776
657.436462	1171.893188	8492.243164	6915.307617	78.458199
657.767944	1244.709839	8437.630859	7072.318848	81.018669
658.099548	1249.260864	8571.886719	7045.012207	79.148537
658.430908	1278.842651	8669.734375	7145.135254	79.371918
658.762268	1237.883301	8933.694336	7313.523926	78.947372
659.093628	1231.056763	9147.593750	7415.922363	78.125900
659.424927	1221.954712	9300.053711	7820.964844	81.690140
659.756226	1203.750488	9875.760742	7839.168945	76.515350
660.087341	1224.230225	9807.495117	8082.649902	79.904564
660.418518	1272.016113	9953.127930	8066.721191	78.269989
660.749573	1267.465088	9932.648438	8162.292969	79.569328
661.080627	1178.719727	9702.820313	8064.445801	80.779503
661.411621	1187.821899	9791.566406	7809.587402	76.963768
661.742554	1240.158813	9529.880859	7709.464355	78.040085
662.073547	1287.944824	9108.910156	7591.137207	80.593536
662.404297	1260.638550	9013.337891	7491.014648	80.363960
662.735229	1287.944824	8967.827148	7238.431641	77.481483
663.065979	1237.883301	8692.489258	7265.737793	80.860809
663.396667	1128.658325	8530.927734	6897.103516	77.928062
663.727417	1231.056763	8410.325195	6774.225586	77.210777
664.057922	1253.812012	8239.661133	6728.714844	78.371330
664.388611	1224.230225	7982.526855	6546.673340	78.754211
664.719116	1258.363037	7966.598145	6558.050781	79.002708
665.049622	1192.372925	8260.140625	6512.540527	75.273659
665.380005	1228.781250	7889.230469	6553.500000	79.945343
665.710388	1199.199463	7732.219727	6385.111328	79.380005
666.040771	1199.199463	7766.352539	6360.080566	78.586273
666.371033	1208.301514	7748.148438	6492.061035	80.793327
666.701294	1126.382813	7773.179199	6319.121094	78.123924
667.031555	1242.434326	7841.444824	6303.192383	76.689644
667.361633	1258.363037	7673.056152	6521.642578	82.050362
667.691772	1219.679199	7836.893555	6437.448242	78.851440
668.021790	1192.372925	7909.710449	6414.693359	77.743904
668.351807	1212.852539	7848.271484	6410.142090	78.326469
668.681763	1242.434326	7677.607422	6412.417480	80.339462
669.011719	1269.740601	7818.689453	6314.570313	77.032661
669.341614	1278.842651	8062.170410	6239.478027	73.129822
669.671387	1281.118164	7789.107910	6510.265137	80.349648
670.001221	1231.056763	7900.608398	6482.958984	78.744461
670.330933	1246.985352	7830.066895	6444.274902	78.949188
670.660583	1292.495850	7866.475586	6510.265137	79.370033
670.990173	1242.434326	7698.086914	6380.560547	79.591118
671.319763	1262.914063	7711.740234	6182.589844	76.287926
671.649292	1342.557251	7399.993652	6239.478027	80.841476
671.978821	1194.648438	7629.821289	6232.651367	78.288544
672.308289	1206.026001	7522.871582	6298.641602	80.619598
672.637695	1208.301514	7561.555664	6100.671387	77.005737
672.966980	1171.893188	7418.197754	6253.131348	81.347908
673.296326	1185.546387	7434.126465	6027.854492	77.494537
673.625610	1231.056763	7374.962891	6250.855469	81.703705
673.954773	1221.954712	7345.381348	5995.997070	77.963577
674.283936	1233.332275	7252.084961	5948.211426	78.336472
674.613037	1206.026001	7258.911133	5952.762207	78.421051
674.942078	1226.505737	7356.758789	5977.792969	77.505562
675.271118	1290.220337	7327.176758	6046.058594	78.778740
675.600098	1194.648438	7199.748047	5934.558105	78.931404
675.928955	1160.515625	7181.543457	5868.568359	78.193504
676.257813	1322.077637	6967.644531	5848.088379	80.169289
676.586670	1294.771362	7140.584473	5823.057617	77.462044
676.915466	1278.842651	7181.543457	5936.833984	78.912880
677.244141	1212.852539	7108.727051	5875.394531	79.081429
677.572876	1231.056763	7161.063965	5770.720703	76.554108
677.901489	1260.638550	7186.094727	5889.047852	78.110596
678.230042	1155.964600	7172.441406	5852.639648	78.063545
678.558594	1219.679199	7165.615234	5823.057617	77.420586
678.887085	1187.821899	7174.717285	5889.047852	78.525276
679.215515	1185.546387	7372.687500	5930.007324	76.682602
679.543945	1203.750488	7374.962891	6005.099609	77.802361
679.872253	1276.567139	7283.941895	6100.671387	80.303032
680.200562	1272.016113	7545.626953	6175.763672	78.164673
680.528809	1203.750488	7714.015625	6234.926758	77.280663
680.856995	1183.270874	7793.658691	6305.468262	77.487091
681.185120	1265.189575	7766.352539	6328.223145	77.878891
681.513306	1192.372925	7836.893555	6430.621582	78.835617
681.841309	1231.056763	7845.995605	6455.652344	78.981766
682.169373	1221.954712	7843.720215	6441.999512	78.831619
682.497314	1219.679199	7716.291016	6316.845703	78.458847
682.825134	1237.883301	7711.740234	6244.029297	77.328644
683.153076	1151.413574	7586.586426	6310.019043	80.162659
683.480896	1235.607788	7481.912598	6316.845703	81.347900
683.808655	1210.577026	7511.494141	6032.405762	76.525826
684.136414	1196.923950	7331.728027	5977.792969	77.930267
684.464050	1297.046875	7256.635742	6023.303711	79.305084
684.791626	1308.424438	7217.952148	5772.996094	75.548706
685.119263	1285.669312	7106.451660	5713.832520	76.075050
685.446838	1260.638550	6976.746582	5743.414551	78.423569
685.774292	1287.944824	6851.593262	5670.597656	78.773003
686.101685	1251.536499	6781.051758	5520.413574	77.201653
686.429077	1212.852539	6703.684082	5461.250000	77.372566
686.756348	1242.434326	6655.898438	5697.904297	82.303490
687.083679	1201.474976	6703.684082	5458.974609	77.378006
687.410950	1217.403687	6692.306641	5547.719727	79.093933
687.738159	1253.812012	6888.001465	5618.260742	77.463646
688.065308	1244.709839	6867.521973	5697.904297	79.198708
688.392395	1233.332275	6931.236328	5543.168457	75.638969
688.719421	1212.852539	6728.714844	5565.923828	78.919144
689.046448	1242.434326	6710.510742	5606.883301	79.816910
689.373413	1246.985352	6847.041992	5656.944824	78.748482
689.700317	1237.883301	6749.194824	5643.291504	79.933937
690.027100	1180.995239	6737.816895	5433.943848	76.535637
690.353943	1224.230225	6742.368164	5456.698730	76.701035
690.680725	1297.046875	6512.540527	5499.933594	80.584641
691.007446	1299.322388	6248.580078	5338.371582	81.609192
691.334106	1174.168701	6316.845703	5167.707520	77.654869
691.660645	1251.536499	6382.835938	5192.738281	76.807091
691.987244	1187.821899	6121.150879	5038.002930	78.044281
692.313721	1190.097412	6187.141113	4972.013184	75.683060
692.640259	1251.536499	6153.008301	5042.554199	77.344475
692.966675	1162.791138	6171.212402	5003.870117	76.692413
693.293030	1153.689087	6087.018066	5012.972168	78.228783
693.619324	1210.577026	5907.251953	4739.909668	75.145348
693.945618	1169.617676	6123.426270	4899.196289	75.287094
694.271851	1242.434326	5886.772461	4849.134766	77.658012
694.598083	1272.016113	5911.803223	4819.553223	76.459045
694.924194	1240.158813	5838.986328	4871.890137	78.970810
695.250244	1228.781250	5955.038086	4771.767090	74.963890
695.576294	1192.372925	5829.884277	4860.512207	79.097145
695.902283	1160.515625	5955.038086	4883.267578	77.645935
696.228210	1235.607788	5829.884277	4755.838379	76.622086
696.554138	1258.363037	5916.354004	4869.614746	77.528091
696.879944	1233.332275	6027.854492	4894.645020	76.364494
697.205750	1228.781250	6057.436523	4987.941406	77.851074
697.531433	1208.301514	6264.508789	4958.359863	74.167419
697.857178	1190.097412	6218.998535	5015.248047	76.063347
698.182739	1294.771362	6444.274902	5117.646484	74.237740
698.508423	1212.852539	6603.561523	5372.504395	77.163353
698.833984	1269.740601	6831.113281	5581.852539	77.536827
699.159485	1187.821899	7024.532715	5718.383789	77.621834
699.484924	1326.628662	7459.157227	5834.435547	73.506493
699.810303	1212.852539	7404.544922	5970.966797	76.846748
700.135681	1262.914063	7365.860840	5993.721680	77.516777
700.460999	1251.536499	7634.372070	6157.559082	76.862747
700.786255	1269.740601	7352.207520	5818.506836	74.784889
701.111450	1180.995239	7161.063965	5686.526367	75.342468
701.436646	1244.709839	6837.939941	5481.729492	75.752640
701.761719	1251.536499	6592.183594	5529.515625	80.102264
702.086792	1262.914063	6457.928223	5108.544434	74.025406
702.411865	1244.709839	6282.712891	5085.789063	76.242096
702.736816	1221.954712	6059.711914	4803.624512	74.035751
703.061646	1224.230225	5882.221191	4860.512207	78.065453
703.386536	1281.118164	5779.822754	4760.389648	77.339409
703.711365	1194.648438	5618.260742	4667.093262	78.497948
704.036194	1194.648438	5761.618652	4541.939453	73.293472
704.360901	1251.536499	5445.321289	4482.775879	77.048286
704.685547	1190.097412	5411.188477	4323.489746	74.231812
705.010132	1217.403687	5256.453125	4439.541016	79.774643
705.334717	1235.607788	5377.055664	4428.163574	77.087914
705.659302	1237.883301	5290.585938	4355.346680	76.923073
705.983765	1201.474976	5240.524414	4350.795898	77.971832
706.308228	1251.536499	5167.707520	4252.948242	76.641487
706.632568	1283.393677	5308.790039	4362.173340	76.483887
706.956909	1249.260864	5092.615723	4309.836426	79.632919
707.281189	1174.168701	5206.391602	4318.938477	77.990967
707.605408	1203.750488	5049.380859	4330.315918	81.301765
707.929626	1246.985352	5283.759277	4307.561035	75.817368
708.253784	1199.199463	5165.432129	4450.918457	81.985077
708.577820	1183.270874	5224.595703	4184.682617	74.268013
708.901855	1276.567139	5154.054688	4303.009766	78.051643
709.225830	1201.474976	5131.299316	4350.795898	80.138977
709.549805	1203.750488	5415.739746	4409.959473	76.121017
709.873718	1317.526489	5172.258789	4521.459961	83.116890
710.197510	1249.260864	5276.932617	4457.745117	79.661018
710.521362	1219.679199	5331.545410	4441.816406	78.361916
710.845093	1192.372925	5235.973145	4475.949219	81.204277
711.168701	1167.342163	5288.310547	4328.040527	76.697952
711.492432	1217.403687	5515.862305	4614.756348	79.036530
711.816040	1212.852539	5595.505859	4610.205078	77.518166
712.139587	1228.781250	5615.985352	4612.480469	77.126549
712.463074	1219.679199	5631.914063	4521.459961	74.832390
712.786499	1267.465088	5636.464844	4710.328125	78.802086
713.109924	1274.291626	5484.005371	4555.592773	77.945946
713.433350	1219.679199	5499.933594	4462.296387	75.757584
713.756592	1219.679199	5481.729492	4432.714355	75.387077
714.079834	1253.812012	5429.392578	4405.408203	75.476837
714.403015	1237.883301	5222.320313	4337.142578	77.784119
714.726196	1253.812012	5315.616699	4357.622559	76.414566
715.049255	1278.842651	5390.708984	4455.469727	77.255112
715.372375	1176.444214	5220.044922	4334.867188	78.109169
715.695435	1308.424438	5092.615723	4414.510254	82.080574
716.018311	1269.740601	5169.983398	4439.541016	81.271873
716.341248	1196.923950	5208.666992	4389.479492	79.580261
716.664063	1269.740601	5235.973145	4293.907715	76.247849
716.987000	1237.883301	5436.219238	4328.040527	73.604332
717.309692	1237.883301	5117.646484	4271.152344	78.181808
717.632385	1251.536499	5245.075684	4250.672852	75.099709
717.955078	1269.740601	4903.747559	4216.540039	81.089539
718.277649	1285.669312	4928.777832	4237.019531	81.011864
718.600220	1240.158813	5047.104980	3938.926514	70.890610
718.922791	1224.230225	4953.808594	3957.130615	73.276390
719.245300	1201.474976	4858.236816	3847.905762	72.370880
719.567688	1203.750488	4769.491699	3929.824463	76.451820
719.890015	1235.607788	4774.042480	3838.803711	73.569138
720.212341	1167.342163	4544.214844	3804.670898	78.099739
720.534607	1206.026001	4582.898926	3649.935303	72.371956
720.856873	1251.536499	4553.316895	3759.160400	75.947632
721.179016	1187.821899	4482.775879	3629.455566	74.102211
721.501160	1262.914063	4462.296387	3629.455566	73.968697
721.823242	1242.434326	4441.816406	3588.496338	73.328598
722.145264	1199.199463	4403.132813	3672.690674	77.201706
722.467224	1253.812012	4394.030762	3613.527100	75.144928
722.789185	1228.781250	4337.142578	3613.527100	76.720352
723.111023	1249.260864	4389.479492	3656.761963	76.666664
723.432861	1253.812012	4405.408203	3524.781738	72.057762
723.754578	1192.372925	4318.938477	3524.781738	74.599709
724.076294	1226.505737	4166.478516	3542.985840	78.792572
724.397949	1210.577026	4227.917480	3483.822266	75.339371
724.719666	1215.128052	4264.326172	3517.955078	75.522385
725.041260	1253.812012	4223.366699	3533.883789	76.781609
725.362732	1208.301514	4284.805664	3527.057129	75.369820
725.684265	1283.393677	4437.265625	3479.271240	69.624809
726.005676	1301.597900	4250.672852	3577.118652	77.160492
726.327087	1281.118164	4248.397461	3504.302002	74.923309
726.648438	1215.128052	4298.458984	3554.363525	75.867149
726.969666	1260.638550	4296.183105	3515.679688	74.287857
727.290894	1208.301514	4248.397461	3597.598389	78.592812
727.612061	1351.659302	4300.734375	3693.170166	79.398140
727.933228	1249.260864	4416.785645	3620.353516	74.856323
728.254395	1151.413574	4400.857422	3636.282227	76.470581
728.575378	1235.607788	4430.438965	3643.108887	75.356125
728.896301	1253.812012	4425.888184	3715.925537	77.618362
729.217285	1221.954712	4475.949219	3618.078125	73.636368
729.538147	1183.270874	4507.806641	3745.507324	77.070503
729.858948	1219.679199	4485.051270	3743.231689	77.282234
730.179810	1146.862427	4637.511230	3618.078125	70.795311
730.500549	1196.923950	4391.755371	3729.578613	79.273499
730.821228	1217.403687	4434.990234	3570.292236	73.125885
731.141846	1256.087524	4548.766113	3759.160400	76.019341
731.462402	1246.985352	4521.459961	3802.395264	78.040306
731.782898	1219.679199	4630.685059	3854.732178	77.251495
732.103455	1231.056763	4698.950684	3847.905762	75.459312
732.423889	1167.342163	4462.296387	3813.772949	80.317680
732.744263	1203.750488	4510.082031	3772.813477	77.701309
733.064636	1242.434326	4580.623535	3713.649902	74.028625
733.384888	1251.536499	4596.552246	3897.967041	79.115646
733.705200	1180.995239	4578.347656	3750.058350	75.619560
734.025330	1242.434326	4637.511230	3788.742188	75.000008
734.345520	1187.821899	4496.429199	3704.547852	76.066025
734.665527	1269.740601	4587.449707	3759.160400	75.034309
734.985596	1287.944824	4482.775879	3570.292236	71.438751
735.305542	1251.536499	4507.806641	3590.771729	71.837883
735.625549	1265.189575	4432.714355	3561.189941	72.485634
735.945435	1155.964600	4348.520020	3579.394287	75.908775
736.265259	1240.158813	4259.774902	3476.995850	74.076859
736.585083	1194.648438	4177.855957	3429.209961	74.904663
736.904785	1235.607788	4298.458984	3431.485352	71.693901
737.224426	1274.291626	4189.233887	3408.730225	73.224037
737.544128	1233.332275	4036.773926	3497.475586	80.762993
737.863708	1217.403687	4107.314941	3445.138428	77.086624
738.183289	1267.465088	4239.295410	3411.005615	72.128632
738.502808	1228.781250	4273.428223	3483.822266	74.065765
738.822205	1226.505737	4221.091309	3324.535889	70.060791
739.141541	1149.138062	4216.540039	3442.863037	74.777458
739.460938	1231.056763	4184.682617	3445.138428	74.961472
739.780212	1297.046875	4230.193359	3640.833252	79.906898
740.099426	1251.536499	4248.397461	3511.128662	75.398636
740.418640	1162.791138	4307.561035	3406.454590	71.345871
740.737793	1178.719727	4173.305176	3454.240479	75.987839
741.056885	1212.852539	4255.224121	3506.577637	75.392670
741.375977	1258.363037	4207.437988	3417.832275	73.225311
741.694946	1244.709839	4114.141602	3317.709229	72.244255
742.013855	1183.270874	4059.529053	3442.863037	78.560127
742.332703	1242.434326	4002.641113	3260.821289	73.124481
742.651550	1208.301514	3952.579590	3345.015625	77.860703
742.970398	1269.740601	4016.294189	3326.811523	74.896431
743.289124	1185.546387	4041.324951	3251.719238	72.350601
743.607788	1219.679199	3886.589600	3224.413086	75.170647
743.926453	1233.332275	3925.273438	3174.351563	72.104820
744.245056	1199.199463	3982.161377	3188.004639	71.463615
744.563599	1258.363037	3954.855225	3213.035400	72.489449
744.882141	1244.709839	3911.620361	3217.586426	73.976105
745.200500	1246.985352	3829.701416	3217.586426	76.299561
745.518860	1310.699951	3765.986816	3124.290039	73.864693
745.837219	1253.812012	3674.966064	3106.085938	76.503761
746.155518	1237.883301	3791.017578	3117.463379	73.618538
746.473755	1226.505737	3775.089111	3122.014648	74.375000
746.791992	1283.393677	3622.629150	3069.677490	76.361870
747.110107	1233.332275	3718.200928	3019.616211	71.886452
747.428162	1306.148926	3788.742188	3042.371338	69.935837
747.746216	1180.995239	3768.262451	3151.596191	76.165344
748.064148	1274.291626	3665.864014	3083.330566	75.642242
748.382080	1212.852539	3686.343750	3110.636963	76.724930
748.700073	1206.026001	3754.609375	3056.024414	72.589279
749.017822	1215.128052	3809.221924	3090.157227	72.280701
749.335632	1196.923950	3713.649902	3167.524902	78.300179
749.653320	1242.434326	3791.017578	3260.821289	79.196434
749.971008	1137.760376	3841.079102	2996.860840	68.771042
750.288696	1208.301514	3800.119629	3117.463379	73.661102
750.606262	1274.291626	3756.884766	3071.953125	72.410637
750.923828	1206.026001	3779.640137	3149.320801	75.508392
751.241272	1185.546387	3738.680664	3065.126465	73.618538
751.558716	1137.760376	3608.976074	3112.912354	79.926323
751.876038	1272.016113	3654.486328	3149.320801	78.796562
752.193481	1258.363037	3672.690674	3119.739014	77.097076
752.510681	1265.189575	3668.139648	3051.473389	74.337112
752.827942	1174.168701	3677.241699	3087.881836	76.454544
753.145081	1233.332275	3690.894775	2996.860840	71.759254
753.462219	1269.740601	3636.282227	3053.749023	75.384621
753.779297	1267.465088	3593.047363	3051.473389	76.712326
754.096375	1258.363037	3697.721191	3076.504150	74.533585
754.413330	1235.607788	3563.465576	2962.728027	74.193542
754.730286	1226.505737	3581.669678	3083.330566	78.840576
755.047119	1219.679199	3636.282227	2992.309814	73.352165
755.363892	1237.883301	3490.648926	3008.238525	78.585861
755.680725	1244.709839	3563.465576	3076.504150	78.999016
755.997498	1251.536499	3565.741211	2962.728027	73.942970
756.314148	1192.372925	3502.026611	2889.911377	73.497528
756.630737	1265.189575	3643.108887	3001.411865	73.014343
756.947327	1260.638550	3486.097900	2978.656738	77.198357
757.263855	1237.883301	3513.404053	3078.779541	80.900002
757.580261	1226.505737	3529.332764	2971.830078	75.790504
757.896729	1190.097412	3513.404053	2887.635986	73.065628
758.213074	1221.954712	3520.230713	2935.421875	74.554459
758.529419	1206.026001	3545.261475	3035.544678	78.210114
758.845642	1281.118164	3631.731201	3051.473389	75.314621
759.161865	1242.434326	3595.322754	3015.064941	75.338493
759.478149	1251.536499	3634.006836	3042.371338	75.167145
759.794189	1292.495850	3647.659912	2985.483398	71.884064
760.110229	1246.985352	3624.904541	3026.442627	74.832535
760.426270	1226.505737	3845.630127	3065.126465	70.199821
760.742249	1219.679199	3704.547852	3058.300049	73.992676
761.058105	1256.087524	3665.864014	3081.055176	75.731827
761.374023	1212.852539	3593.047363	3046.922363	77.055450
761.689819	1276.567139	3763.711426	3081.055176	72.552605
762.005554	1278.842651	3768.262451	2980.932129	68.372932
762.321289	1246.985352	3647.659912	2965.003662	71.563980
762.636902	1233.332275	3754.609375	3174.351563	76.985558
762.952515	1228.781250	3791.017578	3213.035400	77.442276
763.268127	1303.873413	3704.547852	3231.239502	80.284363
763.583618	1267.465088	4016.294189	3297.229736	73.841064
763.899048	1274.291626	4223.366699	3488.373291	75.077148
764.214478	1253.812012	4721.705566	3699.996826	70.538063
764.529785	1242.434326	4969.737305	4048.151611	75.274734
764.845093	1292.495850	5210.942871	4180.131836	73.693375
765.160400	1244.709839	5158.605469	4102.764160	73.023262
765.475586	1269.740601	4944.706543	4114.141602	77.399384
765.790771	1160.515625	4967.461914	4064.080078	76.270172
766.105835	1224.230225	4664.817871	3713.649902	72.354492
766.420837	1240.158813	4446.367676	3715.925537	77.217880
766.735840	1256.087524	4403.132813	3465.618164	70.209686
767.050842	1203.750488	4300.734375	3367.770752	69.875092
767.365662	1171.893188	4020.845215	3242.617188	72.683708
767.680542	1221.954712	3950.304199	3285.852051	75.646370
767.995300	1240.158813	3884.313965	3062.851074	68.932877
768.309998	1180.995239	3818.323975	3056.024414	71.095772
768.624817	1199.199463	3788.742188	3062.851074	71.968369
768.939392	1237.883301	3718.200928	3222.137451	80.000000
769.254028	1256.087524	3709.098877	3044.646729	72.912804
769.568481	1240.158813	3574.843262	3003.687500	75.536057
769.882935	1219.679199	3661.312988	2965.003662	71.481827
770.197388	1203.750488	3502.026611	2839.849854	71.188110
770.511841	1242.434326	3490.648926	2919.493164	74.595139
770.826172	1199.199463	3449.689453	2965.003662	78.463097
771.140442	1228.781250	3422.383301	2848.952148	73.858925
771.454651	1249.260864	3356.393066	2869.431641	76.889847
771.768860	1158.240112	3422.383301	2858.054199	75.075386
772.082886	1235.607788	3376.872803	2744.278076	70.456955
772.397034	1221.954712	3360.944336	2880.809326	77.553185
772.711060	1219.679199	3345.015625	2712.420898	70.235550
773.025024	1272.016113	3222.137451	2764.757813	76.546097
773.338928	1201.474976	3256.270264	2714.696289	73.643402
773.652771	1194.648438	3285.852051	2694.216553	71.708374
773.966614	1251.536499	3269.923340	2660.083740	69.785789
774.280457	1233.332275	3222.137451	2621.399902	69.794044
774.594116	1231.056763	3185.729004	2605.471436	70.314331
774.907776	1231.056763	3213.035400	2739.727051	76.119400
775.221375	1267.465088	3149.320801	2755.655762	79.081017
775.534912	1208.301514	3117.463379	2648.706299	75.446968
775.848450	1215.128052	3190.280273	2580.440674	69.124428
776.161926	1174.168701	3122.014648	2584.991699	72.429909
776.475342	1251.536499	3026.442627	2644.155273	78.461548
776.788696	1258.363037	3167.524902	2587.267090	69.606674
777.101990	1240.158813	3085.606201	2685.114502	78.298393
777.415283	1178.719727	3081.055176	2676.012451	78.708130
777.728516	1237.883301	3076.504150	2575.889648	72.772285
778.041626	1201.474976	2978.656738	2594.093750	78.361076
778.354736	1174.168701	3151.596191	2564.511963	70.310707
778.667725	1262.914063	3046.922363	2566.787354	73.086731
778.980774	1212.852539	3081.055176	2621.399902	75.395859
779.293640	1176.444214	3053.749023	2571.338623	74.303032
779.606567	1206.026001	2965.003662	2569.062988	77.490295
779.919434	1231.056763	3012.789551	2571.338623	75.223503
780.232239	1242.434326	3060.575439	2616.848877	75.594490
780.544983	1221.954712	2903.564453	2566.787354	79.972931
780.857666	1267.465088	2980.932129	2580.440674	76.626839
781.170227	1285.669312	3090.157227	2607.746826	73.266075
781.482849	1258.363037	2876.258301	2507.624023	77.215195
781.795410	1299.322388	3019.616211	2603.195801	75.793648
782.107910	1265.189575	2976.381104	2507.624023	72.606392
782.420288	1278.842651	2901.289063	2493.970703	74.894806
782.732666	1210.577026	2937.697266	2423.429688	70.223984
783.044983	1262.914063	2949.074951	2532.654541	75.303635
783.357300	1249.260864	2889.911377	2480.317627	75.034676
783.669495	1278.842651	2821.645752	2384.745850	71.681419
783.981689	1249.260864	2792.063965	2384.745850	73.598824
784.293762	1265.189575	2910.391113	2414.327637	69.847862
784.605835	1249.260864	2858.054199	2325.582275	66.902405
784.917908	1242.434326	2864.880615	2300.551514	65.217392
785.229858	1174.168701	2899.013428	2387.021240	70.316620
785.541748	1253.812012	2785.237549	2350.613037	71.619614
785.853577	1242.434326	2807.992676	2341.510986	70.203491
786.165405	1256.087524	2785.237549	2357.439453	72.023796
786.477173	1267.465088	2755.655762	2366.541748	73.853218
786.788879	1246.985352	2703.318604	2327.857666	74.218750
787.100525	1217.403687	2764.757813	2323.306641	71.470581
787.412109	1162.791138	2710.145264	2298.276123	73.382362
787.723694	1176.444214	2705.594238	2300.551514	73.511902
788.035156	1256.087524	2757.931152	2327.857666	71.363632
788.346558	1237.883301	2621.399902	2298.276123	76.644745
788.658081	1244.709839	2848.952148	2459.837891	75.744667
788.969360	1217.403687	2958.177002	2416.603027	68.888885
789.280640	1206.026001	2955.901611	2541.756836	76.332901
789.591919	1278.842651	2967.279053	2503.072998	72.506752
789.903076	1219.679199	2939.972900	2532.654541	76.322746
790.214172	1240.158813	3081.055176	2573.614014	72.435104
790.525269	1221.954712	2996.860840	2434.807373	68.333344
790.836365	1215.128052	2780.686523	2355.164063	72.819763
791.147339	1249.260864	2901.289063	2473.491211	74.104691
791.458191	1217.403687	2730.625000	2384.745850	77.142860
791.769104	1153.689087	2682.839111	2336.959961	77.380951
792.079895	1185.546387	2723.798340	2327.857666	74.260353
792.390686	1185.546387	2705.594238	2302.827148	73.502998
792.701416	1244.709839	2625.950928	2252.765625	72.981888
793.012085	1274.291626	2648.706299	2280.071777	73.178802
793.322693	1217.403687	2751.104736	2284.622803	69.584557
793.633240	1287.944824	2678.288086	2343.786377	75.941071
793.943787	1203.750488	2578.165039	2264.143311	77.152328
794.254272	1265.189575	2662.359375	2204.979736	67.263847
794.564636	1276.567139	2637.328613	2257.316650	72.073578
794.875000	1267.465088	2662.359375	2209.530762	67.536705
795.185303	1308.424438	2623.675537	2177.673340	66.089958
795.495544	1240.158813	2644.155273	2325.582275	77.309555
795.805786	1176.444214	2607.746826	2216.357178	72.655006
796.115906	1251.536499	2587.267090	2204.979736	71.379906
796.426025	1285.669312	2575.889648	2252.765625	74.955902
796.736023	1249.260864	2730.625000	2282.347412	69.738869
797.045959	1285.669312	2689.665527	2309.653564	72.933548
797.355896	1224.230225	2873.982666	2348.337402	68.137932
797.665833	1167.342163	2701.043213	2339.235352	76.409492
797.975708	1208.301514	2730.625000	2277.796387	70.254112
798.285461	1231.056763	2757.931152	2239.112549	66.020874
798.595154	1176.444214	2628.226563	2289.173828	76.645760
798.904846	1235.607788	2650.981689	2255.041016	72.025719
799.214478	1269.740601	2635.052979	2177.673340	66.500000
799.524109	1276.567139	2644.155273	2161.744873	64.725464
799.833557	1215.128052	2635.052979	2184.500000	68.269241
800.143005	1242.434326	2623.675537	2127.612061	64.085670
800.452393	1185.546387	2598.644775	2179.948975	70.370369
800.761780	1276.567139	2534.930176	2211.806152	74.321877
801.071106	1274.291626	2534.930176	2177.673340	71.660645
801.380371	1187.821899	2498.521729	2239.112549	80.208344
801.689575	1224.230225	2480.317627	2077.550537	67.934792
801.998718	1192.372925	2466.664551	2125.336426	73.214287
802.307800	1242.434326	2423.429688	2138.989502	75.915215
802.616882	1190.097412	2475.766602	2198.153076	78.407082
802.925903	1269.740601	2437.082764	2145.816162	75.048737
803.234863	1206.026001	2382.470215	2113.958740	77.176010
803.543701	1253.812012	2371.092773	2120.785400	77.596733
803.852539	1174.168701	2507.624023	2109.407715	70.136513
804.161316	1226.505737	2437.082764	2091.203613	71.428574
804.470032	1199.199463	2416.603027	2043.417725	69.345802
804.778809	1262.914063	2505.348389	2052.519775	63.553116
805.087341	1231.056763	2389.296875	1977.427612	64.440079
805.395935	1217.403687	2519.001465	2038.866699	63.111893
805.704468	1242.434326	2480.317627	2125.336426	71.323532
806.012939	1240.158813	2434.807373	2016.111450	64.952377
806.321350	1231.056763	2453.011475	2154.918213	75.605209
806.629761	1185.546387	2464.388916	2113.958740	72.597862
806.938049	1269.740601	2446.184814	2218.632813	80.657646
807.246277	1246.985352	2525.828125	2154.918213	70.996445
807.554504	1208.301514	2446.184814	2164.020264	77.205887
807.862671	1212.852539	2475.766602	2136.714111	73.153160
808.170715	1174.168701	2493.970703	2168.571289	75.344833
808.478821	1310.699951	2478.042236	2129.887451	70.175430
808.786804	1269.740601	2441.633789	2098.030273	70.679619
809.094727	1203.750488	2512.175049	2084.376953	67.304337
809.402649	1301.597900	2405.225586	2161.744873	77.938148
809.710510	1240.158813	2407.500977	2004.733887	65.497086
810.018311	1269.740601	2464.388916	2061.621826	66.285721
810.326050	1219.679199	2439.358398	2077.550537	70.335815
810.633667	1256.087524	2352.888428	2068.448486	74.066399
810.941345	1253.812012	2305.102539	2011.560425	72.077927
811.248901	1192.372925	2257.316650	2063.897461	81.837616
811.556396	1228.781250	2400.674561	2102.581299	74.563103
811.863892	1269.740601	2311.929199	1984.254150	68.558952
812.171326	1281.118164	2327.857666	1981.978638	66.956535
812.478699	1269.740601	2273.245361	1977.427612	70.521538
812.786011	1290.220337	2164.020264	1925.090576	72.656250
813.093262	1224.230225	2307.378174	1966.049927	68.487381
813.400391	1267.465088	2266.418701	1977.427612	71.070618
813.707642	1258.363037	2311.929199	1975.152100	68.034554
814.014709	1278.842651	2332.408936	1956.947876	64.362846
814.321716	1215.128052	2270.969727	1993.356201	73.706902
814.628723	1203.750488	2277.796387	1902.335449	65.042374
814.935669	1283.393677	2243.663574	1961.498901	70.616104
815.242554	1219.679199	2275.520752	1950.121338	69.181038
815.549438	1221.954712	2245.938965	2013.835938	77.333344
815.856201	1174.168701	2293.724854	1943.294800	68.699196
816.162964	1226.505737	2289.173828	1961.498901	69.164886
816.469604	1151.413574	2327.857666	1979.703125	70.406197
816.776184	1292.495850	2300.551514	1890.957764	59.367943
817.082825	1246.985352	2248.214600	1900.059814	65.227264
817.389343	1267.465088	2305.102539	1943.294800	65.131584
817.695801	1201.474976	2255.041016	2034.315552	79.049683
818.002197	1237.883301	2350.613037	1956.947876	64.621674
818.308533	1244.709839	2336.959961	1972.876587	66.666664
818.614868	1285.669312	2293.724854	1954.672363	66.365692
818.921143	1231.056763	2305.102539	1950.121338	66.949158
819.227356	1212.852539	2478.042236	2118.509766	71.582726
819.533447	1256.087524	2368.817139	2002.458252	67.075661
819.839539	1217.403687	2407.500977	2018.386963	67.304016
820.145569	1244.709839	2519.001465	2075.274902	65.178574
820.451538	1292.495850	2607.746826	2113.958740	62.456741
820.757568	1256.087524	2746.553711	2273.245361	68.244278
821.063416	1199.199463	2792.063965	2373.368164	73.714287
821.369263	1203.750488	2858.054199	2466.664551	76.341125
821.675049	1162.791138	2962.728027	2530.379150	75.979774
821.980713	1244.709839	3153.871826	2614.573486	71.752090
822.286438	1217.403687	3345.015625	2694.216553	69.411766
822.592102	1267.465088	3927.548828	3217.586426	73.310524
822.897583	1256.087524	5604.607910	4557.868164	75.928833
823.203125	1224.230225	7934.741211	6303.192383	75.686668
823.508545	1231.056763	10055.526367	7597.963867	72.150597
823.813965	1269.740601	11131.847656	8219.180664	70.466072
824.119263	1224.230225	10251.221680	7720.842285	71.968742
824.424622	1187.821899	8888.184570	6781.051758	72.635925
824.729858	1262.914063	7525.147461	5693.353027	70.748543
825.035095	1215.128052	6253.131348	4958.359863	74.299911
825.340149	1253.812012	5891.323242	4557.868164	71.246323
825.645264	1333.455200	5267.830566	4159.651855	71.833427
825.950256	1192.372925	4789.971191	3875.211914	74.573059
826.255310	1240.158813	4378.102051	3672.690674	77.519936
826.560242	1194.648438	4200.611328	3426.934326	74.261925
826.865112	1210.577026	4041.324951	3188.004639	69.855301
827.169922	1228.781250	3913.895752	3172.075928	72.372879
827.474670	1158.240112	3877.487549	3078.779541	70.627602
827.779419	1228.781250	4330.315918	3486.097900	72.780632
828.084045	1246.985352	4821.828613	3772.813477	70.655632
828.388672	1244.709839	5313.341309	4184.682617	72.259499
828.693176	1262.914063	5461.250000	4221.091309	70.460709
828.997681	1162.791138	5022.074219	3822.875000	68.926895
829.302124	1244.709839	4434.990234	3531.608398	71.683311
829.606567	1233.332275	3816.048340	3190.280273	75.770927
829.910828	1185.546387	3634.006836	2883.084961	69.330856
830.215149	1276.567139	3272.198975	2757.931152	74.230324
830.519348	1176.444214	3201.657715	2594.093750	70.000008
830.823547	1149.138062	2992.309814	2475.766602	71.975311
831.127686	1192.372925	2878.533936	2334.684326	67.746284
831.431763	1203.750488	2721.522949	2248.214600	68.815590
831.735779	1240.158813	2509.899414	2214.081787	76.702515
832.039734	1201.474976	2555.409912	2072.999512	64.369751
832.343628	1292.495850	2493.970703	2082.101563	65.719704
832.647461	1292.495850	2457.562500	2018.386963	62.304684
832.951233	1249.260864	2402.949951	2093.479248	73.175552
833.255127	1219.679199	2523.552490	2045.693237	63.350792
833.558777	1242.434326	2498.521729	2104.856689	68.659424
833.862366	1260.638550	2500.797363	2150.367188	71.743118
834.165955	1226.505737	2807.992676	2311.929199	68.633095
834.469482	1240.158813	3115.187988	2566.787354	70.752419
834.773010	1194.648438	3586.220703	2871.707275	70.123695
835.076416	1287.944824	3759.160400	3003.687500	69.429100
835.379822	1258.363037	3775.089111	3110.636963	73.598549
835.683105	1274.291626	3695.445801	2942.248291	68.890968
835.986389	1228.781250	3376.872803	2707.869873	68.855942
836.289612	1208.301514	3067.402100	2500.797363	69.522644
836.592773	1278.842651	2846.676514	2414.327637	72.423805
836.895874	1285.669312	2721.522949	2330.133301	72.741676
837.198914	1319.802124	2632.777588	2255.041016	71.230492
837.501892	1281.118164	2598.644775	2186.775391	68.739197
837.804871	1196.923950	2514.450439	2166.295898	73.575142
838.107666	1192.372925	2482.593262	1970.601074	60.317463
838.410583	1221.954712	2332.408936	2004.733887	70.491798
838.713379	1201.474976	2248.214600	1943.294800	70.869568
839.016052	1215.128052	2189.051025	1890.957764	69.392525
839.318787	1196.923950	2138.989502	1818.141113	65.942032
839.621338	1228.781250	2059.346436	1859.100464	75.890396
839.923889	1265.189575	2111.683350	1752.151001	57.526875
840.226440	1258.363037	2013.835938	1804.488037	72.289162
840.528931	1201.474976	2100.305664	1797.661377	66.329109
840.831299	1231.056763	2252.765625	1936.468262	69.042320
841.133606	1240.158813	2261.867676	1975.152100	71.937645
841.435913	1242.434326	2286.898438	1986.529663	71.241829
841.738220	1242.434326	2348.337402	2052.519775	73.251038
842.040405	1246.985352	2214.081787	1934.192627	71.058815
842.342529	1196.923950	2186.775391	1888.682251	69.885063
842.644592	1269.740601	2054.795166	1875.029175	77.101463
842.946594	1187.821899	2084.376953	1788.559326	67.005081
843.248596	1224.230225	2079.825928	1765.804199	63.297882
843.550598	1180.995239	1911.437500	1822.692139	87.850464
843.852478	1203.750488	2045.693237	1731.671387	62.702709
844.154236	1276.567139	1954.672363	1708.916138	63.758392
844.455994	1208.301514	1875.029175	1658.854614	67.576782
844.757690	1167.342163	1847.722900	1626.997314	67.558517
845.059326	1224.230225	1893.233276	1608.793213	57.482994
845.360962	1242.434326	1845.447388	1604.242188	60.000004
845.662476	1276.567139	1802.212524	1592.864502	60.173145
845.963989	1231.056763	1813.590088	1599.691162	63.281254
846.265381	1237.883301	1793.110352	1640.650513	72.540993
846.566772	1146.862427	1790.834839	1510.945801	56.537106
846.868042	1299.322388	1790.834839	1640.650513	69.444450
847.169373	1228.781250	1765.804199	1588.313477	66.949135
847.470581	1249.260864	1786.283813	1556.456177	57.203388
847.771729	1231.056763	1777.181763	1499.568237	49.166668
848.072815	1281.118164	1695.262939	1631.548462	84.615410
848.373901	1233.332275	1770.355225	1524.598877	54.237274
848.674866	1274.291626	1740.773438	1542.803101	57.560974
848.975891	1269.740601	1720.293701	1590.588989	71.212112
849.276794	1267.465088	1749.875488	1504.119263	49.056606
849.577637	1233.332275	1763.528564	1563.282837	62.231773
849.878357	1297.046875	1697.538574	1510.945801	53.409077
850.179077	1187.821899	1679.334351	1592.864502	82.407394
850.479736	1226.505737	1667.956787	1586.037964	81.443283
850.780396	1221.954712	1681.609863	1558.731689	73.267311
851.080994	1203.750488	1720.293701	1529.150024	62.995609
851.381470	1206.026001	1688.436401	1545.078613	70.283020
851.681946	1210.577026	1642.926025	1529.150024	73.684219
851.982361	1260.638550	1667.956787	1533.701050	67.039108
852.282715	1228.781250	1699.814087	1495.017212	56.521740
852.583008	1192.372925	1652.028076	1426.751587	50.990108
852.883240	1274.291626	1713.467163	1495.017212	50.259079
853.183411	1285.669312	1708.916138	1481.364014	46.236542
853.483521	1183.270874	1692.987427	1485.915039	59.374992
853.783630	1231.056763	1661.130127	1492.741699	60.846581
854.083679	1233.332275	1665.681274	1447.231201	49.473671
854.383667	1242.434326	1649.752563	1481.364014	58.659218
854.683533	1174.168701	1613.344238	1495.017212	73.057007
854.983337	1187.821899	1661.130127	1417.649414	48.557686
855.283203	1237.883301	1586.037964	1531.425537	84.313744
855.582886	1206.026001	1677.058838	1451.782227	52.173904
855.882629	1262.914063	1661.130127	1479.088501	54.285717
856.182312	1228.781250	1665.681274	1526.874512	68.229172
856.481873	1260.638550	1631.548462	1545.078613	76.687103
856.781372	1185.546387	1681.609863	1483.639526	60.091732
857.080872	1196.923950	1667.956787	1444.955688	52.656994
857.380310	1265.189575	1654.303589	1545.078613	71.929825
857.679688	1251.536499	1720.293701	1515.496826	56.310673
857.979004	1206.026001	1597.415649	1517.772339	79.651146
858.278259	1221.954712	1658.854614	1492.741699	61.979183
858.577454	1251.536499	1670.232300	1481.364014	54.891289
858.876648	1228.781250	1647.477051	1492.741699	63.043491
859.175720	1258.363037	1638.375000	1513.221313	67.065857
859.474792	1276.567139	1629.272949	1447.231201	48.387085
859.773743	1235.607788	1561.007324	1508.670288	83.916069
860.072693	1235.607788	1574.660400	1442.680176	61.073822
860.371521	1301.597900	1711.191650	1424.476074	30.000011
860.670349	1315.250977	1599.691162	1440.404663	44.000000
860.969116	1233.332275	1649.752563	1556.456177	77.595619
861.267883	1269.740601	1647.477051	1495.017212	59.638569
861.566589	1249.260864	1642.926025	1520.047852	68.786118
861.865112	1228.781250	1608.793213	1524.598877	77.844292
862.163635	1260.638550	1647.477051	1465.435425	52.941181
862.462158	1251.536499	1590.588989	1460.884399	61.744984
862.760620	1231.056763	1579.211426	1465.435425	67.320274
863.059021	1246.985352	1595.140137	1467.710938	63.398693
863.357361	1310.699951	1583.762451	1488.190552	64.999992
863.655640	1253.812012	1670.232300	1506.394775	60.655731
863.953857	1219.679199	1654.303589	1447.231201	52.356014
864.251953	1233.332275	1624.721802	1429.027100	50.000015
864.550110	1212.852539	1733.946899	1388.067749	33.624470
864.848206	1283.393677	1633.823975	1501.843750	62.337666
865.146179	1249.260864	1633.823975	1460.884399	55.029598
865.444092	1231.056763	1649.752563	1538.252075	73.369568
865.741943	1253.812012	1570.109375	1510.945801	81.294952
866.039795	1171.893188	1658.854614	1501.843750	67.757019
866.337646	1224.230225	1601.966675	1501.843750	73.493973
866.635376	1281.118164	1674.783325	1451.782227	43.352596
866.933044	1258.363037	1624.721802	1465.435425	56.521751
867.230652	1249.260864	1617.895264	1510.945801	70.987663
867.528198	1228.781250	1656.579102	1388.067749	37.234058
867.825745	1256.087524	1672.507813	1435.853638	43.169395
868.123230	1242.434326	1665.681274	1442.680176	47.311825
868.420593	1133.209351	1631.548462	1508.670288	75.342461
868.717896	1249.260864	1663.405762	1506.394775	62.087910
869.015198	1249.260864	1636.099487	1442.680176	50.000000
869.312439	1312.975464	1649.752563	1476.812988	48.648655
869.609619	1253.812012	1633.823975	1435.853638	47.904182
869.906738	1246.985352	1640.650513	1435.853638	47.976887
870.203796	1310.699951	1715.742676	1542.803101	57.303375
870.500854	1196.923950	1576.935913	1476.812988	73.652695
870.797791	1260.638550	1631.548462	1438.129150	47.852753
871.094666	1281.118164	1588.313477	1449.506714	54.814819
871.391602	1196.923950	1522.323364	1419.924927	68.531464
871.688293	1272.016113	1583.762451	1433.578125	51.824829
871.985107	1183.270874	1608.793213	1449.506714	62.566830
872.281738	1256.087524	1608.793213	1476.812988	62.580635
872.578369	1235.607788	1649.752563	1449.506714	51.648346
872.874939	1206.026001	1683.885376	1524.598877	66.666656
873.171509	1251.536499	1529.150024	1451.782227	72.131111
873.467957	1215.128052	1583.762451	1495.017212	75.925949
873.764343	1221.954712	1597.415649	1508.670288	76.363625
874.060669	1265.189575	1661.130127	1540.527588	69.540237
874.356995	1165.066650	1563.282837	1424.476074	65.142860
874.653198	1171.893188	1583.762451	1460.884399	70.165764
874.949463	1299.322388	1615.619751	1433.578125	42.446049
875.245544	1256.087524	1601.966675	1456.333252	57.894711
875.541626	1185.546387	1606.517700	1392.618774	49.189194
875.837646	1249.260864	1581.486938	1447.231201	59.589043
876.133606	1246.985352	1624.721802	1456.333252	55.421684
876.429565	1278.842651	1622.446289	1545.078613	77.483452
876.725403	1221.954712	1581.486938	1501.843750	77.848106
877.021179	1251.536499	1624.721802	1515.496826	70.731705
877.316956	1242.434326	1649.752563	1472.261963	56.424587
877.612610	1262.914063	1752.151001	1495.017212	47.441868
877.908203	1162.791138	1645.201538	1481.364014	66.037727
878.203857	1206.026001	1654.303589	1492.741699	63.959408
878.499390	1274.291626	1631.548462	1442.680176	47.133751
878.794800	1306.148926	1640.650513	1586.037964	83.673454
879.090271	1224.230225	1733.946899	1508.670288	55.803562
879.385559	1251.536499	1638.375000	1479.088501	58.823513
879.680847	1219.679199	1677.058838	1492.741699	59.701500
879.976196	1258.363037	1640.650513	1522.323364	69.047600
880.271301	1235.607788	1763.528564	1561.007324	61.637947
880.566467	1201.474976	1799.937012	1556.456177	59.315575
880.861572	1235.607788	1897.784302	1633.823975	60.137466
881.156555	1199.199463	1947.845825	1690.711914	65.653488
881.451477	1224.230225	2241.387939	1843.171875	60.850117
881.746460	1240.158813	2662.359375	2325.582275	76.320000
882.041321	1224.230225	3422.383301	2787.512939	71.118011
882.336121	1192.372925	4211.988770	3313.158203	70.233612
882.630798	1194.648438	4817.277344	3711.374512	69.472366
882.925537	1208.301514	5056.207031	3820.599365	67.888824
883.220215	1178.719727	4651.164551	3572.567627	68.938400
883.514771	1208.301514	4346.244629	3383.699463	69.325600
883.809326	1196.923950	4296.183105	3208.484375	64.904556
884.103760	1171.893188	3891.140625	3056.024414	69.288696
884.398132	1292.495850	3515.679688	2760.206787	66.018425
884.692505	1199.199463	3456.516113	2721.522949	67.439522
884.986816	1199.199463	3208.484375	2591.818115	69.309166
885.281067	1224.230225	2928.595215	2453.011475	72.096130
885.575256	1312.975464	2848.952148	2216.357178	58.814808
885.869385	1185.546387	2650.981689	2063.897461	59.937897
886.163452	1221.954712	2539.481201	1981.978638	57.685665
886.457458	1199.199463	2371.092773	1950.121338	64.077667
886.751465	1244.709839	2116.234375	1865.927002	71.279366
887.045410	1240.158813	2077.550537	1631.548462	46.739136
887.339233	1212.852539	2009.284912	1647.477051	54.571426
887.632996	1246.985352	1968.325439	1647.477051	55.520512
887.926758	1272.016113	1845.447388	1681.609863	71.428566
888.220398	1183.270874	1804.488037	1645.201538	74.358963
888.514099	1272.016113	1872.753662	1535.976563	43.939396
888.807678	1215.128052	1793.110352	1529.150024	54.330727
889.101196	1301.597900	1758.977539	1574.660400	59.701500
889.394653	1176.444214	1704.365112	1469.986450	55.603451
889.688049	1244.709839	1745.324463	1513.221313	53.636364
889.981384	1212.852539	1677.058838	1490.466064	59.803913
890.274719	1162.791138	1683.885376	1463.159912	57.641930
890.567932	1244.709839	1608.793213	1488.190552	66.874985
>>>>>End Processed Spectral Data<<<<<
