Jaz Data File
++++++++++++++++++++++++++++++++++++
Date: Wed Feb 07 06:44:17 2024
User: jaz
Dark Spectrum Present: Yes
Reference Spectrum Present: Yes
Processed Spectrum Present: Yes
Spectrometers: JAZA3692
Integration Time (usec): 40000 (JAZA3692)
Spectra Averaged: 1 (JAZA3692)
Boxcar Smoothing: 0 (JAZA3692)
Correct for Electrical Dark: No (JAZA3692)
Strobe/Lamp Enabled: Yes (JAZA3692)
Correct for Detector Non-linearity: No (JAZA3692)
Correct for Stray Light: No (JAZA3692)
Number of Pixels in Processed Spectrum: 2048
>>>>>Begin Processed Spectral Data<<<<<
W	D	R	S	P
190.244385	0.000000	0.000000	0.000000	0.000000
190.627136	0.000000	0.000000	0.000000	0.000000
191.009842	1083.147949	1133.209351	996.678101	-172.727585
191.392532	1112.729614	1119.556274	1069.494751	-633.323792
191.775177	1108.178589	1076.321289	1037.637451	221.428482
192.157791	1074.045776	1146.862427	994.402588	-109.374969
192.540390	1196.923950	1101.352051	1117.280762	83.333267
192.922943	1142.311401	1117.280762	1053.566162	354.546417
193.305481	1085.423462	1274.291626	1110.454102	13.252969
193.687958	1201.474976	1078.596802	1183.270874	14.814756
194.070419	1180.995239	1158.240112	1083.147949	430.001068
194.452866	1130.933838	1167.342163	1158.240112	75.000084
194.835251	1140.035889	1199.199463	1126.382813	-23.076828
195.217621	1155.964600	1133.209351	1117.280762	169.999619
195.599960	1092.250000	1165.066650	1128.658325	50.000000
195.982254	1162.791138	1099.076538	1142.311401	32.142925
196.364517	1101.352051	1133.209351	1160.515625	185.714340
196.746750	1085.423462	1192.372925	1149.138062	59.574493
197.128952	1162.791138	1133.209351	1044.463989	400.000000
197.511139	1165.066650	1110.454102	1085.423462	145.833130
197.893280	1151.413574	1174.168701	1142.311401	-40.000538
198.275391	1110.454102	1140.035889	1089.974487	-69.230484
198.657471	1199.199463	1171.893188	1028.535400	624.999451
199.039520	1146.862427	1137.760376	1176.444214	-325.001343
199.421539	1180.995239	1174.168701	1078.596802	1500.005371
199.803513	1124.107300	1119.556274	1080.872437	950.002686
200.185471	1206.026001	1137.760376	1103.627563	150.000000
200.567383	1117.280762	1180.995239	1051.290649	-103.571617
200.949265	1126.382813	1158.240112	1087.698975	-121.428490
201.331131	1165.066650	1208.301514	1030.810913	-310.526581
201.712967	1183.270874	1144.586914	1119.556274	164.705475
202.094742	1124.107300	1169.617676	1103.627563	-45.000149
202.476517	1160.515625	1149.138062	1110.454102	440.002136
202.858231	1153.689087	1133.209351	1140.035889	66.666862
203.239944	1165.066650	1149.138062	1121.831787	271.429352
203.621582	1171.893188	1137.760376	1117.280762	159.999786
204.003235	1174.168701	1140.035889	1151.413574	66.666428
204.384827	1153.689087	1203.750488	1112.729614	-81.818466
204.766388	1174.168701	1092.250000	1178.719727	-5.555539
205.147934	1133.209351	1228.781250	1071.770264	-64.285721
205.529449	1060.392700	1231.056763	1178.719727	69.333298
205.910904	1135.484863	1135.484863	1110.454102	0.000000
206.292343	1167.342163	1126.382813	1167.342163	-0.000000
206.673767	1169.617676	1149.138062	1071.770264	477.779572
207.055115	1185.546387	1231.056763	1021.708862	-360.000366
207.436462	1112.729614	1162.791138	1092.250000	-40.908890
207.817780	1137.760376	1171.893188	1069.494751	-200.000000
208.199051	1126.382813	1158.240112	1140.035889	42.856979
208.580307	1174.168701	1142.311401	1124.107300	157.142639
208.961517	1112.729614	1115.005249	1094.525513	-799.957092
209.342712	1051.290649	1130.933838	1094.525513	54.285702
209.723846	1117.280762	1121.831787	1117.280762	0.000000
210.104965	1160.515625	1151.413574	1094.525513	725.002686
210.486069	1099.076538	1149.138062	1096.801025	-4.545433
210.867111	1140.035889	1162.791138	1110.454102	-129.999832
211.248123	1137.760376	1183.270874	1058.117188	-174.999603
211.629120	1167.342163	1185.546387	1133.209351	-187.499420
212.010071	1121.831787	1217.403687	1089.974487	-33.333332
212.390991	1165.066650	1146.862427	1096.801025	374.998840
212.771881	1117.280762	1192.372925	1051.290649	-87.878830
213.152756	1110.454102	1167.342163	1137.760376	48.000008
213.533569	1149.138062	1124.107300	1014.882263	536.363220
213.914368	1142.311401	1108.178589	1085.423462	166.666428
214.295135	1180.995239	1099.076538	1115.005249	80.555466
214.675858	1140.035889	1185.546387	1110.454102	-64.999916
215.056549	1130.933838	1094.525513	1119.556274	31.249895
215.437225	1119.556274	1115.005249	1080.872437	850.002686
215.817841	1171.893188	1217.403687	1094.525513	-169.999619
216.198441	1190.097412	1149.138062	1103.627563	211.111374
216.579025	1190.097412	1160.515625	1105.903076	284.615448
216.959549	1158.240112	1196.923950	1112.729614	-117.647316
217.340057	1135.484863	1151.413574	1146.862427	71.428024
217.720535	1124.107300	1135.484863	1119.556274	-40.000000
218.100967	1144.586914	1194.648438	1092.250000	-104.545189
218.481369	1153.689087	1160.515625	1085.423462	-1000.003601
218.861740	1137.760376	1212.852539	1080.872437	-75.757492
219.242065	1094.525513	1199.199463	1085.423462	-8.695621
219.622391	1099.076538	1199.199463	1067.219238	-31.818188
220.002670	1099.076538	1165.066650	1080.872437	-27.586105
220.382919	1089.974487	1251.536499	1089.974487	0.000000
220.763123	1099.076538	1171.893188	1062.668213	-50.000000
221.143295	1146.862427	1192.372925	1094.525513	-114.999649
221.523453	1112.729614	1146.862427	1089.974487	-66.666428
221.903549	1096.801025	1199.199463	1049.015137	-46.666618
222.283630	1108.178589	1165.066650	1067.219238	-71.999908
222.663696	1140.035889	1144.586914	1080.872437	-1300.002686
223.043701	1169.617676	1224.230225	1155.964600	-24.999887
223.423676	1178.719727	1130.933838	1121.831787	119.047569
223.803635	1135.484863	1092.250000	1140.035889	-10.526286
224.183548	1121.831787	1203.750488	1096.801025	-30.555613
224.563431	1124.107300	1187.821899	1101.352051	-35.714340
224.943283	1215.128052	1265.189575	1117.280762	-195.454086
225.323105	1074.045776	1178.719727	1128.658325	52.173965
225.702881	1133.209351	1221.954712	1055.841675	-87.179405
226.082642	1080.872437	1140.035889	1067.219238	-23.077082
226.462357	1089.974487	1151.413574	1005.780212	-137.036987
226.842041	1103.627563	1153.689087	1096.801025	-13.636297
227.221695	1178.719727	1208.301514	1108.178589	-238.461380
227.601318	1096.801025	1212.852539	1117.280762	17.647108
227.980911	1130.933838	1240.158813	1160.515625	27.083355
228.360474	1083.147949	1171.893188	1080.872437	-2.564095
228.739990	1096.801025	1210.577026	1103.627563	5.999980
229.119476	1121.831787	1228.781250	1115.005249	-6.382957
229.498932	1069.494751	1240.158813	1071.770264	1.333329
229.878372	1067.219238	1331.179688	1105.903076	14.655165
230.257736	1153.689087	1358.485962	1126.382813	-13.333345
230.637115	1087.698975	1308.424438	1171.893188	38.144314
231.016449	1135.484863	1312.975464	1126.382813	-5.128188
231.395737	1096.801025	1237.883301	1151.413574	38.709717
231.774994	1124.107300	1215.128052	1067.219238	-62.500099
232.154221	1140.035889	1303.873413	1062.668213	-47.222195
232.533417	1142.311401	1342.557251	1085.423462	-28.409048
232.912582	1128.658325	1231.056763	1076.321289	-51.111168
233.291702	1151.413574	1306.148926	1044.463989	-69.117744
233.670792	1155.964600	1231.056763	1055.841675	-133.333389
234.049866	1158.240112	1217.403687	1076.321289	-138.461594
234.428894	1096.801025	1144.586914	1083.147949	-28.571356
234.807892	1176.444214	1226.505737	1103.627563	-145.454330
235.186874	1126.382813	1274.291626	1071.770264	-36.923119
235.565781	1101.352051	1244.709839	1094.525513	-4.761889
235.944687	1126.382813	1274.291626	1210.577026	56.923054
236.323547	1146.862427	1303.873413	1087.698975	-37.681091
236.702377	1115.005249	1256.087524	1094.525513	-14.516166
237.081177	1124.107300	1258.363037	1069.494751	-40.678001
237.459946	1215.128052	1290.220337	1083.147949	-175.757202
237.838669	1233.332275	1231.056763	1201.474976	1400.005371
238.217361	1206.026001	1274.291626	1128.658325	-113.333282
238.596039	1119.556274	1342.557251	1103.627563	-7.142889
238.974670	1119.556274	1240.158813	1101.352051	-15.094395
239.353271	1137.760376	1353.934937	1108.178589	-13.684213
239.731842	1149.138062	1253.812012	1058.117188	-86.956566
240.110367	1155.964600	1376.690063	1135.484863	-9.278375
240.488876	1162.791138	1303.873413	1124.107300	-27.419346
240.867340	1060.392700	1424.476074	1080.872437	5.625013
241.245789	1146.862427	1356.210449	1083.147949	-30.434717
241.624176	1083.147949	1406.271851	1112.729614	9.154899
242.002548	1153.689087	1415.373901	1144.586914	-3.478296
242.380890	1121.831787	1447.231201	1080.872437	-12.587408
242.759186	1046.739624	1542.803101	1092.250000	9.174305
243.137451	1067.219238	1699.814087	1153.689087	13.669072
243.515686	1169.617676	1699.814087	1110.454102	-11.158803
243.893890	1151.413574	1652.028076	1053.566162	-19.545462
244.272049	1115.005249	1670.232300	1099.076538	-2.868864
244.650192	1105.903076	1588.313477	1140.035889	7.075472
245.028290	1130.933838	1604.242188	1117.280762	-2.884605
245.406357	1130.933838	1558.731689	1119.556274	-2.659565
245.784393	1119.556274	1570.109375	1112.729614	-1.515173
246.162384	1206.026001	1570.109375	1085.423462	-33.124977
246.540359	1162.791138	1604.242188	1080.872437	-18.556690
246.918289	1137.760376	1626.997314	1101.352051	-7.441859
247.296204	1196.923950	1770.355225	1101.352051	-16.666670
247.674057	1153.689087	2018.386963	1094.525513	-6.842109
248.051895	1187.821899	2195.877686	1119.556274	-6.772008
248.429703	1226.505737	2168.571289	1042.188477	-19.565228
248.807465	1153.689087	2161.744873	1110.454102	-4.288948
249.185196	1155.964600	2045.693237	1101.352051	-6.138113
249.562897	1108.178589	1902.335449	1115.005249	0.859611
249.940567	1101.352051	1961.498901	1110.454102	1.058197
250.318192	1160.515625	1781.732788	1099.076538	-9.890114
250.695801	1144.586914	1695.262939	1089.974487	-9.917342
251.073349	1096.801025	1647.477051	1103.627563	1.239665
251.450882	1160.515625	1529.150024	1128.658325	-8.641977
251.828400	1167.342163	1556.456177	1069.494751	-25.146206
252.205872	1101.352051	1683.885376	1089.974487	-1.953118
252.583313	1110.454102	1736.222412	1146.862427	5.818180
252.960693	1158.240112	1654.303589	1199.199463	8.256877
253.338074	1128.658325	1834.069824	1105.903076	-3.225812
253.715408	1140.035889	1804.488037	1069.494751	-10.616436
254.092682	1176.444214	1890.957764	1051.290649	-17.515911
254.469955	1185.546387	1695.262939	1133.209351	-10.267871
254.847198	1085.423462	1624.721802	1194.648438	20.253164
255.224365	1023.984375	1638.375000	1190.097412	27.037039
255.601563	1101.352051	1629.272949	1178.719727	14.655165
255.978683	1110.454102	1531.425537	1201.474976	21.621628
256.355743	1112.729614	1542.803101	1096.801025	-3.703690
256.732819	1146.862427	1556.456177	1085.423462	-14.999976
257.109894	1101.352051	1604.242188	1103.627563	0.452487
257.486877	1053.566162	1677.058838	1126.382813	11.678830
257.863831	1099.076538	1690.711914	1146.862427	8.076916
258.240753	1112.729614	1686.160889	1078.596802	-5.952381
258.617645	1110.454102	1713.467163	1078.596802	-5.283020
258.994507	1101.352051	1770.355225	1085.423462	-2.380944
259.371307	1137.760376	1918.264038	1153.689087	2.040825
259.748108	1074.045776	1972.876587	1085.423462	1.265832
260.124878	1117.280762	2102.581299	1130.933838	1.385676
260.501617	1108.178589	2396.123291	1051.290649	-4.416955
260.878296	1135.484863	2650.981689	1149.138062	0.900906
261.254944	1117.280762	2644.155273	1144.586914	1.788369
261.631561	1151.413574	2610.022461	1201.474976	3.432133
262.008179	1187.821899	2336.959961	1130.933838	-4.950499
262.384735	1142.311401	2182.224365	1165.066650	2.188188
262.761261	1142.311401	1966.049927	1110.454102	-3.867404
263.137695	1151.413574	1970.601074	1176.444214	3.055545
263.514191	1171.893188	2000.182739	1146.862427	-3.021982
263.890594	1080.872437	1929.641602	1080.872437	0.000000
264.267029	1121.831787	1877.304688	1092.250000	-3.915665
264.643341	1044.463989	1879.580200	1126.382813	9.809273
265.019653	1060.392700	1886.406738	1046.739624	-1.652887
265.395935	1103.627563	1854.549438	1062.668213	-5.454542
265.772217	1158.240112	1815.865601	1128.658325	-4.498272
266.148407	1083.147949	1781.732788	1108.178589	3.583049
266.524597	1096.801025	1959.223389	1137.760376	4.749338
266.900726	1160.515625	1979.703125	1158.240112	-0.277777
267.276855	1190.097412	2072.999512	1178.719727	-1.288669
267.652924	1178.719727	1997.907227	1231.056763	6.388896
268.028992	1112.729614	2109.407715	1126.382813	1.369870
268.404999	1183.270874	2013.835938	1158.240112	-3.013703
268.781006	1124.107300	2200.428711	1174.168701	4.651157
269.156921	1183.270874	2070.723877	1210.577026	3.076912
269.532837	1142.311401	2054.795166	1151.413574	0.997516
269.908661	1210.577026	2091.203613	1128.658325	-9.302320
270.284546	1092.250000	2050.244141	1085.423462	-0.712587
270.660339	1144.586914	2120.785400	1119.556274	-2.564093
271.036133	1126.382813	2164.020264	1115.005249	-1.096487
271.411835	1146.862427	2132.163086	1153.689087	0.692850
271.787537	1101.352051	2232.285889	1105.903076	0.402413
272.163239	1049.015137	2503.072998	1137.760376	6.103281
272.538849	1174.168701	2655.532715	1110.454102	-4.301076
272.914459	1158.240112	2544.032227	1110.454102	-3.448281
273.290070	1149.138062	2468.940186	1137.760376	-0.862075
273.665588	1101.352051	2245.938965	1155.964600	4.771376
274.041046	1094.525513	2377.919189	1165.066650	5.496454
274.416565	1028.535400	2314.204590	1133.209351	8.141593
274.791962	1051.290649	2270.969727	1108.178589	4.664173
275.167389	1155.964600	2227.734863	1174.168701	1.698508
275.542755	1108.178589	2175.397949	1128.658325	1.918981
275.918060	1121.831787	2241.387939	1133.209351	1.016257
276.293365	1121.831787	2280.071777	1108.178589	-1.178788
276.668640	1160.515625	2355.164063	1149.138062	-0.952378
277.043854	1099.076538	2277.796387	1074.045776	-2.123555
277.419037	1144.586914	2402.949951	1128.658325	-1.265818
277.794189	1206.026001	2380.194824	1128.658325	-6.589144
278.169312	1144.586914	2309.653564	1087.698975	-4.882805
278.544373	1167.342163	2264.143311	1155.964600	-1.037341
278.919464	1149.138062	2309.653564	1096.801025	-4.509809
279.294464	1096.801025	2371.092773	1133.209351	2.857142
279.669464	1153.689087	2332.408936	1176.444214	1.930495
280.044403	1053.566162	2366.541748	1137.760376	6.412474
280.419312	1078.596802	2361.990479	1119.556274	3.191497
280.794189	1110.454102	2277.796387	1103.627563	-0.584793
281.169037	1144.586914	2366.541748	1140.035889	-0.372438
281.543854	1158.240112	2334.684326	1201.474976	3.675046
281.918671	1135.484863	2471.215576	1119.556274	-1.192500
282.293365	1126.382813	2575.889648	1160.515625	2.354788
282.668091	1064.943726	2660.083740	1153.689087	5.563484
283.042786	1124.107300	2883.084961	1133.209351	0.517463
283.417419	1142.311401	2778.410889	1208.301514	4.033380
283.792053	1187.821899	2562.236328	1108.178589	-5.794709
284.166595	1119.556274	2689.665527	1124.107300	0.289854
284.541138	1133.209351	2628.226563	1117.280762	-1.065445
284.915619	1096.801025	2614.573486	1180.995239	5.547223
285.290100	1137.760376	2801.166016	1103.627563	-2.051984
285.664520	1137.760376	2739.727051	1099.076538	-2.414772
286.038940	1105.903076	2789.788574	1201.474976	5.675677
286.413300	1144.586914	2828.472412	1094.525513	-2.972970
286.787628	1028.535400	2926.319824	1146.862427	6.235009
287.161896	1174.168701	2953.625977	1140.035889	-1.918159
287.536194	1140.035889	3046.922363	1067.219238	-3.818615
287.910400	1064.943726	2853.503174	1140.035889	4.198472
288.284607	1121.831787	2730.625000	1135.484863	0.848653
288.658752	1121.831787	2662.359375	1121.831787	0.000000
289.032867	1140.035889	2562.236328	1078.596802	-4.320002
289.406921	1080.872437	2678.288086	1190.097412	6.837605
289.781006	1144.586914	2687.390137	1130.933838	-0.884953
290.154999	1135.484863	2716.971924	1140.035889	0.287769
290.529022	1151.413574	2844.401123	1128.658325	-1.344088
290.902954	1078.596802	2867.156250	1144.586914	3.689568
291.276825	1135.484863	3015.064941	1180.995239	2.421305
291.650757	1137.760376	2990.034424	1224.230225	4.668307
292.024597	1112.729614	2960.452637	1085.423462	-1.477827
292.398407	1226.505737	2905.840088	1251.536499	1.490517
292.772156	1137.760376	2769.308838	1190.097412	3.207814
293.145905	1080.872437	2716.971924	1144.586914	3.894291
293.519592	1144.586914	2703.318604	1083.147949	-3.941600
293.893280	1119.556274	2830.747803	1103.627563	-0.930855
294.266907	1094.525513	2912.666504	1187.821899	5.131416
294.640533	1140.035889	2933.146240	1058.117188	-4.568525
295.014069	1137.760376	2990.034424	1140.035889	0.122850
295.387604	1124.107300	3074.228516	1067.219238	-2.917155
295.761078	1105.903076	3147.045166	1096.801025	-0.445929
296.134552	1101.352051	3213.035400	1201.474976	4.741380
296.507996	1158.240112	3096.983887	1149.138062	-0.469482
296.881378	1117.280762	3188.004639	1160.515625	2.087911
297.254730	1169.617676	3235.790527	1121.831787	-2.312773
297.628021	1146.862427	3542.985840	1196.923950	2.089271
298.001282	1151.413574	3565.741211	1235.607788	3.487274
298.374573	1185.546387	3442.863037	1153.689087	-1.411291
298.747803	1167.342163	3447.414063	1203.750488	1.596806
299.121002	1121.831787	3324.535889	1158.240112	1.652892
299.494141	1135.484863	3285.852051	1228.781250	4.338626
299.867188	1130.933838	3126.565674	1176.444214	2.280500
300.240265	1137.760376	3065.126465	1187.821899	2.597406
300.613312	1076.321289	2944.523926	1192.372925	6.211940
300.986328	1112.729614	3033.269287	1210.577026	5.094787
301.359314	1087.698975	2930.870850	1146.862427	3.209872
301.732239	1126.382813	2803.441650	1142.311401	0.949793
302.105103	1058.117188	2974.105713	1174.168701	6.057004
302.477997	1101.352051	2962.728027	1151.413574	2.689490
302.850830	1128.658325	3044.646729	1130.933838	0.118764
303.223602	1196.923950	2889.911377	1192.372925	-0.268816
303.596375	1180.995239	3005.962891	1160.515625	-1.122191
303.969116	1094.525513	2883.084961	1158.240112	3.562342
304.341766	1149.138062	2842.125488	1212.852539	3.763435
304.714478	1128.658325	2807.992676	1299.322388	10.162601
305.087067	1135.484863	2732.900391	1160.515625	1.566954
305.459656	1108.178589	2721.522949	1231.056763	7.616364
305.832214	1176.444214	2844.401123	1249.260864	4.365619
306.204681	1103.627563	2801.166016	1224.230225	7.104561
306.577148	1110.454102	2780.686523	1315.250977	12.261580
306.949646	1155.964600	2714.696289	1331.179688	11.240875
307.322021	1124.107300	2789.788574	1265.189575	8.469944
307.694397	1171.893188	2826.196777	1322.077637	9.078409
308.066742	1137.760376	2762.482178	1347.108276	12.885154
308.439026	1130.933838	2939.972900	1365.312500	12.955976
308.811279	1105.903076	3051.473389	1419.924927	16.140350
309.183502	1137.760376	3108.361328	1390.343262	12.817556
309.555695	1180.995239	3058.300049	1517.772339	17.939394
309.927887	1069.494751	3046.922363	1429.027100	18.181822
310.299988	1124.107300	3106.085938	1403.996338	14.121698
310.672058	1158.240112	3144.769775	1558.731689	20.160362
311.044128	1140.035889	3169.800537	1579.211426	21.636772
311.416168	1171.893188	3160.698486	1510.945801	17.048054
311.788147	1174.168701	3231.239502	1524.598877	17.035397
312.160065	1074.045776	3206.208740	1538.252075	21.771614
312.531982	1112.729614	3172.075928	1626.997314	24.972378
312.903870	1196.923950	3010.513916	1665.681274	25.846930
313.275696	1128.658325	2939.972900	1565.558350	24.120604
313.647491	1178.719727	3053.749023	1579.211426	21.359224
314.019318	1105.903076	3005.962891	1576.935913	24.790422
314.391022	1115.005249	2992.309814	1608.793213	26.303028
314.762726	1146.862427	2992.309814	1483.639526	18.249077
315.134369	1010.331238	3188.004639	1631.548462	28.526649
315.505981	1099.076538	3135.667725	1595.140137	24.357544
315.877594	1124.107300	3331.362549	1656.579102	24.123707
316.249146	1155.964600	3167.524902	1529.150024	18.552038
316.620636	1185.546387	3005.962891	1556.456177	20.374996
316.992157	1162.791138	3042.371338	1565.558350	21.428574
317.363586	1165.066650	2933.146240	1499.568237	18.918921
317.735016	1083.147949	2892.187012	1629.272949	30.188679
318.106354	1105.903076	2901.289063	1522.323364	23.193914
318.477722	1151.413574	2894.462402	1472.261963	18.407309
318.849060	1096.801025	2933.146240	1567.833862	25.650560
319.220306	1083.147949	2969.554688	1592.864502	27.020500
319.591522	1083.147949	2994.585449	1517.772339	22.738091
319.962738	1142.311401	3053.749023	1581.486938	22.976191
320.333923	1135.484863	3037.820313	1517.772339	20.095692
320.705017	1144.586914	2937.697266	1533.701050	21.700512
321.076111	1180.995239	3071.953125	1567.833862	20.457283
321.447144	1155.964600	2990.034424	1592.864502	23.821335
321.818176	1146.862427	2873.982666	1499.568237	20.421614
322.189178	1149.138062	2810.268311	1483.639526	20.136980
322.560120	1155.964600	2980.932129	1508.670288	19.326683
322.931030	1092.250000	2930.870850	1465.435425	20.297029
323.301910	1146.862427	3115.187988	1531.425537	19.537577
323.672729	1187.821899	3208.484375	1549.629639	17.905401
324.043549	1101.352051	3288.127441	1706.640625	27.679504
324.414337	1140.035889	3390.525879	1556.456177	18.503538
324.785095	1165.066650	3629.455566	1586.037964	17.082178
325.155792	1110.454102	3597.598389	1620.170776	20.494053
325.526428	1160.515625	3533.883789	1599.691162	18.504316
325.897034	1142.311401	3461.067139	1608.793213	20.117764
326.267670	1124.107300	3483.822266	1556.456177	18.322081
326.638184	1071.770264	3379.148438	1592.864502	22.583824
327.008728	1174.168701	3542.985840	1629.272949	19.212299
327.379211	1153.689087	3527.057129	1645.201538	20.709490
327.749634	1108.178589	3413.281250	1658.854614	23.889437
328.120026	1133.209351	3424.658691	1649.752563	22.542206
328.490417	1151.413574	3404.179199	1579.211426	18.989897
328.860748	1144.586914	3292.678711	1529.150024	17.902546
329.231079	1171.893188	3304.056152	1565.558350	18.463182
329.601318	1130.933838	3356.393066	1565.558350	19.529655
329.971558	1108.178589	3461.067139	1595.140137	20.696327
330.341736	1108.178589	3269.923340	1479.088501	17.157896
330.711914	1103.627563	3374.597412	1554.180664	19.839680
331.082062	1121.831787	3422.383301	1656.579102	23.244310
331.452148	1151.413574	3306.331787	1522.323364	17.212244
331.822174	1126.382813	3326.811523	1451.782227	14.788001
332.192200	1144.586914	3431.485352	1538.252075	17.213932
332.562134	1069.494751	3445.138428	1554.180664	20.402300
332.932129	1149.138062	3602.149414	1506.394775	14.564007
333.302063	1071.770264	3784.191162	1597.415649	19.379196
333.671906	1092.250000	3665.864014	1574.660400	18.744474
334.041718	1096.801025	3645.384277	1583.762451	19.107141
334.411499	1078.596802	3891.140625	1563.282837	17.233011
334.781281	1105.903076	3772.813477	1642.926025	20.136520
335.151001	1237.883301	3772.813477	1667.956787	16.965891
335.520721	1167.342163	3695.445801	1579.211426	16.291630
335.890350	1169.617676	3618.078125	1590.588989	17.193306
336.259979	1160.515625	3800.119629	1620.170776	17.413792
336.629547	1196.923950	3845.630127	1604.242188	15.378008
336.999084	1108.178589	3713.649902	1542.803101	16.681225
337.368622	1019.433350	3697.721191	1588.313477	21.240440
337.738098	1067.219238	3863.834229	1483.639526	14.890154
338.107513	1067.219238	3756.884766	1520.047852	16.835871
338.476898	1099.076538	3729.578613	1656.579102	21.193771
338.846252	1151.413574	3825.150391	1658.854614	18.978720
339.215576	1171.893188	3809.221924	1629.272949	17.342539
339.584869	1096.801025	3884.313965	1590.588989	17.714285
339.954132	1201.474976	3763.711426	1647.477051	17.406750
340.323334	1115.005249	3574.843262	1583.762451	19.056427
340.692505	1087.698975	3656.761963	1567.833862	18.689106
341.061646	1103.627563	3643.108887	1476.812988	14.695340
341.430786	1192.372925	3684.068115	1563.282837	14.885845
341.799896	1212.852539	3711.374512	1636.099487	16.939894
342.168915	1180.995239	3788.742188	1563.282837	14.659689
342.537903	1153.689087	3882.038574	1633.823975	17.597998
342.906830	1119.556274	3852.456787	1617.895264	18.234802
343.275757	1201.474976	3991.263428	1597.415649	14.192497
343.644684	1153.689087	4032.222900	1570.109375	14.466403
344.013550	1126.382813	4070.906738	1613.344238	16.537867
344.382355	1180.995239	4109.590332	1704.365112	17.871021
344.751129	1103.627563	4282.530273	1656.579102	17.394415
345.119873	1126.382813	4548.766113	1724.844727	17.486700
345.488586	1112.729614	4639.787109	1745.324463	17.935484
345.857269	1151.413574	4785.420410	1747.599976	16.405760
346.225891	1165.066650	4805.899902	1781.732788	16.937500
346.594482	1110.454102	4801.349121	1788.559326	18.372379
346.963043	1158.240112	4956.084473	1772.630737	16.177351
347.331543	1153.689087	4637.511230	1731.671387	16.590466
347.700043	1105.903076	4505.531250	1718.018188	18.005354
348.068512	1067.219238	4296.183105	1708.916138	19.873152
348.436951	1151.413574	4369.000000	1702.089600	17.114569
348.805328	1069.494751	4309.836426	1722.569214	20.154493
349.173645	1160.515625	4132.345703	1652.028076	16.539049
349.541931	1119.556274	4252.948242	1642.926025	16.702976
349.910217	1083.147949	4328.040527	1733.946899	20.056101
350.278473	1169.617676	4505.531250	1745.324463	17.257845
350.646667	1055.841675	4639.787109	1754.426514	19.492062
351.014801	1140.035889	4500.979980	1824.967651	20.379148
351.382935	1140.035889	4480.500488	1774.906250	19.005451
351.751007	1076.321289	4694.399414	1674.783325	16.540882
352.119049	1149.138062	4660.266602	1788.559326	18.211275
352.487091	1183.270874	4637.511230	1690.711914	14.690381
352.855072	1130.933838	4644.337891	1824.967651	19.753885
353.222992	1144.586914	4635.235840	1702.089600	15.971319
353.590881	1219.679199	4867.338867	1777.181763	15.283843
353.958740	1196.923950	4876.440918	1943.294800	20.284479
354.326599	1053.566162	5179.085449	1922.815063	21.070047
354.694397	1137.760376	5038.002930	1929.641602	20.303383
355.062134	1201.474976	5242.799805	1902.335449	17.342344
355.429840	1119.556274	5386.157715	1881.855713	17.866665
355.797516	1105.903076	5481.729492	1904.610962	18.252733
356.165192	1117.280762	5618.260742	2011.560425	19.868555
356.532776	1171.893188	5577.301270	1865.927002	15.754131
356.900360	1155.964600	5747.965332	1988.805176	18.136768
357.267883	1058.117188	5904.976563	2079.825928	21.079809
357.635376	1105.903076	6355.529785	2095.754639	18.855656
358.002808	1124.107300	6505.713867	2177.673340	19.577166
358.370270	1165.066650	6856.144043	2177.673340	17.792883
358.737640	1130.933838	6931.236328	2152.642578	17.614748
359.105011	1128.658325	6621.765625	2191.326416	19.345482
359.472321	1174.168701	6403.315430	2241.387939	20.409052
359.839569	1103.627563	6321.396973	2236.836914	21.718271
360.206787	1137.760376	6141.630859	2154.918213	20.327421
360.574005	1126.382813	6569.428711	2275.520752	21.112038
360.941193	1069.494751	6696.857910	2382.470215	23.331984
361.308319	1126.382813	7170.166016	2373.368164	20.632530
361.675415	1087.698975	7645.750000	2489.419678	21.374044
362.042450	1126.382813	8282.895508	2612.297852	20.763117
362.409424	1155.964600	8585.540039	2696.492188	20.735069
362.776428	1117.280762	9004.235352	2694.216553	19.994230
363.143402	1101.352051	8510.448242	2571.338623	19.840296
363.510284	1162.791138	7948.394043	2571.338623	20.757883
363.877136	1199.199463	7154.237305	2393.847900	20.061138
364.243988	1064.943726	6639.969727	2300.551514	22.163265
364.610779	1144.586914	6446.550293	2373.368164	23.175966
364.977539	1165.066650	6271.335449	2289.173828	22.014259
365.344269	1117.280762	6178.039063	2193.602051	21.267984
365.710938	1169.617676	6116.600098	2264.143311	22.125116
366.077576	1105.903076	5875.394531	2170.846924	22.328249
366.444183	1108.178589	5916.354004	2088.927979	20.397537
366.810760	1142.311401	5884.496582	2286.898438	24.136280
367.177277	1158.240112	5914.078613	2177.673340	21.435406
367.543823	1094.525513	6048.334473	2164.020264	21.589342
367.910248	1155.964600	5859.465820	2209.530762	22.399616
368.276642	1112.729614	5900.425293	2234.561523	23.431562
368.643036	1112.729614	5893.598633	2264.143311	24.083773
369.009399	1115.005249	5829.884277	2277.796387	24.662163
369.375671	1062.668213	5645.566895	2241.387939	25.719961
369.741974	1030.810913	5677.424316	2179.948975	24.730658
370.108215	1126.382813	5750.241211	2170.846924	22.588583
370.474396	1144.586914	5718.383789	2284.622803	24.925371
370.840546	1178.719727	5736.587891	2314.204590	24.912630
371.206665	1137.760376	5977.792969	2291.449463	23.836390
371.572784	1099.076538	5930.007324	2334.684326	25.577013
371.938843	1094.525513	6082.467285	2316.480225	24.498175
372.304840	1130.933838	6150.732910	2318.755615	23.662737
372.670807	1105.903076	6316.845703	2393.847900	24.716160
373.036713	1124.107300	5984.619629	2330.133301	24.812735
373.402649	1130.933838	5998.272949	2391.572266	25.899952
373.768524	1087.698975	6034.681152	2398.398926	26.494938
374.134308	1119.556274	6153.008301	2350.613037	24.457504
374.500122	1169.617676	6082.467285	2468.940186	26.447432
374.865875	1151.413574	6137.079590	2487.144287	26.791420
375.231567	1087.698975	6248.580078	2530.379150	27.954145
375.597260	1185.546387	6423.795410	2559.960938	26.238052
375.962891	1110.454102	6514.815918	2639.604248	28.294741
376.328461	1115.005249	6658.173828	2714.696289	28.858784
376.694031	1089.974487	6690.031250	2782.961914	30.231613
377.059540	1142.311401	7192.921387	2764.757813	26.814592
377.425049	1112.729614	7406.820313	2992.309814	29.862616
377.790497	1126.382813	7638.923340	3092.432861	30.188681
378.155945	1196.923950	7868.750977	3087.881836	28.342430
378.521301	1119.556274	7943.843262	3074.228516	28.642878
378.886597	1178.719727	7550.178223	3065.126465	29.607141
379.251892	1153.689087	7176.992676	3094.708252	32.225159
379.617157	1094.525513	7026.808105	2949.074951	31.261988
379.982422	1121.831787	6994.951172	2914.942139	30.530802
380.347595	1108.178589	6865.246094	2807.992676	29.525694
380.712738	1121.831787	6776.500977	2821.645752	30.060362
381.077820	1062.668213	6910.756836	2955.901611	32.373539
381.442902	1142.311401	6808.358398	2980.932129	32.449799
381.807953	1062.668213	6783.327637	2919.493164	32.458233
382.172974	1062.668213	6655.898438	2958.177002	33.889339
382.537933	1110.454102	6660.449219	2917.217773	32.554329
382.902832	1149.138062	6796.980469	2958.177002	32.030621
383.267700	1146.862427	7033.634766	3149.320801	34.016235
383.632538	1142.311401	7031.359375	3201.657715	34.969086
383.997345	1187.821899	7206.574219	3360.944336	36.105865
384.362152	1112.729614	7377.238281	3269.923340	34.435165
384.726898	1151.413574	7545.626953	3399.628174	35.160145
385.091553	1076.321289	7393.166992	3465.618164	37.824207
385.456238	1085.423462	7361.309570	3401.903564	36.910801
385.820862	1076.321289	7525.147461	3335.913574	35.038815
386.185425	1130.933838	7632.096680	3467.893799	35.946796
386.549988	1124.107300	7477.361328	3476.995850	37.034386
386.914490	1126.382813	7823.240723	3663.588379	37.886509
387.278961	1067.219238	7950.669922	3715.925537	38.479340
387.643372	1042.188477	7937.016602	3797.844238	39.966999
388.007782	1146.862427	7880.128418	3743.231689	38.560322
388.372101	1146.862427	7998.455566	3827.426025	39.123215
388.736450	1151.413574	7966.598145	3918.446777	40.601002
389.100739	1103.627563	8073.547852	3918.446777	40.385242
389.464966	1096.801025	7802.760742	3838.803711	40.889042
389.829163	1112.729614	7702.637695	4023.120850	44.164364
390.193329	1110.454102	7789.107910	4057.253662	44.122658
390.557495	1196.923950	7748.148438	4027.671875	43.209450
390.921570	1171.893188	7971.149414	4202.886719	44.578312
391.285614	1140.035889	8282.895508	4271.152344	43.835617
391.649597	1183.270874	8571.886719	4582.898926	46.011703
392.013550	1083.147949	8833.571289	4840.032715	48.473286
392.377502	1089.974487	9184.001953	4951.533203	47.708740
392.741455	1135.484863	9300.053711	5101.717773	48.578594
393.105316	1194.648438	9181.726563	5090.339844	48.774925
393.469086	1103.627563	8849.500000	5031.176270	50.705055
393.832886	1119.556274	8744.826172	5074.411621	51.865120
394.196655	1089.974487	9022.440430	5101.717773	50.573723
394.560333	1146.862427	9170.348633	5172.258789	50.170166
394.924042	1160.515625	9249.992188	5367.953613	52.011250
395.287659	1167.342163	9145.318359	5406.637207	53.137474
395.651245	1117.280762	9170.348633	5456.698730	53.885277
396.014771	1105.903076	8908.664063	5329.269531	54.126564
396.378296	1153.689087	8403.498047	5204.116211	55.869434
396.741791	1108.178589	8462.662109	5235.973145	56.126232
397.105255	1153.689087	8385.293945	5215.493652	56.167404
397.468628	1176.444214	8123.609375	5028.900879	55.453648
397.832001	1140.035889	8068.996582	5167.707520	58.128075
398.195313	1162.791138	8207.803711	5326.994141	59.108524
398.558624	1146.862427	8214.629883	5345.198242	59.401161
398.921844	1196.923950	8175.946289	5611.434082	63.253990
399.285095	1060.392700	8335.232422	5618.260742	62.652489
399.648254	1119.556274	8255.589844	5727.485840	64.572701
400.011383	1119.556274	8567.335938	5643.291504	60.739380
400.374451	1130.933838	8291.998047	5688.802246	63.647915
400.737549	1146.862427	8460.386719	5713.832520	62.445545
401.100586	1140.035889	8235.109375	5620.536621	63.149467
401.463562	1135.484863	8276.069336	5677.424316	63.607391
401.826508	1060.392700	8449.008789	5964.140137	66.368958
402.189392	1062.668213	8337.507813	5729.761230	64.153893
402.552246	1083.147949	8364.814453	6073.365234	68.531250
402.915070	1092.250000	8467.212891	6050.609863	67.232338
403.277893	1078.596802	8578.713867	6269.059570	69.205093
403.640656	1187.821899	8749.377930	6371.458008	68.552505
404.003326	1169.617676	9129.389648	6712.786133	69.639793
404.366028	1192.372925	9172.624023	6851.593262	70.915314
404.728699	1178.719727	9493.472656	7038.186035	70.470718
405.091248	1121.831787	9937.199219	7204.298828	68.998451
405.453857	1153.689087	9730.126953	7101.900391	69.355270
405.816345	1099.076538	9620.902344	7227.054199	71.909203
406.178833	1212.852539	9739.229492	7249.809082	70.803307
406.541260	1160.515625	9839.351563	7349.932129	71.316208
406.903687	1155.964600	9381.972656	7088.247070	72.116173
407.266052	1162.791138	9070.225586	6876.624023	72.258995
407.628387	1194.648438	9286.400391	7213.400879	74.381325
407.990662	1221.954712	8986.031250	7001.777344	74.443146
408.352905	1217.403687	9272.747070	6853.868652	69.971756
408.715118	1053.566162	9149.869141	7070.042969	74.311409
409.077332	1092.250000	8842.673828	6842.491211	74.192604
409.439484	1133.209351	8972.378906	7106.451660	76.197388
409.801575	1119.556274	9224.960938	7154.237305	74.452560
410.163605	1096.801025	9227.237305	7154.237305	74.503212
410.525635	1112.729614	9541.258789	7322.625977	73.677109
410.887604	1162.791138	9645.932617	7634.372070	76.287552
411.249573	1144.586914	9900.791016	7481.912598	72.375259
411.611481	1178.719727	9887.137695	7597.963867	73.713089
411.973328	1130.933838	9789.290039	7290.768555	71.143234
412.335144	1112.729614	9570.840820	7538.800293	75.975243
412.696930	1144.586914	9413.829102	7254.360352	73.885529
413.058685	1121.831787	9293.226563	7315.799316	75.800621
413.420410	1121.831787	9454.789063	7502.392090	76.570183
413.782104	1092.250000	9689.167969	7570.657715	75.357330
414.143707	1112.729614	9714.198242	7527.422852	74.576721
414.505310	1110.454102	9545.809570	7593.413086	76.854607
414.866852	1128.658325	9741.504883	7566.106445	74.742401
415.228394	1105.903076	9884.862305	7814.138672	76.412651
415.589874	1089.974487	10087.383789	7898.332520	75.670204
415.951324	1053.566162	10217.088867	7952.945313	75.291779
416.312683	1112.729614	10485.599609	8194.150391	75.552322
416.674072	1169.617676	10665.366211	8198.701172	74.023483
417.035370	1126.382813	10874.713867	8619.672852	76.867416
417.396667	1119.556274	11218.317383	8687.938477	74.943672
417.757935	1130.933838	11238.796875	8897.286133	76.834763
418.119141	1101.352051	11985.167969	8992.858398	72.506798
418.480286	1076.321289	11823.606445	9425.207031	77.683670
418.841400	1067.219238	12524.466797	9775.637695	76.007935
419.202484	1133.209351	12924.958008	10112.414063	76.148201
419.563568	1185.546387	13480.185547	10415.058594	75.069405
419.924591	1128.658325	14449.556641	10883.816406	73.231987
420.285553	1099.076538	14301.648438	10963.458984	74.715614
420.646484	1092.250000	15484.918945	12023.851563	75.952568
421.007355	1146.862427	15382.520508	12021.576172	76.390663
421.368225	1178.719727	16292.728516	12765.671875	76.663658
421.729065	1089.974487	16750.109375	13107.000000	76.736412
422.089874	1201.474976	17412.285156	13414.195313	75.336891
422.450592	1140.035889	17196.111328	13300.418945	75.736954
422.811279	1080.872437	17405.458984	13380.062500	75.341515
423.171936	1151.413574	17275.753906	13059.213867	73.849854
423.532593	1183.270874	16624.955078	12986.397461	76.436783
423.893127	1140.035889	16688.669922	13325.450195	78.369675
424.253723	1130.933838	17018.619141	13625.818359	78.645088
424.614197	1108.178589	17473.724609	13309.521484	74.555061
424.974670	1165.066650	17630.734375	13757.798828	76.478722
425.335052	1153.689087	18044.880859	14078.647461	76.518921
425.695496	1190.097412	17389.529297	13079.693359	73.395142
426.055817	1105.903076	17289.406250	13291.317383	75.295280
426.416168	1119.556274	17107.365234	13289.041016	76.117279
426.776398	1096.801025	16144.820313	12581.354492	76.319366
427.136627	1169.617676	15564.562500	12203.618164	76.651909
427.496826	1169.617676	15746.603516	12137.627930	75.241959
427.856995	1087.698975	14906.936523	11582.401367	75.942703
428.217102	1083.147949	14383.567383	11236.521484	76.338737
428.577179	1069.494751	14217.454102	11077.235352	76.116302
428.937195	1128.658325	13912.534180	10904.295898	76.468498
429.297180	1133.209351	13407.368164	10597.100586	77.104195
429.657135	1174.168701	13514.318359	10417.333984	74.903183
430.017059	1078.596802	13682.707031	10679.019531	76.168983
430.376984	1101.352051	13314.072266	10305.833984	75.367996
430.736786	1071.770264	13209.398438	10258.047852	75.684288
431.096588	1126.382813	13241.255859	10253.497070	75.338089
431.456360	1074.045776	13006.876953	10091.934570	75.572083
431.816071	1087.698975	12783.875977	9868.933594	75.077820
432.175781	1074.045776	12902.203125	10171.578125	76.914200
432.535400	1080.872437	12990.948242	10085.108398	75.601837
432.895020	1112.729614	12936.335938	10016.842773	75.307930
433.254578	1044.463989	13093.346680	10185.231445	75.864029
433.614105	1110.454102	13425.572266	10633.508789	77.328163
433.973602	1044.463989	13509.766602	10706.325195	77.510040
434.333038	1155.964600	13691.808594	10704.049805	76.166275
434.692444	1128.658325	13616.716797	10783.693359	77.314140
435.051819	1140.035889	13898.880859	10724.529297	75.120384
435.411133	1192.372925	13944.391602	10772.315430	75.124908
435.770416	1110.454102	13350.480469	10351.343750	75.497299
436.129669	1124.107300	13969.421875	10785.968750	75.217010
436.488861	1135.484863	13484.736328	10562.967773	76.340515
436.848083	1133.209351	13646.297852	10412.783203	74.158943
437.207184	1117.280762	13596.236328	10458.293945	74.854134
437.566254	1187.821899	13853.371094	10810.999023	75.979156
437.925293	1126.382813	13657.675781	10840.581055	77.519524
438.284363	1115.005249	13973.973633	10745.008789	74.889397
438.643311	1133.209351	14492.791992	10988.490234	73.769379
439.002258	1135.484863	14281.168945	10913.397461	74.381165
439.361145	1105.903076	14781.783203	11423.114258	75.440933
439.719971	1206.026001	15175.448242	11825.881836	76.022156
440.078827	1158.240112	15389.347656	11900.973633	75.487686
440.437592	1080.872437	15748.879883	12510.813477	77.924294
440.796295	1149.138062	16128.891602	12458.476563	75.497498
441.155029	1142.311401	17102.814453	13009.152344	74.351295
441.513672	1135.484863	17316.712891	13416.470703	75.896500
441.872253	1140.035889	17334.917969	13298.143555	75.073761
442.230865	1096.801025	16832.027344	12947.712891	75.314529
442.589386	1108.178589	16706.873047	12888.549805	75.521523
442.947876	1110.454102	16538.484375	12672.375000	74.941002
443.306335	1140.035889	16351.892578	12717.885742	76.110695
443.664764	1135.484863	15744.328125	12048.882813	74.704056
444.023102	1049.015137	16097.034180	12387.935547	75.351578
444.381500	1126.382813	15839.900391	12306.016602	75.982063
444.739777	1130.933838	15753.430664	12112.597656	75.101151
445.098022	1219.679199	16338.239258	12581.354492	75.150513
445.456238	1058.117188	15953.676758	12640.517578	77.757401
445.814423	1071.770264	16838.853516	12676.926758	73.603699
446.172577	1083.147949	17676.246094	13277.664063	73.491493
446.530701	1117.280762	17218.865234	13537.073242	77.133980
446.888733	1126.382813	18304.289063	13901.156250	74.367462
447.246765	1126.382813	19330.548828	14681.660156	74.462502
447.604736	1124.107300	18791.250000	14101.402344	73.454407
447.962677	1149.138062	18261.054688	14310.750000	76.914894
448.320587	1117.280762	19093.894531	14433.628906	74.075951
448.678436	1155.964600	18702.505859	14338.056641	75.126442
449.036255	1165.066650	18295.187500	13983.075195	74.827309
449.394043	1174.168701	17405.458984	13386.888672	75.241829
449.751770	1101.352051	17708.103516	13345.929688	73.732529
450.109467	1124.107300	16925.324219	12961.366211	74.913589
450.467163	1085.423462	16579.445313	12740.640625	75.223961
450.824768	1119.556274	16768.312500	12938.611328	75.527122
451.182343	1096.801025	16322.310547	12745.192383	76.505760
451.539886	1110.454102	15705.644531	12128.525391	75.491112
451.897369	1135.484863	16044.697266	12219.546875	74.343712
452.254822	1051.290649	15698.818359	12151.281250	75.780640
452.612274	1155.964600	16320.035156	12360.628906	73.889557
452.969635	1119.556274	16258.595703	12381.108398	74.387497
453.326965	1215.128052	16156.197266	12321.945313	74.337502
453.684326	1092.250000	15842.175781	12080.740234	74.498611
454.041534	1078.596802	15482.643555	11937.381836	75.387047
454.398773	1206.026001	15350.663086	11816.779297	75.016090
454.755951	1174.168701	14977.477539	11313.889648	73.458626
455.113098	1124.107300	14426.801758	11129.572266	75.213821
455.470215	1110.454102	14599.741211	11354.848633	75.944672
455.827240	1210.577026	14704.415039	11236.521484	74.300171
456.184265	1151.413574	14360.811523	11027.173828	74.763130
456.541260	1155.964600	14383.567383	11095.439453	75.141922
456.898193	1140.035889	14174.218750	11134.123047	76.675980
457.255096	1137.760376	14627.047852	11334.369141	75.590416
457.611969	1030.810913	14586.087891	11036.276367	73.812332
457.968781	1010.331238	14422.250977	11088.613281	75.144218
458.325531	1117.280762	14815.916016	11489.104492	75.714294
458.682312	1178.719727	15280.122070	11789.473633	75.246094
459.039001	1101.352051	16046.972656	12306.016602	74.969543
459.395630	1121.831787	16979.935547	12893.100586	74.228729
459.752289	1058.117188	18183.687500	13810.135742	74.461861
460.108856	1140.035889	19601.335938	15059.396484	75.397507
460.465363	1149.138062	20286.267578	15250.540039	73.686089
460.821899	1094.525513	20215.726563	15327.908203	74.437706
461.178345	1137.760376	19564.927734	15252.816406	76.599159
461.534760	1076.321289	19266.833984	14952.447266	76.282219
461.891144	1142.311401	18413.513672	14037.687500	74.664032
462.247467	1117.280762	17739.960938	13455.154297	74.223129
462.603760	1044.463989	17316.712891	13289.041016	75.248215
462.960052	1162.791138	16251.769531	12301.465820	73.819939
463.316254	1135.484863	16065.176758	12269.608398	74.577049
463.672424	1089.974487	15589.592773	12064.811523	75.690521
464.028564	1119.556274	15459.888672	11648.390625	73.421127
464.384644	1126.382813	14977.477539	11361.675781	73.895195
464.740723	1135.484863	15230.060547	11819.054688	75.799156
465.096741	1174.168701	15250.540039	11602.880859	74.086655
465.452698	1199.199463	15209.581055	11525.512695	73.704727
465.808655	1212.852539	15277.846680	11666.594727	74.324539
466.164520	1119.556274	15100.356445	11607.431641	75.016273
466.520355	1178.719727	15732.951172	12092.117188	74.984360
466.876190	1074.045776	15942.298828	12303.741211	75.528008
467.231964	1105.903076	15917.267578	12356.078125	75.956367
467.587677	1190.097412	16574.892578	12713.334961	74.900169
467.943390	1112.729614	16572.617188	12783.875977	75.493088
468.299011	1162.791138	16185.779297	12285.537109	74.038170
468.654633	1080.872437	15965.053711	12267.333008	75.156708
469.010223	1187.821899	16081.105469	12342.424805	74.896866
469.365723	1165.066650	15314.254883	11907.800781	75.924736
469.721191	1133.209351	15830.797852	12089.841797	74.547142
470.076660	1144.586914	14843.222656	11468.625000	75.365448
470.432068	1137.760376	15318.805664	11671.146484	74.277924
470.787445	1117.280762	15182.274414	11500.482422	73.823006
471.142792	1115.005249	15032.090820	11582.401367	75.212563
471.498016	1144.586914	15257.367188	12037.504883	77.184776
471.853271	1008.055725	15189.101563	11677.972656	75.240692
472.208496	1128.658325	15414.377930	11839.535156	74.976112
472.563660	1153.689087	15480.368164	12096.668945	76.381828
472.918762	1130.933838	15928.645508	12353.802734	75.841919
473.273865	1096.801025	16133.442383	12401.587891	75.181595
473.628876	1133.209351	16499.800781	12920.407227	76.706650
473.983917	1103.627563	16643.158203	12688.303711	74.549713
474.338837	1153.689087	16467.943359	12729.263672	75.586929
474.693787	1158.240112	16440.638672	12729.263672	75.714706
475.048645	1135.484863	16244.943359	12515.364258	75.316254
475.403503	1112.729614	16406.505859	12581.354492	74.988838
475.758270	1133.209351	16481.597656	12879.447266	76.530762
476.113037	1153.689087	16743.281250	12736.089844	74.295723
476.467773	1049.015137	17027.722656	13095.622070	75.391632
476.822418	1119.556274	17771.818359	13580.308594	74.829185
477.177063	1146.862427	17662.591797	13600.788086	75.406456
477.531647	1105.903076	18051.707031	13559.828125	73.492676
477.886200	1140.035889	18552.320313	14219.729492	75.117615
478.240723	1046.739624	19114.375000	14203.800781	72.821159
478.595184	1080.872437	18973.292969	14276.617188	73.750481
478.949585	1135.484863	19184.916016	14799.987305	75.705994
479.303986	1103.627563	19444.326172	14970.651367	75.607933
479.658325	1087.698975	19721.939453	15179.999023	75.625832
480.012634	1146.862427	19817.509766	15027.539063	74.344917
480.366913	1112.729614	20602.564453	15732.951172	75.014603
480.721130	1112.729614	20955.271484	15946.849609	74.759178
481.075317	1121.831787	21526.427734	16326.861328	74.517670
481.429474	1183.270874	22686.943359	17070.957031	73.883598
481.783569	1080.872437	23638.109375	17969.787109	74.871376
482.137604	1149.138062	24778.146484	18750.291016	74.489594
482.491669	1158.240112	26744.195313	20689.035156	76.334045
482.845612	1178.719727	29599.974609	22316.033203	74.371498
483.199554	1094.525513	33504.769531	25351.578125	74.843781
483.553436	1146.862427	39443.878906	30052.802734	75.478310
483.907318	1046.739624	45528.621094	34888.285156	76.079391
484.261139	1083.147949	52525.847656	40401.871094	76.432076
484.614899	1165.066650	54785.437500	42902.667969	77.839073
484.968628	1144.586914	54698.968750	43223.519531	78.572342
485.322357	1140.035889	52578.183594	40383.667969	76.292854
485.675964	1117.280762	48894.117188	37116.019531	75.347679
486.029572	1149.138062	45144.058594	34016.761719	74.707771
486.383148	1142.311401	41869.582031	31117.746094	73.600403
486.736694	1126.382813	39482.562500	30259.875000	75.955147
487.090149	1094.525513	39216.324219	29656.863281	74.923904
487.443604	1155.964600	40570.261719	30890.195313	75.440216
487.796997	1128.658325	42154.023438	32002.923828	75.256531
488.150360	1137.760376	43749.164063	33268.113281	75.403183
488.503693	1074.045776	44529.667969	33959.871094	75.676804
488.856964	1151.413574	43603.531250	33179.367188	75.444893
489.210175	1158.240112	41703.468750	31527.339844	74.901779
489.563416	1180.995239	39086.621094	29404.279297	74.456718
489.916565	1119.556274	36440.191406	27606.619141	74.990334
490.269653	1151.413574	34512.824219	26006.927734	74.503784
490.622772	1144.586914	33174.816406	25215.046875	75.149200
490.975769	1112.729614	33325.003906	25224.148438	74.851646
491.328735	1137.760376	34594.742188	26279.990234	75.147934
491.681732	1153.689087	36667.742188	27620.271484	74.524246
492.034607	1194.648438	39036.558594	29190.380859	73.980759
492.387482	1124.107300	39782.929688	29929.925781	74.512917
492.740326	1137.760376	39100.273438	29531.708984	74.794708
493.093079	1187.821899	36749.660156	27986.630859	75.358330
493.445862	1115.005249	33957.597656	25306.066406	73.657585
493.798523	1071.770264	31388.533203	23651.763672	74.480225
494.151215	1119.556274	29106.187500	21801.765625	73.900314
494.503815	1087.698975	26964.921875	19976.796875	72.995071
494.856384	1142.311401	25442.597656	19077.966797	73.808411
495.208923	1187.821899	24259.328125	18322.494141	74.267677
495.561432	1178.719727	23515.232422	17637.562500	73.685829
495.913879	1165.066650	23048.750000	17464.623047	74.482689
496.266296	1235.607788	23487.925781	17585.224609	73.473770
496.618683	1251.536499	23324.087891	17630.734375	74.206184
496.970978	1151.413574	24104.591797	18140.451172	74.016060
497.323273	1153.689087	24425.439453	18124.523438	72.924614
497.675507	1140.035889	24709.880859	18106.318359	71.983002
498.027710	1192.372925	24316.214844	18575.076172	75.172211
498.379852	1187.821899	24245.673828	18238.298828	73.946510
498.731995	1080.872437	23920.275391	18208.716797	74.992523
499.084076	1101.352051	23738.232422	17696.724609	73.311218
499.436096	1094.525513	23080.607422	17519.234375	74.705032
499.788086	1135.484863	22759.759766	17007.242188	73.397873
500.140106	1144.586914	22413.880859	16832.027344	73.756287
500.491943	1137.760376	21546.906250	16279.076172	74.188873
500.843842	1160.515625	21649.304688	16215.361328	73.478455
501.195679	1128.658325	21137.312500	15946.849609	74.058914
501.547455	1183.270874	20657.177734	15416.653320	73.089508
501.899231	1158.240112	20632.146484	15441.684570	73.346581
502.250885	1080.872437	20236.207031	15423.480469	74.875275
502.602600	1121.831787	20402.320313	15211.856445	73.079185
502.954193	1187.821899	20495.615234	15225.509766	72.704773
503.305786	1124.107300	19992.726563	15170.897461	74.445244
503.657379	1124.107300	20693.585938	15316.530273	72.523254
504.008820	1155.964600	20154.287109	15491.746094	75.458145
504.360291	1133.209351	20770.953125	15769.359375	74.530708
504.711700	1165.066650	20529.748047	15676.062500	74.935371
505.063080	1110.454102	20634.421875	15564.562500	74.032631
505.414368	1078.596802	20566.156250	15252.816406	72.734711
505.765656	1101.352051	20588.912109	15494.021484	73.855675
506.116943	1064.943726	20748.199219	15307.428711	72.358383
506.468109	1115.005249	20340.880859	15330.183594	73.937744
506.819305	1146.862427	20552.503906	15239.163086	72.619614
507.170410	1023.984375	20450.105469	15453.061523	74.276680
507.521484	1158.240112	20181.593750	15387.071289	74.796646
507.872559	1119.556274	20670.830078	15364.316406	72.858475
508.223480	1146.862427	20948.445313	15503.123047	72.500572
508.574493	1126.382813	20786.882813	15739.777344	74.328705
508.925385	1142.311401	21239.710938	15837.625000	73.120468
509.276245	1124.107300	21319.353516	15996.911133	73.645073
509.627045	1076.321289	21694.814453	15983.257813	72.298866
509.977814	1142.311401	21838.173828	16599.923828	74.689384
510.328613	1203.750488	22147.644531	16342.790039	72.283783
510.679260	1067.219238	22143.093750	16752.384766	74.422371
511.029999	1103.627563	22161.296875	16752.384766	74.313812
511.380585	1080.872437	22352.441406	16720.527344	73.523750
511.731140	1103.627563	22800.718750	17004.966797	73.287880
512.081726	1083.147949	22805.269531	17280.304688	74.565262
512.432129	1105.903076	23094.259766	17446.417969	74.314392
512.782654	1121.831787	23285.404297	17548.816406	74.117043
513.133057	1055.841675	23278.578125	17587.500000	74.390739
513.483398	1085.423462	23226.240234	17398.632813	73.679344
513.833801	1110.454102	23260.373047	17359.947266	73.361412
514.183960	1101.352051	22805.269531	16977.660156	73.149506
514.534302	1155.964600	22834.851563	16918.498047	72.709145
514.884460	1158.240112	22802.994141	17068.681641	73.507149
515.234619	1062.668213	22468.492188	16697.771484	73.041351
515.584717	1160.515625	22641.431641	16736.455078	72.510590
515.934753	1119.556274	22643.707031	16954.906250	73.570152
516.284851	1149.138062	22748.380859	17055.029297	73.640968
516.634766	1126.382813	23194.382813	17077.783203	72.282944
516.984741	1121.831787	23303.609375	17366.775391	73.235535
517.334595	1126.382813	24143.275391	17894.695313	72.852196
517.684448	1085.423462	24732.634766	18734.363281	74.634338
518.034363	1064.943726	25954.589844	19291.865234	73.230942
518.384094	1042.188477	26737.369141	20045.062500	73.955017
518.733826	1142.311401	27900.160156	20839.218750	73.611702
519.083496	1085.423462	28473.591797	21410.375000	74.210701
519.433167	1135.484863	28915.042969	21292.048828	72.558983
519.782776	1074.045776	28612.398438	21335.283203	73.574615
520.132324	1176.444214	28029.865234	20764.126953	72.942970
520.481873	1101.352051	27360.861328	20595.738281	74.237434
520.831299	1108.178589	27162.892578	19951.765625	72.323143
521.180786	1076.321289	26350.531250	19476.181641	72.800926
521.530151	1199.199463	25938.662109	19080.242188	72.277412
521.879517	1180.995239	25390.261719	18973.292969	73.493752
522.228882	1083.147949	25151.332031	18996.046875	74.425636
522.578064	1167.342163	25126.300781	18611.484375	72.808434
522.927307	1135.484863	25472.179688	18538.667969	71.510056
523.276489	1103.627563	25560.925781	18773.046875	72.246002
523.625610	1108.178589	25438.046875	18704.781250	72.325104
523.974792	1171.893188	26264.060547	19128.027344	71.560715
524.323792	1099.076538	26710.062500	19787.929688	72.972015
524.672852	1105.903076	27165.167969	20099.675781	72.886833
525.021790	1096.801025	28248.314453	20575.259766	71.739861
525.370728	1058.117188	29233.615234	21920.091797	74.042969
525.719604	1169.617676	30553.417969	22837.126953	73.739639
526.068420	1135.484863	32644.621094	24261.603516	73.394966
526.417297	1096.801025	34030.414063	24998.871094	72.576523
526.765991	1160.515625	34663.007813	25754.343750	73.408951
527.114746	1185.546387	35834.902344	26443.828125	72.896828
527.463379	1160.515625	37136.500000	27367.689453	72.846298
527.812012	1099.076538	38902.304688	28912.767578	73.574913
528.160706	1199.199463	42383.851563	31443.146484	73.434998
528.509155	1169.617676	47483.292969	35484.472656	74.092278
528.857727	1115.005249	52282.367188	39195.847656	74.424088
529.206177	1121.831787	54940.175781	41746.703125	75.485176
529.554565	1142.311401	55174.554688	42290.554688	76.154976
529.902893	1105.903076	54275.722656	41070.875000	75.164772
530.251221	1069.494751	51479.105469	38190.066406	73.637886
530.599548	1115.005249	47713.121094	35275.125000	73.307945
530.947876	1135.484863	43594.425781	32432.998047	73.712418
531.296021	1112.729614	40638.527344	30196.160156	73.580879
531.644165	1174.168701	37584.777344	28127.712891	74.026627
531.992249	1208.301514	35803.042969	26769.226563	73.886734
532.340454	1083.147949	34674.386719	26295.917969	75.057579
532.688354	1108.178589	35291.050781	26341.429688	73.818413
533.036438	1146.862427	36283.179688	26814.736328	73.052261
533.384338	1080.872437	39011.527344	28459.939453	72.181892
533.732239	1108.178589	40265.339844	29766.087891	73.186897
534.080139	1137.760376	40834.222656	30216.640625	73.253082
534.427917	1155.964600	40515.648438	29854.832031	72.914375
534.775757	1112.729614	38656.546875	28751.205078	73.616585
535.123474	1137.760376	37095.539063	27099.177734	72.199730
535.471191	1105.903076	35163.621094	25645.119141	72.051849
535.818848	1074.045776	33934.839844	24935.156250	72.612709
536.166382	1153.689087	32382.937500	24184.234375	73.746719
536.513977	1085.423462	33274.941406	24115.968750	71.546722
536.861511	1162.791138	33434.226563	24352.623047	71.858696
537.208984	1119.556274	33304.523438	24131.898438	71.500282
537.556396	1192.372925	33095.175781	24268.429688	72.332382
537.903809	1135.484863	32223.650391	23699.548828	72.580879
538.251160	1089.974487	31240.625000	23064.679688	72.883018
538.598389	1096.801025	29882.138672	22382.023438	73.944672
538.945740	1119.556274	28824.021484	21387.619141	73.158112
539.292969	1142.311401	28339.335938	21241.986328	73.903946
539.640137	1076.321289	28155.019531	21048.568359	73.756294
539.987244	1044.463989	28550.958984	20918.863281	72.253479
540.334351	1039.912964	29033.369141	21790.386719	74.126160
540.681458	1124.107300	30942.531250	22941.800781	73.168503
541.028442	1096.801025	33534.351563	25007.972656	73.714478
541.375366	1176.444214	36943.082031	27149.238281	72.617378
541.722290	1121.831787	39619.093750	29936.751953	74.849274
542.069153	1176.444214	42015.214844	30815.103516	72.574814
542.416016	1146.862427	42156.296875	31113.195313	73.071800
542.762756	1108.178589	41064.046875	30555.693359	73.700104
543.109558	1180.995239	39605.441406	29570.392578	73.883682
543.456299	1137.760376	37878.320313	27998.007813	73.107895
543.802917	1210.577026	36447.015625	26632.695313	72.147247
544.149536	1135.484863	34667.558594	25638.292969	73.072746
544.496094	1101.352051	32546.773438	24216.091797	73.507492
544.842651	1099.076538	30812.828125	22937.250000	73.495178
545.189148	1167.342163	29743.332031	21831.345703	72.312469
545.535583	1215.128052	28282.447266	21162.343750	73.694832
545.882019	1087.698975	27381.341797	20757.300781	74.807442
546.228333	1183.270874	27265.291016	19885.775391	71.706505
546.574707	1133.209351	27069.595703	20472.861328	74.565712
546.920898	1153.689087	27599.791016	20174.767578	71.923943
547.267212	1110.454102	27458.708984	20174.767578	72.355125
547.613342	1103.627563	27080.972656	20254.410156	73.721092
547.959473	1119.556274	26885.277344	19569.478516	71.606468
548.305664	1112.729614	26543.949219	19605.886719	72.718323
548.651611	1142.311401	25108.095703	18429.443359	72.132553
548.997742	1169.617676	24191.062500	17933.378906	72.818024
549.343689	1160.515625	23535.710938	17241.621094	71.870232
549.689575	1171.893188	22388.849609	16488.423828	72.190041
550.035522	1119.556274	21612.896484	16085.656250	73.029091
550.381287	1128.658325	20616.218750	15619.174805	74.357773
550.727173	1133.209351	20714.066406	15063.947266	71.144676
551.072876	1089.974487	20095.125000	14945.621094	72.904694
551.418640	1108.178589	19815.234375	14679.384766	72.545921
551.764282	1117.280762	19621.816406	14652.078125	73.143135
552.109863	1112.729614	20026.859375	14668.006836	71.667465
552.455505	1121.831787	19908.531250	14570.160156	71.584305
552.801025	1119.556274	20322.675781	15104.907227	72.828537
553.146545	1085.423462	20593.462891	15059.396484	71.631866
553.491943	1101.352051	20880.179688	15264.193359	71.606071
553.837341	1087.698975	20718.617188	15437.132813	73.096092
554.182800	1117.280762	20700.412109	14997.958008	70.880791
554.528015	1055.841675	20149.736328	14718.068359	71.552856
554.873352	1099.076538	20015.480469	14401.771484	70.323593
555.218628	1099.076538	19596.785156	14315.301758	71.447906
555.563721	1133.209351	19296.416016	14340.332031	72.713608
555.908875	1092.250000	18971.017578	14242.484375	73.552238
556.254028	1094.525513	18832.210938	13864.748047	71.994865
556.599121	1192.372925	18465.851563	13471.083008	71.084175
556.944031	1165.066650	18097.216797	13548.451172	73.135338
557.289063	1108.178589	18302.013672	13254.908203	70.645836
557.633972	1146.862427	17985.716797	13316.347656	72.270271
557.978882	1142.311401	18015.298828	13366.409180	72.447731
558.323792	1155.964600	17908.349609	13304.969727	72.521049
558.668518	1160.515625	17667.142578	13022.805664	71.863808
559.013306	1212.852539	17660.316406	13234.428711	73.090752
559.358032	1155.964600	17676.246094	13036.458984	71.914597
559.702637	1126.382813	17710.378906	12995.499023	71.569702
560.047363	1067.219238	17621.632813	12981.845703	71.972511
560.391846	1076.321289	17455.519531	13066.040039	73.200890
560.736450	1146.862427	17512.408203	12824.834961	71.357063
561.080933	1099.076538	17569.296875	12927.233398	71.815414
561.425354	1121.831787	17928.828125	13104.724609	71.297050
561.769775	1064.943726	17928.828125	13036.458984	70.989075
562.114136	1174.168701	18010.748047	13002.326172	70.252731
562.458496	1158.240112	17928.828125	13145.683594	71.478966
562.802673	1126.382813	18158.656250	13116.101563	70.394119
563.146912	1133.209351	17931.103516	13009.152344	70.698997
563.491150	1103.627563	17585.224609	12965.917969	71.972939
563.835266	1142.311401	17539.714844	12986.397461	72.231468
564.179443	1169.617676	17751.337891	12790.702148	70.083702
564.523438	1142.311401	17612.531250	12886.274414	71.304222
564.867493	1101.352051	17628.458984	12858.967773	71.141396
565.211426	1162.791138	18129.074219	13157.061523	70.694748
565.555359	1071.770264	18024.400391	13487.011719	73.234894
565.899231	1089.974487	18468.126953	13464.256836	71.205971
566.243042	1149.138062	19139.406250	14253.862305	72.843414
566.586914	1144.586914	19542.171875	14196.974609	70.946198
566.930603	1087.698975	19894.878906	14797.711914	72.897758
567.274292	1099.076538	19965.419922	14526.924805	71.173561
567.617981	1094.525513	19954.041016	14481.414063	70.982147
567.961609	1165.066650	19665.050781	14194.699219	70.430504
568.305237	1133.209351	19423.845703	14167.392578	71.261505
568.648682	1071.770264	18875.445313	13789.656250	71.434044
568.992188	1128.658325	18531.841797	13548.451172	71.365067
569.335632	1076.321289	18513.636719	13434.674805	70.873024
569.679016	1135.484863	18495.433594	13475.633789	71.084015
570.022461	1142.311401	18245.125000	13307.246094	71.128258
570.365662	1130.933838	18504.535156	13345.929688	70.307793
570.708984	1110.454102	18208.716797	13600.788086	73.050316
571.052185	1099.076538	18481.779297	13455.154297	71.082603
571.395386	1089.974487	18595.556641	13532.522461	71.077599
571.738525	1103.627563	19339.650391	14033.136719	70.900925
572.081604	1133.209351	19569.478516	14274.341797	71.278694
572.424683	1153.689087	19792.480469	14663.456055	72.481987
572.767578	1099.076538	20115.603516	14759.028320	71.832001
573.110596	1087.698975	19899.429688	14706.691406	72.396278
573.453552	1115.005249	19853.919922	14422.250977	71.013969
573.796387	1133.209351	19369.232422	14126.433594	71.250320
574.139282	1096.801025	19578.580078	14142.361328	70.586067
574.481995	1178.719727	19200.843750	14196.974609	72.234848
574.824768	1101.352051	19157.609375	13921.636719	71.001892
575.167480	1094.525513	19023.353516	14012.657227	72.052292
575.510132	1103.627563	18918.679688	13962.595703	72.180351
575.852722	1117.280762	18977.843750	13746.420898	70.709648
576.195251	1144.586914	18927.781250	13960.320313	72.066536
576.537842	1140.035889	18695.679688	13639.471680	71.198959
576.880188	1149.138062	18390.759766	13416.470703	71.149536
577.222717	1103.627563	17937.929688	13177.541016	71.722084
577.565063	1083.147949	17476.000000	12749.743164	71.168800
577.907410	1165.066650	17466.898438	12583.629883	70.044662
578.249756	1128.658325	17095.988281	12367.455078	70.386200
578.591919	1117.280762	16431.535156	12085.291016	71.619614
578.934204	1124.107300	16374.647461	11700.727539	69.352432
579.276306	1130.933838	16097.034180	11775.820313	71.126656
579.618469	1083.147949	15471.265625	11602.880859	73.114029
579.960571	1124.107300	15482.643555	11204.664063	70.206017
580.302551	1089.974487	15268.744141	11168.255859	71.080086
580.644531	1126.382813	15102.631836	11250.174805	72.435684
580.986511	1112.729614	14763.579102	11022.623047	72.595436
581.328369	1085.423462	14827.293945	10876.989258	71.253517
581.670227	1183.270874	14733.997070	10783.693359	70.848030
582.012024	1144.586914	14688.486328	10706.325195	70.598122
582.353821	1201.474976	14658.905273	10724.529297	70.764282
582.695496	1112.729614	14447.281250	10419.609375	69.795219
583.037231	1158.240112	14545.128906	10549.314453	70.151283
583.378845	1206.026001	14531.475586	10790.519531	71.926231
583.720398	1169.617676	14249.311523	10401.405273	70.581070
584.062012	1155.964600	14526.924805	10301.282227	68.396866
584.403442	1140.035889	14069.544922	10496.977539	72.368889
584.744934	1155.964600	14026.310547	10512.906250	72.701553
585.086365	1115.005249	14217.454102	10371.824219	70.649536
585.427734	1112.729614	14235.658203	10481.048828	71.388939
585.768982	1231.056763	14231.107422	10453.742188	70.943459
586.110291	1126.382813	14003.554688	10164.750977	70.189079
586.451599	1130.933838	13896.605469	10037.322266	69.768272
586.792725	1174.168701	14146.913086	10053.250977	68.444130
587.133850	1046.739624	13960.320313	10010.015625	69.409691
587.474915	1126.382813	14237.933594	10146.546875	68.795555
587.815979	1103.627563	14028.585938	10239.843750	70.686623
588.157043	1171.893188	14078.647461	10289.905273	70.645271
588.497925	1103.627563	14046.790039	10444.640625	72.169479
588.838867	1103.627563	14283.444336	10385.476563	70.424721
589.179749	1174.168701	14231.107422	10592.549805	72.133148
589.520569	1178.719727	14551.955078	10522.007813	69.865578
589.861450	1160.515625	14724.895508	10649.437500	69.954704
590.202087	1124.107300	14472.312500	10531.110352	70.473915
590.542847	1169.617676	14840.946289	10817.826172	70.572578
590.883484	1137.760376	14772.680664	10792.794922	70.811081
591.224121	1194.648438	14504.169922	10847.407227	72.525215
591.564636	1094.525513	14820.466797	10735.907227	70.242043
591.905151	1037.637451	14292.545898	10408.232422	70.695282
592.245667	1051.290649	14328.954102	10371.824219	70.197090
592.585999	1142.311401	14410.873047	10435.538086	70.039444
592.926453	1105.903076	14035.412109	10080.557617	69.412186
593.266724	1126.382813	14215.178711	10230.741211	69.558411
593.607056	1121.831787	14235.658203	10287.629883	69.894157
593.947388	1117.280762	14328.954102	10278.527344	69.342056
594.287476	1089.974487	14292.545898	10376.375000	70.337814
594.627686	1121.831787	14465.485352	10590.273438	70.958389
594.967773	1187.821899	14479.138672	10738.182617	71.854134
595.307861	1178.719727	14845.498047	10585.722656	68.831169
595.647888	1115.005249	14863.702148	10831.479492	70.671967
595.987854	1158.240112	15132.212891	10867.887695	69.483803
596.327820	1110.454102	15311.979492	11170.531250	70.838005
596.667725	1099.076538	15637.378906	11480.002930	71.403976
597.007568	1212.852539	16265.422852	11944.208984	71.292519
597.347351	1169.617676	16731.904297	12142.178711	70.507378
597.687073	1085.423462	17212.039063	12435.720703	70.382385
598.026794	1133.209351	16802.445313	12249.128906	70.941048
598.366455	1151.413574	16513.455078	12076.188477	71.115387
598.706116	1146.862427	16147.095703	11646.115234	69.993927
599.045654	1169.617676	15664.685547	11357.124023	70.282562
599.385193	1155.964600	15022.988281	10883.816406	70.150970
599.724731	1171.893188	14426.801758	10462.844727	70.094421
600.064087	1083.147949	14454.108398	10285.354492	68.822334
600.403564	1105.903076	13992.177734	10196.608398	70.545639
600.742920	1085.423462	13782.829102	9850.729492	69.032257
601.082153	1130.933838	13744.145508	9830.250000	68.969872
601.421387	1151.413574	13430.124023	9962.230469	71.756851
601.760620	1055.841675	13512.042969	9727.851563	69.620018
602.099854	1064.943726	13703.186523	9766.535156	68.851280
602.438843	1149.138062	13628.093750	9955.403320	70.568932
602.778015	1149.138062	13999.003906	10178.404297	70.267395
603.117065	1089.974487	14080.922852	10392.303711	71.606239
603.456055	1060.392700	14711.242188	10558.416992	69.578262
603.794983	1096.801025	14838.670898	10576.621094	68.984940
604.133850	1133.209351	15560.011719	11109.092773	69.148262
604.472778	1142.311401	15817.145508	11584.676758	71.158318
604.811584	1183.270874	16552.138672	11789.473633	69.010956
605.150330	1119.556274	16811.546875	12014.750000	69.431557
605.489075	1130.933838	17082.333984	12410.690430	70.713272
605.827698	1094.525513	16731.904297	12174.036133	70.852737
606.166382	1119.556274	16652.261719	11982.892578	69.938469
606.504883	1124.107300	16165.299805	11691.625977	70.257187
606.843445	976.198425	15616.899414	11227.419922	70.018654
607.181946	1140.035889	15318.805664	10888.367188	68.753014
607.520386	1165.066650	14349.434570	10667.641602	72.074562
607.858826	1162.791138	14301.648438	10383.201172	70.176651
608.197083	1149.138062	13958.044922	10267.149414	71.184929
608.535461	1085.423462	13776.002930	10164.750977	71.543839
608.873718	1146.862427	13821.513672	10069.179688	70.394974
609.211914	1146.862427	14404.046875	10408.232422	69.859253
609.550171	1080.872437	14615.669922	10749.560547	71.435783
609.888245	1144.586914	14986.580078	10804.172852	69.784645
610.226318	1092.250000	15396.173828	11004.418945	69.296852
610.564392	1190.097412	15530.429688	11411.737305	71.278961
610.902344	1144.586914	15177.723633	11109.092773	71.006973
611.240295	1133.209351	15054.845703	11040.827148	71.167053
611.578247	1101.352051	14338.056641	10810.999023	73.353951
611.916138	1089.974487	14476.863281	10615.304688	71.154175
612.253845	1146.862427	13826.064453	10371.824219	72.756645
612.591675	1117.280762	13537.073242	10050.975586	71.931114
612.929382	1160.515625	13461.981445	9996.363281	71.827599
613.267090	1142.311401	12990.948242	9582.217773	71.231033
613.604736	1144.586914	12947.712891	9338.737305	69.423561
613.942261	1133.209351	12485.782227	9343.288086	72.319099
614.279785	1046.739624	12474.405273	9202.206055	71.365982
614.617310	1130.933838	12137.627930	9031.541992	71.780029
614.954712	1085.423462	12267.333008	8904.113281	69.922676
615.292175	1178.719727	12078.464844	8806.265625	69.979118
615.629517	1187.821899	11969.239258	8945.072266	71.950195
615.966797	1183.270874	12060.259766	8781.234375	69.853554
616.304138	1103.627563	11980.617188	8544.581055	68.410049
616.641296	1119.556274	11932.831055	8576.437500	68.960434
616.978516	1130.933838	12060.259766	8769.857422	69.893822
617.315552	1201.474976	11989.718750	8712.968750	69.626656
617.652771	1235.607788	11841.810547	8669.734375	70.092247
617.989685	1124.107300	12094.392578	8808.541016	70.047714
618.326721	1121.831787	11855.462891	8751.653320	71.083321
618.663696	1142.311401	12078.464844	8835.847656	70.349564
619.000549	1103.627563	12101.219727	8631.050781	68.446106
619.337463	1142.311401	11989.718750	8863.153320	71.176842
619.674194	1162.791138	11960.137695	8687.938477	69.694412
620.010986	1171.893188	11828.157227	8624.223633	69.933807
620.347778	1033.086426	11966.963867	8526.375977	68.532776
620.684387	1110.454102	11878.218750	8485.416992	68.491119
621.020996	1101.352051	11534.615234	8439.906250	70.338051
621.357605	1117.280762	11923.728516	8383.018555	67.235214
621.694214	1087.698975	11439.042969	8535.478516	71.949883
622.030579	1094.525513	11439.042969	8492.243164	71.513412
622.367065	1128.658325	11484.553711	8474.039063	70.929459
622.703430	1144.586914	11468.625000	8344.334961	69.737717
623.039795	1051.290649	11532.339844	8462.662109	70.712120
623.376160	1035.361938	11386.706055	8326.130859	70.433067
623.712402	1099.076538	11461.797852	8285.170898	69.345627
624.048645	1151.413574	11464.074219	8203.252930	68.380409
624.384766	1115.005249	11131.847656	8194.150391	70.672417
624.720886	1019.433350	11361.675781	8232.833984	69.746971
625.057007	1094.525513	11361.675781	8075.823242	67.996452
625.392944	1153.689087	11429.941406	8489.967773	71.390610
625.729004	1096.801025	11468.625000	8301.099609	69.460289
626.064941	1140.035889	11618.809570	8576.437500	70.966331
626.400818	1151.413574	11903.249023	8471.763672	68.084656
626.736633	1110.454102	12087.566406	8687.938477	69.029854
627.072449	1128.658325	12210.444336	8897.286133	70.102669
627.408264	1085.423462	12503.986328	8997.409180	69.290558
627.743896	1028.535400	12376.557617	9052.021484	70.703827
628.079590	1142.311401	12613.211914	9099.807617	69.371155
628.415161	1162.791138	12365.179688	8810.816406	68.271378
628.750793	1162.791138	12296.914063	8910.939453	69.589211
629.086365	1151.413574	12055.708984	8751.653320	69.699509
629.421753	1155.964600	11778.095703	8628.774414	70.351326
629.757263	1133.209351	11693.901367	8437.630859	69.166122
630.092651	1146.862427	11607.431641	8241.936523	67.826843
630.427917	1185.546387	11275.206055	8235.109375	69.869179
630.763184	1167.342163	11077.235352	8285.170898	71.825478
631.098511	1144.586914	11245.624023	8082.649902	68.686638
631.433716	1067.219238	10911.122070	7850.546875	68.908928
631.768799	1128.658325	10931.601563	7871.026367	68.779015
632.103943	1142.311401	10745.008789	7727.668457	68.578201
632.438965	1089.974487	10380.925781	7811.862793	72.348763
632.773987	1099.076538	10471.946289	7723.117676	70.672493
633.109070	1087.698975	10606.202148	7652.576660	68.969650
633.443848	1074.045776	10362.721680	7604.790527	70.308670
633.778870	1176.444214	10658.539063	7700.362305	68.802498
634.113708	1194.648438	10704.049805	7572.933105	67.073463
634.448425	1121.831787	10683.570313	7704.913574	68.848175
634.783264	1142.311401	10487.875000	7768.627930	70.903336
635.117859	1119.556274	10547.039063	7700.362305	69.804489
635.452576	1064.943726	10567.518555	7739.046387	70.234673
635.787170	1126.382813	10430.987305	7645.750000	70.066032
636.121704	1089.974487	10253.497070	7450.055176	69.406502
636.456177	1137.760376	10351.343750	7463.708008	68.658936
636.790588	1135.484863	10141.996094	7434.126465	69.934311
637.125122	1069.494751	9987.260742	7204.298828	68.793060
637.459412	1167.342163	9891.688477	7133.757813	68.388107
637.793762	1140.035889	9868.933594	7022.257324	67.387909
638.128052	1099.076538	9443.411133	7133.757813	72.320694
638.462280	1206.026001	9602.698242	7124.655762	70.487808
638.796509	1162.791138	9736.953125	7010.879395	68.205948
639.130615	1124.107300	9520.779297	6806.082520	67.669373
639.464722	1137.760376	9306.879883	6758.296875	68.802231
639.798767	1133.209351	9318.257813	6935.787598	70.892410
640.132751	1160.515625	9482.094727	6685.479980	66.393219
640.466736	1076.321289	9095.256836	6685.479980	69.948921
640.800598	1121.831787	9143.042969	6603.561523	68.340424
641.134521	1071.770264	9088.429688	6599.010254	68.946930
641.468262	1119.556274	9092.981445	6419.244141	66.466888
641.802063	1021.708862	8972.378906	6441.999512	68.174011
642.135803	1117.280762	8954.174805	6619.490234	70.209061
642.469421	1162.791138	8692.489258	6471.581055	70.504684
642.803101	1074.045776	8840.398438	6350.978516	67.946083
643.136658	1119.556274	8753.928711	6441.999512	69.716843
643.470215	1149.138062	8758.479492	6457.928223	69.766747
643.803711	1221.954712	8621.948242	6364.631836	69.495697
644.137085	1137.760376	8535.478516	6303.192383	69.824669
644.470581	1117.280762	8742.550781	6517.091797	70.814690
644.803833	1103.627563	8464.937500	6341.876465	71.159195
645.137207	1160.515625	8692.489258	6330.499023	68.640488
645.470459	1105.903076	8560.508789	6262.233398	69.169724
645.803589	1128.658325	8585.540039	6312.294922	69.514801
646.136780	1110.454102	8644.703125	6303.192383	68.921776
646.469849	1137.760376	8849.500000	6259.957520	66.420776
646.802979	1140.035889	8642.427734	6246.304688	68.061874
647.135986	1219.679199	8546.856445	6398.764648	70.683228
647.468994	1094.525513	8756.204102	6371.458008	68.874367
647.801941	1167.342163	8706.142578	6325.947754	68.427406
648.134766	1190.097412	8697.040039	6337.325195	68.566231
648.467651	1149.138062	8756.204102	6439.723633	69.548309
648.800354	1071.770264	8699.316406	6391.937988	69.749405
649.133179	1140.035889	8758.479492	6382.835938	68.817207
649.465881	1108.178589	8549.131836	6376.009277	70.795105
649.798462	1101.352051	8715.245117	6230.375977	67.364014
650.131104	1078.596802	8640.152344	6196.243164	67.679810
650.463623	1240.158813	8694.764648	6437.448242	69.719170
650.796143	1144.586914	8496.794922	6171.212402	68.368927
651.128662	1108.178589	8694.764648	6284.988281	68.236351
651.461060	1144.586914	8617.397461	6316.845703	69.214371
651.793396	1064.943726	8710.693359	6319.121094	68.720238
652.125732	1089.974487	8715.245117	6455.652344	70.367050
652.458008	1076.321289	8599.193359	6246.304688	68.723534
652.790222	1069.494751	8744.826172	6305.468262	68.218208
653.122437	1099.076538	8580.989258	6291.814941	69.403885
653.454529	1144.586914	8628.774414	6432.897461	70.659782
653.786621	1099.076538	8683.387695	6278.162109	68.286827
654.118713	1162.791138	8569.611328	6127.977539	67.035332
654.450623	1096.801025	8590.090820	6257.682129	68.873360
654.782654	1162.791138	8499.070313	6159.834961	68.114143
655.114502	1140.035889	8417.151367	6098.395508	68.136330
655.446350	1201.474976	8351.161133	5909.527344	65.849777
655.778198	1178.719727	8239.661133	5973.242188	67.902031
656.109863	1124.107300	8262.416016	6064.262695	69.206245
656.441650	1180.995239	8278.344727	6052.885254	68.643799
656.773254	1171.893188	8244.211914	6107.498047	69.787651
657.104919	1140.035889	8205.528320	6123.426270	70.531403
657.436462	1135.484863	8112.231445	6159.834961	72.015663
657.767944	1042.188477	8328.406250	6121.150879	69.706429
658.099548	1044.463989	8362.539063	6296.366211	71.766174
658.430908	1069.494751	8367.089844	6282.712891	71.437485
658.762268	1119.556274	8512.723633	6364.631836	70.944908
659.093628	1037.637451	8867.704102	6455.652344	69.195000
659.424927	1094.525513	9081.603516	6690.031250	70.056984
659.756226	1119.556274	9586.769531	7035.910156	69.873688
660.087341	1092.250000	9743.780273	6994.951172	68.227249
660.418518	1103.627563	9686.891602	7245.258301	71.553558
660.749573	1140.035889	9627.728516	7076.869629	69.946388
661.080627	1140.035889	9527.605469	6949.440430	69.262070
661.411621	1119.556274	9552.636719	6799.256348	67.350243
661.742554	1089.974487	9104.358398	6781.051758	71.010788
662.073547	1099.076538	9038.368164	6592.183594	69.188881
662.404297	1151.413574	8956.450195	6369.182617	66.851311
662.735229	1153.689087	8631.050781	6291.814941	68.715759
663.065979	1094.525513	8378.467773	6205.345215	70.165573
663.396667	1135.484863	8264.691406	6068.813965	69.198853
663.727417	1119.556274	8028.037598	6055.160645	71.442680
664.057922	1151.413574	7952.945313	5798.026855	68.317162
664.388611	1124.107300	7927.914551	5866.292480	69.698990
664.719116	1133.209351	7805.036133	5672.873535	68.042297
665.049622	1146.862427	7661.678711	5629.638672	68.808945
665.380005	1083.147949	7659.402832	5602.332031	68.719719
665.710388	1053.566162	7545.626953	5647.842773	70.767616
666.040771	1115.005249	7679.882813	5827.608887	71.785095
666.371033	1149.138062	7538.800293	5611.434082	69.836182
666.701294	1171.893188	7520.596191	5522.688965	68.530464
667.031555	1130.933838	7627.545898	5552.270996	68.056038
667.361633	1128.658325	7345.381348	5590.954590	71.778915
667.691772	1149.138062	7516.045410	5575.025879	69.513931
668.021790	1064.943726	7616.167969	5490.831543	67.558182
668.351807	1133.209351	7477.361328	5652.393555	71.233856
668.681763	1130.933838	7531.973633	5641.016113	70.458580
669.011719	1126.382813	7493.290039	5638.740723	70.872055
669.341614	1112.729614	7720.842285	5549.995117	67.148758
669.671387	1130.933838	7634.372070	5520.413574	67.494751
670.001221	1142.311401	7593.413086	5631.914063	69.594353
670.330933	1101.352051	7486.463379	5579.577148	70.135429
670.660583	1117.280762	7634.372070	5490.831543	67.108940
670.990173	1146.862427	7468.259277	5768.445313	73.110153
671.319763	1146.862427	7399.993652	5443.045898	68.704514
671.649292	1146.862427	7297.595215	5427.117188	69.589348
671.978821	1071.770264	7577.484375	5308.790039	65.127663
672.308289	1110.454102	7377.238281	5431.667969	68.954247
672.637695	1149.138062	7231.604980	5415.739746	70.145905
672.966980	1092.250000	7202.023438	5311.065430	69.050278
673.296326	1194.648438	7067.767578	5283.759277	69.624176
673.625610	1087.698975	7242.982910	5367.953613	69.537895
673.954773	1110.454102	7076.869629	5329.269531	70.709381
674.283936	1187.821899	7154.237305	5240.524414	67.925247
674.613037	1126.382813	6958.542480	5386.157715	73.039406
674.942078	1121.831787	6901.654785	5149.503418	69.685028
675.271118	1108.178589	7074.594238	5247.351074	69.374527
675.600098	1096.801025	6992.675293	5108.544434	68.043236
675.928955	1135.484863	7095.073730	5090.339844	66.361206
676.257813	1155.964600	6935.787598	5099.441895	68.228340
676.586670	1096.801025	6988.124512	5103.993164	68.018539
676.915466	1110.454102	6922.134277	5058.482910	67.932655
677.244141	1203.750488	6897.103516	5265.555176	71.342926
677.572876	1103.627563	6862.970703	5133.574707	69.972343
677.901489	1110.454102	6892.552734	5106.268555	69.106644
678.230042	1087.698975	6906.205566	5226.871094	71.138046
678.558594	1064.943726	7022.257324	5154.054688	68.640182
678.887085	1092.250000	7133.757813	5279.208496	69.303207
679.215515	1092.250000	7067.767578	5263.279785	69.801987
679.543945	1137.760376	7231.604980	5156.330078	65.944733
679.872253	1140.035889	7270.289063	5356.576172	68.782478
680.200562	1064.943726	7279.391113	5317.892090	68.436470
680.528809	1174.168701	7404.544922	5536.342285	70.014618
680.856995	1140.035889	7670.780762	5513.586914	66.968636
681.185120	1162.791138	7668.504883	5727.485840	70.164398
681.513306	1112.729614	7827.791504	5757.067871	69.163002
681.841309	1064.943726	7784.556641	5670.597656	68.540466
682.169373	1180.995239	7531.973633	5641.016113	70.225731
682.497314	1194.648438	7661.678711	5529.515625	67.030258
682.825134	1128.658325	7593.413086	5454.423340	66.913055
683.153076	1101.352051	7388.616211	5470.352051	69.489685
683.480896	1087.698975	7322.625977	5504.484863	70.839424
683.808655	1169.617676	7247.533691	5379.331055	69.262444
684.136414	1062.668213	7038.186035	5174.534180	68.811882
684.464050	1121.831787	7022.257324	5249.626465	69.957581
684.791626	1037.637451	6765.123535	5142.677246	71.672630
685.119263	1069.494751	6853.868652	5003.870117	68.017311
685.446838	1167.342163	6614.938965	5022.074219	70.760231
685.774292	1101.352051	6610.387695	4849.134766	68.029739
686.101685	1149.138062	6576.254883	4885.542969	68.846962
686.429077	1137.760376	6662.725098	4787.695801	66.062599
686.756348	1176.444214	6539.846680	4946.982422	70.301231
687.083679	1069.494751	6373.733887	4853.686035	71.342773
687.410950	1101.352051	6412.417480	5049.380859	74.335907
687.738159	1212.852539	6655.898438	4837.757324	66.596992
688.065308	1094.525513	6592.183594	4849.134766	68.294701
688.392395	1185.546387	6628.592285	4960.635254	69.356186
688.719421	1160.515625	6696.857910	4919.675781	67.899704
689.046448	1178.719727	6635.418457	4987.941406	69.808174
689.373413	1158.240112	6558.050781	4917.400391	69.616516
689.700317	1103.627563	6535.295898	4997.043457	71.679924
690.027100	1142.311401	6348.703125	4778.593750	69.842659
690.353943	1117.280762	6498.887207	4906.022949	70.401695
690.680725	1103.627563	6462.479004	4774.042480	68.492569
691.007446	1108.178589	6205.345215	4721.705566	70.892853
691.334106	1069.494751	6173.487793	4551.041504	68.212219
691.660645	1108.178589	6096.120117	4423.612305	66.468979
691.987244	1151.413574	6139.354980	4512.357910	67.381393
692.313721	1062.668213	6034.681152	4403.132813	67.185356
692.640259	1096.801025	5907.251953	4441.816406	69.536415
692.966675	1103.627563	5875.394531	4414.510254	69.384834
693.293030	1117.280762	5934.558105	4373.550781	67.595650
693.619324	1126.382813	5850.363770	4343.969238	68.111755
693.945618	1133.209351	5820.782227	4389.479492	69.466019
694.271851	1099.076538	5750.241211	4364.448730	70.205475
694.598083	1121.831787	5631.914063	4230.193359	68.920288
694.924194	1128.658325	5759.343262	4214.264648	66.633911
695.250244	1169.617676	5804.853516	4189.233887	65.144821
695.576294	1101.352051	5802.578125	4287.081055	67.763794
695.902283	1121.831787	5641.016113	4196.060547	68.026184
696.228210	1101.352051	5666.046875	4107.314941	65.852440
696.554138	1096.801025	5825.333008	4193.784668	65.495667
696.879944	1108.178589	5745.689941	4378.102051	70.510307
697.205750	1071.770264	5882.221191	4314.387207	67.407753
697.531433	1044.463989	5923.180664	4371.275391	68.190300
697.857178	1049.015137	5886.772461	4530.562012	71.966133
698.182739	1130.933838	6057.436523	4548.766113	69.376442
698.508423	1092.250000	6464.754395	4789.971191	68.826767
698.833984	1126.382813	6742.368164	5008.421387	69.124802
699.159485	1103.627563	6969.920410	5138.125977	68.774239
699.484924	1160.515625	7124.655762	5213.218262	67.951164
699.810303	1078.596802	7279.391113	5345.198242	68.807335
700.135681	1110.454102	7058.665527	5272.381836	69.969398
700.460999	1183.270874	7129.206543	5274.657227	68.809799
700.786255	1165.066650	7008.604004	5185.912109	68.808418
701.111450	1192.372925	6826.562500	5001.594727	67.609047
701.436646	1085.423462	6796.980469	4853.686035	65.976097
701.761719	1137.760376	6416.968750	4803.624512	69.439659
702.086792	1149.138062	6123.426270	4519.184082	67.749313
702.411865	1101.352051	6039.232422	4400.857422	66.820274
702.736816	1140.035889	5848.088379	4303.009766	67.182213
703.061646	1105.903076	5752.516602	4130.070313	65.083260
703.386536	1105.903076	5518.138184	4227.917480	70.758110
703.711365	1137.760376	5540.893066	4145.999023	68.320419
704.036194	1074.045776	5404.361816	4050.427002	68.733582
704.360901	1165.066650	5286.034668	3954.855225	67.697411
704.685547	1108.178589	5142.677246	3991.263428	71.460800
705.010132	1146.862427	5124.472656	3932.099854	70.022881
705.334717	1042.188477	5097.166504	3884.313965	70.089790
705.659302	1092.250000	5060.758301	3816.048340	68.635323
705.983765	1101.352051	5081.237793	3820.599365	68.324760
706.308228	1108.178589	5017.523438	3788.742188	68.568100
706.632568	1165.066650	5063.033691	3777.364502	67.016930
706.956909	1046.739624	5056.207031	3777.364502	68.104431
707.281189	1099.076538	5049.380859	3831.977051	69.182022
707.605408	1128.658325	4983.390625	3847.905762	70.543098
707.929626	1151.413574	4937.880371	3765.986816	69.050476
708.253784	1149.138062	5138.125977	3779.640137	65.944099
708.577820	1137.760376	4960.635254	3841.079102	70.714287
708.901855	1094.525513	4969.737305	3763.711426	68.878456
709.225830	1076.321289	5022.074219	3838.803711	70.011543
709.549805	1158.240112	5058.482910	3872.936523	69.603264
709.873718	1174.168701	5035.727539	3793.293213	67.825577
710.197510	1117.280762	5088.064453	3884.313965	69.684814
710.521362	1110.454102	5088.064453	3795.568604	67.505722
710.845093	1158.240112	5279.208496	3884.313965	66.151291
711.168701	1174.168701	5304.238770	3922.997803	66.556473
711.492432	1153.689087	5392.984375	3979.885986	66.666664
711.816040	1167.342163	5443.045898	4120.968262	69.079300
712.139587	1146.862427	5370.229004	4120.968262	70.420265
712.463074	1158.240112	5322.443359	4116.416992	71.038246
712.786499	1146.862427	5440.770020	4061.804688	67.885536
713.109924	1194.648438	5365.678223	3929.824463	65.575554
713.433350	1103.627563	5299.687988	4054.978027	70.336227
713.756592	1085.423462	5197.289551	3968.508301	70.116219
714.079834	1085.423462	5179.085449	3845.630127	67.426338
714.403015	1151.413574	5078.962402	3902.518066	70.046349
714.726196	1126.382813	5099.441895	3879.762939	69.301262
715.049255	1051.290649	5147.228027	3891.140625	69.333336
715.372375	1176.444214	5038.002930	3913.895752	70.889816
715.695435	1155.964600	5106.268555	3738.680664	65.380188
716.018311	1126.382813	5001.594727	3822.875000	69.583092
716.341248	1140.035889	5103.993164	3804.670898	67.221588
716.664063	1096.801025	5154.054688	3722.751953	64.722374
716.987000	1178.719727	5042.554199	3627.180176	63.368668
717.309692	1165.066650	4865.063477	3843.354736	72.386223
717.632385	1153.689087	4972.013184	3704.547852	66.805717
717.955078	1064.943726	4956.084473	3686.343750	67.368416
718.277649	1135.484863	4776.318359	3661.312988	69.375000
718.600220	1130.933838	4751.287598	3563.465576	67.190445
718.922791	1194.648438	4803.624512	3611.251465	66.960907
719.245300	1183.270874	4610.205078	3529.332764	68.459503
719.567688	1119.556274	4553.316895	3306.331787	63.684559
719.890015	1105.903076	4532.837402	3404.179199	67.065079
720.212341	1119.556274	4505.531250	3297.229736	64.314514
720.534607	1185.546387	4341.693848	3319.984863	67.627968
720.856873	1115.005249	4246.121582	3413.281250	73.401169
721.179016	1101.352051	4257.499512	3354.117676	71.377068
721.501160	1085.423462	4223.366699	3310.882813	70.920959
721.823242	1135.484863	4277.979004	3276.750000	68.139030
722.145264	1069.494751	4189.233887	3203.933350	68.417206
722.467224	1174.168701	4227.917480	3235.790527	67.511177
722.789185	1115.005249	4205.162598	3137.943115	65.463913
723.111023	1117.280762	4105.039551	3142.494141	67.783699
723.432861	1099.076538	4091.386475	3219.861816	70.874512
723.754578	1099.076538	4080.008789	3012.789551	64.198479
724.076294	1140.035889	4041.324951	3181.177979	70.352936
724.397949	1089.974487	3948.028564	3122.014648	71.098724
724.719666	1099.076538	4132.345703	3058.300049	64.591156
725.041260	1135.484863	4093.661865	3092.432861	66.153854
725.362732	1142.311401	4105.039551	3062.851074	64.823357
725.684265	1103.627563	4102.764160	3197.106689	69.802719
726.005676	1149.138062	4086.835449	3160.698486	68.474052
726.327087	1074.045776	4234.744141	3078.779541	63.426926
726.648438	1049.015137	4045.875977	3188.004639	71.374336
726.969666	1112.729614	4029.947266	3213.035400	71.996880
727.290894	1171.893188	4234.744141	3199.382324	66.196136
727.612061	1115.005249	4105.039551	3140.218750	67.732117
727.933228	1176.444214	4227.917480	3158.422852	64.951538
728.254395	1101.352051	4218.815430	3188.004639	66.934311
728.575378	1190.097412	4221.091309	3313.158203	70.045036
728.896301	1105.903076	4373.550781	3301.780762	67.200562
729.217285	1101.352051	4446.367676	3329.086914	66.598640
729.538147	1158.240112	4444.092285	3188.004639	61.772854
729.858948	1110.454102	4250.672852	3263.096924	68.550728
730.179810	1165.066650	4287.081055	3274.474365	67.565598
730.500549	1067.219238	4175.580566	3263.096924	70.644226
730.821228	1074.045776	4314.387207	3231.239502	66.573044
731.141846	1135.484863	4414.510254	3244.892578	64.330322
731.462402	1049.015137	4362.173340	3322.260254	68.612633
731.782898	1210.577026	4425.888184	3399.628174	68.082100
732.103455	1140.035889	4510.082031	3329.086914	64.956116
732.423889	1137.760376	4412.234863	3317.709229	66.573997
732.744263	1094.525513	4453.194336	3315.433838	66.124657
733.064636	1151.413574	4434.990234	3463.342773	70.408867
733.384888	1069.494751	4364.448730	3390.525879	70.441994
733.705200	1094.525513	4357.622559	3322.260254	68.270561
734.025330	1217.403687	4432.714355	3390.525879	67.586693
734.345520	1101.352051	4382.652832	3345.015625	68.377258
734.665527	1058.117188	4341.693848	3335.913574	69.369370
734.985596	1137.760376	4362.173340	3194.831299	63.796753
735.305542	1044.463989	4214.264648	3249.443604	69.562088
735.625549	1051.290649	4080.008789	3222.137451	71.675423
735.945435	1108.178589	4341.693848	3149.320801	63.124561
736.265259	1119.556274	4143.723145	3135.667725	66.666672
736.585083	1151.413574	3982.161377	2996.860840	65.192924
736.904785	1058.117188	4025.396240	3056.024414	67.331291
737.224426	1151.413574	3963.957275	3119.739014	69.983818
737.544128	1110.454102	3959.406250	3024.167236	67.172523
737.863708	1087.698975	4016.294189	3019.616211	65.967369
738.183289	1103.627563	3861.558838	3131.116699	73.514854
738.502808	1137.760376	4068.631104	3110.636963	67.313667
738.822205	1151.413574	4011.743164	3090.157227	67.780426
739.141541	1133.209351	3888.864990	3087.881836	70.933113
739.460938	1178.719727	4107.314941	3192.555664	68.764572
739.780212	1094.525513	4136.896973	3203.933350	69.334320
740.099426	1219.679199	4130.070313	3181.177979	67.396400
740.418640	1119.556274	4004.916504	3253.994629	73.974762
740.737793	1083.147949	4045.875977	3056.024414	66.589859
741.056885	1089.974487	4020.845215	3192.555664	71.739128
741.375977	1101.352051	4109.590332	3017.340576	63.691383
741.694946	1151.413574	4155.101074	3065.126465	63.712116
742.013855	1160.515625	3988.988037	3058.300049	67.095741
742.332703	1117.280762	4016.294189	3003.687500	65.070648
742.651550	1171.893188	3827.426025	3053.749023	70.865471
742.970398	1112.729614	3745.507324	2835.298828	65.427826
743.289124	1119.556274	3850.181152	2862.605225	63.833332
743.607788	1180.995239	3684.068115	2878.533936	67.818192
743.926453	1083.147949	3829.701416	2894.462402	65.948631
744.245056	1194.648438	3788.742188	2894.462402	65.526314
744.563599	1162.791138	3686.343750	2839.849854	66.456261
744.882141	1108.178589	3702.272461	2942.248291	70.701752
745.200500	1044.463989	3624.904541	2844.401123	69.753098
745.518860	1176.444214	3636.282227	2821.645752	66.882515
745.837219	1133.209351	3615.802490	2739.727051	64.711273
746.155518	1069.494751	3704.547852	2760.206787	64.162346
746.473755	1155.964600	3583.945313	2771.584229	66.541702
746.791992	1155.964600	3538.434814	2698.767578	64.756447
747.110107	1110.454102	3579.394287	2712.420898	64.884796
747.428162	1140.035889	3581.669678	2755.655762	66.169624
747.746216	1126.382813	3554.363525	2764.757813	67.478912
748.064148	1080.872437	3579.394287	2705.594238	65.027313
748.382080	1124.107300	3731.854004	2707.869873	60.732994
748.700073	1174.168701	3611.251465	2812.543701	67.226891
749.017822	1128.658325	3643.108887	2823.921387	67.420815
749.335632	1155.964600	3577.118652	2794.339600	67.669174
749.653320	1110.454102	3622.629150	2892.187012	70.923912
749.971008	1203.750488	3684.068115	2737.451416	61.834858
750.288696	1144.586914	3640.833252	2839.849854	67.912483
750.606262	1112.729614	3529.332764	2894.462402	73.728813
750.923828	1121.831787	3656.761963	2721.522949	63.105927
751.241272	1064.943726	3611.251465	2705.594238	64.432533
751.558716	1149.138062	3558.914551	2648.706299	62.228523
751.876038	1137.760376	3492.924316	2764.757813	69.082130
752.193481	1135.484863	3599.874023	2742.002686	65.189293
752.510681	1096.801025	3508.853027	2764.757813	69.150948
752.827942	1126.382813	3422.383301	2732.900391	69.970261
753.145081	1083.147949	3602.149414	2753.380127	66.305328
753.462219	1089.974487	3574.843262	2623.675537	61.721615
753.779297	1162.791138	3472.444824	2612.297852	62.758614
754.096375	1167.342163	3474.720215	2612.297852	62.623280
754.413330	1196.923950	3458.791504	2682.839111	65.694168
754.730286	1119.556274	3522.506104	2637.328613	63.162884
755.047119	1124.107300	3588.496338	2742.002686	65.650970
755.363892	1101.352051	3465.618164	2594.093750	63.137634
755.680725	1196.923950	3474.720215	2534.930176	58.741257
755.997498	1144.586914	3385.974854	2628.226563	66.192902
756.314148	1180.995239	3397.352539	2748.829102	70.739220
756.630737	1226.505737	3345.015625	2623.675537	65.950592
756.947327	1169.617676	3376.872803	2671.461426	68.041237
757.263855	1119.556274	3440.587402	2575.889648	62.745098
757.580261	1108.178589	3442.863037	2641.879639	65.692001
757.896729	1206.026001	3315.433838	2614.573486	66.774551
758.213074	1128.658325	3411.005615	2669.185791	67.497505
758.529419	1124.107300	3472.444824	2737.451416	68.701546
758.845642	1144.586914	3449.689453	2685.114502	66.831192
759.161865	1076.321289	3442.863037	2746.553711	70.576927
759.478149	1140.035889	3470.169189	2735.176025	68.457031
759.794189	1142.311401	3549.812500	2689.665527	64.272209
760.110229	1130.933838	3602.149414	2726.073975	64.548805
760.426270	1074.045776	3638.557861	2751.104736	65.394852
760.742249	1196.923950	3479.271240	2810.268311	70.687950
761.058105	1137.760376	3659.037354	2621.399902	58.844769
761.374023	1083.147949	3517.955078	2823.921387	71.495331
761.689819	1087.698975	3513.404053	2687.390137	65.947472
762.005554	1101.352051	3599.874023	2696.492188	63.843349
762.321289	1121.831787	3486.097900	2726.073975	67.853706
762.636902	1046.739624	3593.047363	2839.849854	70.420013
762.952515	1108.178589	3622.629150	2785.237549	66.696831
763.268127	1112.729614	3661.312988	2769.308838	65.000000
763.583618	1101.352051	3740.956299	3005.962891	72.155167
763.899048	1105.903076	4080.008789	3137.943115	68.324402
764.214478	1140.035889	4687.572754	3388.250488	63.373959
764.529785	1074.045776	4912.849609	3713.649902	68.761108
764.845093	1117.280762	5012.972168	3713.649902	66.647194
765.160400	1190.097412	4862.788086	3740.956299	69.454773
765.475586	1055.841675	4726.256836	3599.874023	69.311844
765.790771	1069.494751	4705.776855	3590.771729	69.336662
766.105835	1128.658325	4453.194336	3363.219727	67.214233
766.420837	1103.627563	4357.622559	3217.586426	64.965034
766.735840	1133.209351	4205.162598	3240.341553	68.592590
767.050842	1108.178589	4016.294189	3085.606201	67.996864
767.365662	1151.413574	3950.304199	3001.411865	66.097557
767.680542	1078.596802	3688.619141	2910.391113	70.183083
767.995300	1108.178589	3688.619141	2855.778564	67.724869
768.309998	1110.454102	3636.282227	2880.809326	70.090088
768.624817	1103.627563	3649.935303	2648.706299	60.679188
768.939392	1192.372925	3390.525879	2762.482178	71.428574
769.254028	1080.872437	3627.180176	2707.869873	63.896343
769.568481	1135.484863	3492.924316	2680.563477	65.540543
769.882935	1092.250000	3517.955078	2562.236328	60.600372
770.197388	1099.076538	3397.352539	2575.889648	64.257431
770.511841	1115.005249	3351.842041	2598.644775	66.327568
770.826172	1096.801025	3306.331787	2514.450439	64.160652
771.140442	1023.984375	3299.505127	2625.950928	70.399994
771.454651	1117.280762	3190.280273	2582.716064	70.691544
771.768860	1119.556274	3215.310791	2559.960938	68.729652
772.082886	1101.352051	3267.647949	2512.175049	65.126053
772.397034	1092.250000	3283.576416	2500.797363	64.278297
772.711060	1060.392700	3197.106689	2471.215576	66.027695
773.025024	1058.117188	3258.545898	2425.705078	62.150974
773.338928	1128.658325	3244.892578	2466.664551	63.225807
773.652771	1140.035889	3149.320801	2434.807373	64.439415
773.966614	1142.311401	3008.238525	2371.092773	65.853661
774.280457	1092.250000	3021.891602	2478.042236	71.816040
774.594116	1121.831787	3019.616211	2323.306641	63.309341
774.907776	1130.933838	3003.687500	2414.327637	68.529770
775.221375	1112.729614	3026.442627	2355.164063	64.922714
775.534912	1078.596802	2978.656738	2339.235352	66.347305
775.848450	1169.617676	3083.330566	2366.541748	62.544601
776.161926	1112.729614	3042.371338	2348.337402	64.033012
776.475342	1115.005249	3035.544678	2255.041016	59.360184
776.788696	1101.352051	2910.391113	2330.133301	67.924530
777.101990	1049.015137	3008.238525	2325.582275	65.156792
777.415283	1121.831787	3065.126465	2339.235352	62.646370
777.728516	1167.342163	2937.697266	2325.582275	65.424171
778.041626	1174.168701	2951.350586	2261.867676	61.203583
778.354736	1158.240112	2851.227539	2307.378174	67.876350
778.667725	1053.566162	2967.279053	2346.062012	67.538651
778.980774	1153.689087	2953.625977	2266.418701	61.820480
779.293640	1151.413574	3021.891602	2391.572266	66.301697
779.606567	1128.658325	2949.074951	2239.112549	61.000004
779.919434	1101.352051	2873.982666	2211.806152	62.644417
780.232239	1101.352051	2889.911377	2277.796387	65.776085
780.544983	1142.311401	2921.768799	2341.510986	67.391304
780.857666	1096.801025	2880.809326	2314.204590	68.239792
781.170227	1133.209351	2819.370361	2245.938965	65.991898
781.482849	1078.596802	2801.166016	2248.214600	67.899612
781.795410	1117.280762	2705.594238	2225.459229	69.770767
782.107910	1108.178589	2921.768799	2280.071777	64.617310
782.420288	1167.342163	2905.840088	2154.918213	56.806282
782.732666	1151.413574	2719.247314	2164.020264	64.586357
783.044983	1210.577026	2712.420898	2239.112549	68.484848
783.357300	1105.903076	2753.380127	2193.602051	66.022102
783.669495	1135.484863	2682.839111	2200.428711	68.823532
783.981689	1121.831787	2712.420898	2134.438477	63.662369
784.293762	1233.332275	2737.451416	2293.724854	70.499245
784.605835	1099.076538	2726.073975	2211.806152	68.391602
784.917908	1162.791138	2696.492188	2109.407715	61.721062
785.229858	1167.342163	2587.267090	2150.367188	69.230774
785.541748	1185.546387	2712.420898	2127.612061	61.698959
785.853577	1140.035889	2635.052979	2107.132324	64.687988
786.165405	1146.862427	2616.848877	2009.284912	58.668736
786.477173	1074.045776	2548.583252	2032.040039	64.969139
786.788879	1085.423462	2696.492188	2066.172852	60.875702
787.100525	1115.005249	2676.012451	2118.509766	64.285706
787.412109	1135.484863	2641.879639	2098.030273	63.897289
787.723694	1126.382813	2653.257324	2170.846924	68.405365
788.035156	1074.045776	2660.083740	2066.172852	62.553802
788.346558	1103.627563	2732.900391	2084.376953	60.195530
788.658081	1128.658325	2646.430664	2154.918213	67.616196
788.969360	1096.801025	2776.135498	2173.122314	64.092133
789.280640	1128.658325	2851.227539	2341.510986	70.409515
789.591919	1135.484863	2828.472412	2266.418701	66.801071
789.903076	1096.801025	2867.156250	2268.694336	66.195374
790.214172	1133.209351	2958.177002	2227.734863	59.975063
790.525269	1049.015137	2807.992676	2150.367188	62.613197
790.836365	1108.178589	2666.910400	2111.683350	64.379562
791.147339	1096.801025	2764.757813	2025.213501	55.661663
791.458191	1137.760376	2598.644775	2079.825928	64.485977
791.769104	1124.107300	2569.062988	2104.856689	67.874008
792.079895	1083.147949	2553.134277	2098.030273	69.040253
792.390686	1210.577026	2553.134277	2022.937988	60.508480
792.701416	1199.199463	2580.440674	2052.519775	61.779240
793.012085	1169.617676	2537.205811	2086.652588	67.054901
793.322693	1142.311401	2430.256104	2111.683350	75.265030
793.633240	1130.933838	2498.521729	2123.060791	72.545753
793.943787	1194.648438	2471.215576	2043.417725	66.488419
794.254272	1153.689087	2507.624023	1950.121338	58.823524
794.564636	1137.760376	2503.072998	2027.489014	65.166656
794.875000	1074.045776	2525.828125	1975.152100	62.068970
795.185303	1153.689087	2425.705078	1977.427612	64.758507
795.495544	1089.974487	2400.674561	1968.325439	67.013878
795.805786	1103.627563	2473.491211	2016.111450	66.611290
796.115906	1149.138062	2516.726074	1902.335449	55.074875
796.426025	1105.903076	2446.184814	2034.315552	69.269951
796.736023	1071.770264	2635.052979	2177.673340	70.742363
797.045959	1078.596802	2682.839111	2043.417725	60.141846
797.355896	1071.770264	2528.103516	2138.989502	73.281250
797.665833	1121.831787	2616.848877	2152.642578	68.949768
797.975708	1169.617676	2625.950928	2036.591064	59.531250
798.285461	1110.454102	2482.593262	1954.672363	61.525703
798.595154	1092.250000	2425.705078	2075.274902	73.720139
798.904846	1094.525513	2471.215576	2036.591064	68.429749
799.214478	1128.658325	2425.705078	1925.090576	61.403511
799.524109	1210.577026	2450.735840	1972.876587	61.467899
799.833557	1128.658325	2446.184814	2018.386963	67.530228
800.143005	1185.546387	2441.633789	1995.631714	64.492752
800.452393	1108.178589	2418.878662	1915.988525	61.631943
800.761780	1135.484863	2407.500977	1968.325439	65.474060
801.071106	1174.168701	2471.215576	2011.560425	64.561409
801.380371	1076.321289	2393.847900	1943.294800	65.803108
801.689575	1137.760376	2346.062012	1950.121338	67.231636
801.998718	1117.280762	2493.970703	1977.427612	62.479343
802.307800	1169.617676	2311.929199	1938.743774	67.330681
802.616882	1108.178589	2380.194824	2016.111450	71.377457
802.925903	1128.658325	2389.296875	1929.641602	63.537903
803.234863	1174.168701	2346.062012	1952.396851	66.407768
803.543701	1099.076538	2377.919189	1852.273926	58.896801
803.852539	1108.178589	2316.480225	1879.580200	63.841808
804.161316	1062.668213	2275.520752	1815.865601	62.101315
804.470032	1117.280762	2264.143311	1947.845825	72.420631
804.778809	1119.556274	2257.316650	1925.090576	70.799995
805.087341	1133.209351	2361.990479	1877.304688	60.555565
805.395935	1192.372925	2361.990479	1888.682251	59.533077
805.704468	1060.392700	2412.052002	1854.549438	58.754211
806.012939	1101.352051	2261.867676	1922.815063	70.784309
806.321350	1183.270874	2316.480225	1952.396851	67.871483
806.629761	1117.280762	2359.715088	1959.223389	67.765564
806.938049	1099.076538	2380.194824	1920.539551	64.120781
807.246277	1101.352051	2402.949951	2018.386963	70.454544
807.554504	1069.494751	2270.969727	1975.152100	75.378792
807.862671	1135.484863	2325.582275	1963.774414	69.598465
808.170715	1165.066650	2421.154053	1824.967651	52.536232
808.478821	1169.617676	2302.827148	1938.743774	67.871483
808.786804	1137.760376	2398.398926	1975.152100	66.425995
809.094727	1140.035889	2402.949951	1838.620850	55.315319
809.402649	1146.862427	2346.062012	1865.927002	59.962044
809.710510	1146.862427	2316.480225	1777.181763	53.891052
810.018311	1176.444214	2148.091553	1900.059814	74.473068
810.326050	1167.342163	2200.428711	1861.375977	67.180611
810.633667	1153.689087	2209.530762	1795.385864	60.775852
810.941345	1142.311401	2236.836914	1888.682251	68.191269
811.248901	1119.556274	2161.744873	1806.763550	65.938858
811.556396	1242.434326	2261.867676	1843.171875	58.928574
811.863892	1153.689087	2189.051025	1811.314575	63.516483
812.171326	1094.525513	2123.060791	1743.048950	63.053104
812.478699	1058.117188	2204.979736	1811.314575	65.674599
812.786011	1099.076538	2207.255127	1752.151001	58.932240
813.093262	1194.648438	2150.367188	1804.488037	63.809525
813.400391	1080.872437	2111.683350	1756.702026	65.562904
813.707642	1135.484863	2209.530762	1743.048950	56.567795
814.014709	1133.209351	2118.509766	1827.243164	70.438805
814.321716	1126.382813	2179.948975	1781.732788	62.203022
814.628723	1119.556274	2127.612061	1843.171875	71.783287
814.935669	1071.770264	2152.642578	1754.426514	63.157898
815.242554	1133.209351	2111.683350	1708.916138	58.837208
815.549438	1089.974487	2152.642578	1718.018188	59.100647
815.856201	1174.168701	2082.101563	1763.528564	64.912277
816.162964	1055.841675	2093.479248	1688.436401	60.964901
816.469604	1167.342163	2136.714111	1756.702026	60.798115
816.776184	1158.240112	2113.958740	1731.671387	60.000011
817.082825	1119.556274	2166.295898	1754.426514	60.652164
817.389343	1192.372925	2166.295898	1895.508789	72.196251
817.695801	1074.045776	2072.999512	1731.671387	65.831436
818.002197	1080.872437	2225.459229	1731.671387	56.858856
818.308533	1124.107300	2170.846924	1768.079712	61.521740
818.614868	1135.484863	2138.989502	1743.048950	60.544224
818.921143	1210.577026	2207.255127	1799.937012	59.132431
819.227356	1128.658325	2195.877686	1865.927002	69.083145
819.533447	1080.872437	2218.632813	1890.957764	71.199997
819.839539	1110.454102	2314.204590	1884.131226	64.272217
820.145569	1099.076538	2407.500977	1879.580200	59.652176
820.451538	1128.658325	2387.021240	2009.284912	69.981926
820.757568	1069.494751	2532.654541	2111.683350	71.228622
821.063416	1121.831787	2678.288086	2082.101563	61.695904
821.369263	1130.933838	2819.370361	2170.846924	61.590298
821.675049	1140.035889	2764.757813	2311.929199	72.128853
821.980713	1103.627563	3033.269287	2418.878662	68.160378
822.286438	1130.933838	3308.607178	2437.082764	59.979103
822.592102	983.024963	4059.529053	3001.411865	65.606506
822.897583	1128.658325	5579.577148	4221.091309	69.478531
823.203125	1142.311401	8073.547852	5752.516602	66.513458
823.508545	1085.423462	9791.566406	7006.328613	68.008362
823.813965	1165.066650	10553.865234	7270.289063	65.026665
824.119263	1171.893188	9673.239258	6803.807129	66.247322
824.424622	1096.801025	8196.425781	6018.752441	69.326920
824.729858	1155.964600	6963.093750	5113.095215	68.142632
825.035095	1121.831787	6105.222168	4471.398438	67.214615
825.340149	1069.494751	5529.515625	3998.090088	65.663261
825.645264	1151.413574	4956.084473	3631.731201	65.191383
825.950256	1105.903076	4667.093262	3458.791504	66.070282
826.255310	1171.893188	4225.642090	3106.085938	63.338303
826.560242	1171.893188	4059.529053	2990.034424	62.962971
826.865112	1062.668213	3932.099854	2953.625977	65.900078
827.169922	1103.627563	3765.986816	2828.472412	64.786324
827.474670	1092.250000	3836.528076	2867.156250	64.676620
827.779419	1233.332275	4273.428223	3062.851074	60.179642
828.084045	1060.392700	4735.358887	3406.454590	63.839008
828.388672	1149.138062	5229.146973	3693.170166	62.353596
828.693176	1169.617676	5258.728516	3734.129639	62.715637
828.997681	1112.729614	4815.001953	3426.934326	62.507679
829.302124	1208.301514	4077.733398	3101.534912	65.979378
829.606567	1096.801025	3750.058350	2912.666504	68.439102
829.910828	1094.525513	3502.026611	2564.511963	61.058601
830.215149	1096.801025	3183.453613	2416.603027	63.249725
830.519348	1162.791138	3033.269287	2275.520752	59.489048
830.823547	1149.138062	2858.054199	2268.694336	65.512650
831.127686	1144.586914	2691.941162	2207.255127	68.676468
831.431763	1067.219238	2603.195801	2084.376953	66.222214
831.735779	1060.392700	2493.970703	2009.284912	66.190483
832.039734	1115.005249	2396.123291	1925.090576	63.232685
832.343628	1119.556274	2393.847900	1868.202637	58.750004
832.647461	1112.729614	2357.439453	1941.019287	66.544800
832.951233	1037.637451	2389.296875	1902.335449	63.973068
833.255127	1151.413574	2387.021240	1888.682251	59.668510
833.558777	1133.209351	2348.337402	1852.273926	59.176033
833.862366	1124.107300	2391.572266	1959.223389	65.888695
834.165955	1119.556274	2619.124512	2127.612061	67.223068
834.469482	1146.862427	3015.064941	2478.042236	71.254578
834.773010	1187.821899	3431.485352	2628.226563	64.198784
835.076416	1176.444214	3659.037354	2789.788574	64.986252
835.379822	1210.577026	3643.108887	2746.553711	63.143131
835.683105	1146.862427	3408.730225	2584.991699	63.581493
835.986389	1174.168701	3203.933350	2391.572266	59.977573
836.289612	1185.546387	2914.942139	2318.755615	65.526314
836.592773	1155.964600	2746.553711	2152.642578	62.660934
836.895874	1103.627563	2598.644775	2041.142212	62.709290
837.198914	1171.893188	2541.756836	2052.519775	64.285713
837.501892	1176.444214	2380.194824	1991.080688	67.674858
837.804871	1115.005249	2355.164063	1827.243164	57.431187
838.107666	1140.035889	2243.663574	1790.834839	58.969067
838.410583	1112.729614	2118.509766	1727.120239	61.085976
838.713379	1055.841675	2138.989502	1699.814087	59.453789
839.016052	1124.107300	2111.683350	1704.365112	58.755760
839.318787	1083.147949	1913.713013	1633.823975	66.301369
839.621338	1117.280762	1975.152100	1743.048950	72.944290
839.923889	1110.454102	1847.722900	1633.823975	70.987663
840.226440	1146.862427	1977.427612	1570.109375	50.958908
840.528931	1135.484863	1970.601074	1642.926025	60.762939
840.831299	1142.311401	2136.714111	1752.151001	61.327225
841.133606	1187.821899	2168.571289	1881.855713	70.765663
841.435913	1176.444214	2161.744873	1770.355225	60.277134
841.738220	1119.556274	2104.856689	1774.906250	66.512703
842.040405	1185.546387	2125.336426	1733.946899	58.353516
842.342529	1167.342163	2054.795166	1713.467163	61.538471
842.644592	1053.566162	1879.580200	1670.232300	74.655647
842.946594	1153.689087	1852.273926	1576.935913	60.586319
843.248596	1130.933838	1895.508789	1638.375000	66.369057
843.550598	1137.760376	1872.753662	1665.681274	71.826630
843.852478	1133.209351	1809.039063	1558.731689	62.962952
844.154236	1130.933838	1849.998413	1549.629639	58.227844
844.455994	1087.698975	1718.018188	1545.078613	72.563179
844.757690	1046.739624	1731.671387	1540.527588	72.093018
845.059326	1103.627563	1738.497925	1469.986450	57.706093
845.360962	1074.045776	1706.640625	1476.812988	63.669064
845.662476	1128.658325	1697.538574	1483.639526	62.399986
845.963989	1062.668213	1692.987427	1469.986450	64.620949
846.265381	1115.005249	1702.089600	1467.710938	60.077515
846.566772	1119.556274	1586.037964	1458.608887	72.682938
846.868042	1060.392700	1642.926025	1449.506714	66.796867
847.169373	1201.474976	1722.569214	1424.476074	42.794773
847.470581	1187.821899	1663.405762	1492.741699	64.114830
847.771729	1094.525513	1656.579102	1431.302612	59.919037
848.072815	1140.035889	1595.140137	1406.271851	58.499996
848.373901	1115.005249	1570.109375	1458.608887	75.500008
848.674866	1126.382813	1545.078613	1390.343262	63.043491
848.975891	1124.107300	1601.966675	1374.414551	52.380943
849.276794	1149.138062	1624.721802	1454.057739	64.114822
849.577637	1053.566162	1595.140137	1438.129150	71.008392
849.878357	1099.076538	1570.109375	1358.485962	55.072472
850.179077	1140.035889	1565.558350	1426.751587	67.379684
850.479736	1110.454102	1631.548462	1372.139038	50.218338
850.780396	1130.933838	1595.140137	1385.792114	54.901943
851.080994	1144.586914	1581.486938	1410.822876	60.937504
851.381470	1094.525513	1604.242188	1388.067749	57.589294
851.681946	1074.045776	1510.945801	1342.557251	61.458332
851.982361	1140.035889	1574.660400	1342.557251	46.596855
852.282715	1162.791138	1581.486938	1413.098389	59.782604
852.583008	1121.831787	1647.477051	1338.006226	41.125538
852.883240	1190.097412	1631.548462	1426.751587	53.608250
853.183411	1153.689087	1574.660400	1315.250977	38.378361
853.483521	1153.689087	1545.078613	1356.210449	51.744194
853.783630	1092.250000	1617.895264	1406.271851	59.740261
854.083679	1210.577026	1567.833862	1403.996338	54.140129
854.383667	1099.076538	1615.619751	1365.312500	51.541855
854.683533	1174.168701	1535.976563	1290.220337	32.075489
854.983337	1085.423462	1586.037964	1394.894287	61.818192
855.283203	1137.760376	1565.558350	1374.414551	55.319145
855.582886	1158.240112	1522.323364	1297.046875	38.125008
855.882629	1096.801025	1549.629639	1374.414551	61.306534
856.182312	1058.117188	1513.221313	1319.802124	57.500015
856.481873	1064.943726	1565.558350	1429.027100	72.727272
856.781372	1121.831787	1465.435425	1301.597900	52.317871
857.080872	1149.138062	1447.231201	1401.720825	84.732834
857.380310	1112.729614	1556.456177	1381.241089	60.512825
857.679688	1080.872437	1545.078613	1360.761475	60.294121
857.979004	1085.423462	1581.486938	1415.373901	66.513756
858.278259	1076.321289	1581.486938	1369.863525	58.108116
858.577454	1130.933838	1533.701050	1344.832764	53.107334
858.876648	1144.586914	1522.323364	1281.118164	36.144581
859.175720	1146.862427	1588.313477	1360.761475	48.453629
859.474792	1167.342163	1510.945801	1333.455200	48.344376
859.773743	1135.484863	1506.394775	1322.077637	50.306763
860.072693	1187.821899	1526.874512	1367.588013	53.020123
860.371521	1167.342163	1572.384888	1308.424438	34.831455
860.670349	1144.586914	1506.394775	1340.281738	54.088051
860.969116	1219.679199	1517.772339	1431.302612	70.992378
861.267883	1126.382813	1495.017212	1408.547363	76.543198
861.566589	1160.515625	1501.843750	1358.485962	58.000008
861.865112	1146.862427	1488.190552	1326.628662	52.666695
862.163635	1103.627563	1617.895264	1335.730713	45.132748
862.462158	1074.045776	1417.649414	1328.904175	74.172203
862.760620	1128.658325	1513.221313	1360.761475	60.355042
863.059021	1071.770264	1565.558350	1228.781250	31.797241
863.357361	1101.352051	1495.017212	1306.148926	52.023113
863.655640	1142.311401	1538.252075	1392.618774	63.218403
863.953857	1174.168701	1549.629639	1360.761475	49.696987
864.251953	1126.382813	1565.558350	1310.699951	41.968899
864.550110	1194.648438	1429.027100	1408.547363	91.262115
864.848206	1158.240112	1510.945801	1392.618774	66.451622
865.146179	1101.352051	1515.496826	1340.281738	57.692310
865.444092	1126.382813	1547.354126	1260.638550	31.891897
865.741943	1101.352051	1524.598877	1363.036987	61.827972
866.039795	1124.107300	1567.833862	1317.526489	43.589725
866.337646	1153.689087	1463.159912	1363.036987	67.647057
866.635376	1133.209351	1558.731689	1344.832764	49.732620
866.933044	1064.943726	1490.466064	1360.761475	69.518738
867.230652	1110.454102	1574.660400	1328.904175	47.058834
867.528198	1121.831787	1561.007324	1335.730713	48.704655
867.825745	1094.525513	1551.905151	1360.761475	58.208965
868.123230	1146.862427	1465.435425	1365.312500	68.571434
868.420593	1096.801025	1474.537476	1349.383789	66.867462
868.717896	1174.168701	1526.874512	1390.343262	61.290333
869.015198	1085.423462	1465.435425	1408.547363	85.029930
869.312439	1119.556274	1474.537476	1344.832764	63.461525
869.609619	1149.138062	1526.874512	1365.312500	57.228905
869.906738	1155.964600	1442.680176	1390.343262	81.746048
870.203796	1039.912964	1433.578125	1365.312500	82.658958
870.500854	1128.658325	1508.670288	1344.832764	56.886219
870.797791	1110.454102	1542.803101	1356.210449	56.842121
871.094666	1135.484863	1526.874512	1319.802124	47.093033
871.391602	1094.525513	1447.231201	1353.934937	73.548409
871.688293	1124.107300	1485.915039	1394.894287	74.842781
871.985107	1153.689087	1538.252075	1246.985352	24.260334
872.281738	1146.862427	1576.935913	1408.547363	60.846565
872.578369	1105.903076	1490.466064	1394.894287	75.147949
872.874939	1128.658325	1506.394775	1338.006226	55.421684
873.171509	1153.689087	1485.915039	1340.281738	56.164383
873.467957	1112.729614	1479.088501	1347.108276	63.975155
873.764343	1044.463989	1561.007324	1283.393677	46.255497
874.060669	1149.138062	1524.598877	1331.179688	48.484852
874.356995	1067.219238	1456.333252	1322.077637	65.497101
874.653198	1085.423462	1444.955688	1383.516602	82.911385
874.949463	1060.392700	1476.812988	1317.526489	61.748623
875.245544	1137.760376	1488.190552	1317.526489	51.298698
875.541626	1167.342163	1508.670288	1360.761475	56.666679
875.837646	1192.372925	1549.629639	1290.220337	27.388544
876.133606	1201.474976	1508.670288	1312.975464	36.296288
876.429565	1199.199463	1510.945801	1308.424438	35.036491
876.725403	1110.454102	1533.701050	1269.740601	37.634411
877.021179	1153.689087	1579.211426	1283.393677	30.481264
877.316956	1140.035889	1490.466064	1331.179688	54.545475
877.612610	1110.454102	1563.282837	1324.353149	47.236191
877.908203	1105.903076	1533.701050	1383.516602	64.893608
878.203857	1067.219238	1558.731689	1376.690063	62.962967
878.499390	1105.903076	1542.803101	1299.322388	44.270840
878.794800	1128.658325	1476.812988	1340.281738	60.784309
879.090271	1089.974487	1613.344238	1328.904175	45.652176
879.385559	1110.454102	1504.119263	1353.934937	61.849728
879.680847	1051.290649	1692.987427	1369.863525	49.645390
879.976196	1083.147949	1672.507813	1444.955688	61.389954
880.271301	1137.760376	1758.977539	1469.986450	53.479862
880.566467	1137.760376	1736.222412	1458.608887	53.612175
880.861572	1146.862427	1770.355225	1510.945801	58.394157
881.156555	1103.627563	2018.386963	1604.242188	54.726372
881.451477	1151.413574	2145.816162	1893.233276	74.599533
881.746460	1087.698975	2666.910400	2063.897461	61.815567
882.041321	1176.444214	3390.525879	2569.062988	62.898262
882.336121	1185.546387	4084.559814	3053.749023	64.442703
882.630798	1128.658325	4689.848145	3392.801514	63.578274
882.925537	1069.494751	4637.511230	3445.138428	66.581627
883.220215	1146.862427	4387.204102	3406.454590	69.733147
883.514771	1085.423462	4196.060547	3010.513916	61.887333
883.809326	1080.872437	3827.426025	2873.982666	65.285828
884.103760	1142.311401	3590.771729	2657.808350	61.895912
884.398132	1108.178589	3408.730225	2509.899414	60.929768
884.692505	1140.035889	3144.769775	2393.847900	62.542564
884.986816	1130.933838	2949.074951	2250.489990	61.576965
885.281067	1078.596802	2844.401123	2152.642578	60.824734
885.575256	1083.147949	2660.083740	2050.244141	61.327557
885.869385	1149.138062	2393.847900	1925.090576	62.340031
886.163452	1140.035889	2291.449463	1824.967651	59.486164
886.457458	1094.525513	2095.754639	1738.497925	64.318184
886.751465	1169.617676	2102.581299	1661.130127	52.682919
887.045410	1203.750488	2007.009399	1658.854614	56.657215
887.339233	1153.689087	1897.784302	1547.354126	52.905197
887.632996	1190.097412	1774.906250	1479.088501	49.416332
887.926758	1119.556274	1722.569214	1504.119263	63.773586
888.220398	1142.311401	1774.906250	1460.884399	50.359722
888.514099	1144.586914	1663.405762	1356.210449	40.789486
888.807678	1233.332275	1711.191650	1347.108276	23.809515
889.101196	1146.862427	1611.068726	1397.169800	53.921581
889.394653	1117.280762	1611.068726	1351.659302	47.465424
889.688049	1096.801025	1540.527588	1417.649414	72.307678
889.981384	1142.311401	1583.762451	1328.904175	42.268055
890.274719	1178.719727	1481.364014	1315.250977	45.112778
890.567932	1183.270874	1488.190552	1299.322388	38.059700
>>>>>End Processed Spectral Data<<<<<
