Jaz Data File
++++++++++++++++++++++++++++++++++++
Date: Wed Feb 07 06:46:16 2024
User: jaz
Dark Spectrum Present: Yes
Reference Spectrum Present: Yes
Processed Spectrum Present: Yes
Spectrometers: JAZA3692
Integration Time (usec): 47000 (JAZA3692)
Spectra Averaged: 1 (JAZA3692)
Boxcar Smoothing: 0 (JAZA3692)
Correct for Electrical Dark: No (JAZA3692)
Strobe/Lamp Enabled: Yes (JAZA3692)
Correct for Detector Non-linearity: No (JAZA3692)
Correct for Stray Light: No (JAZA3692)
Number of Pixels in Processed Spectrum: 2048
>>>>>Begin Processed Spectral Data<<<<<
W	D	R	S	P
190.244385	0.000000	0.000000	0.000000	0.000000
190.627136	0.000000	0.000000	0.000000	0.000000
191.009842	1044.463989	1105.903076	992.127075	-85.185043
191.392532	964.820801	1023.984375	1021.708862	96.153862
191.775177	1033.086426	971.647400	1087.698975	-88.889023
192.157791	1092.250000	1023.984375	1037.637451	80.000069
192.540390	1117.280762	1112.729614	1021.708862	2099.951660
192.922943	1119.556274	1058.117188	1076.321289	70.370491
193.305481	1064.943726	1151.413574	1103.627563	44.736794
193.687958	1089.974487	1037.637451	1078.596802	21.739262
194.070419	1162.791138	1089.974487	1044.463989	162.500122
194.452866	1060.392700	1130.933838	1083.147949	32.258125
194.835251	1115.005249	1117.280762	989.851563	-5500.021484
195.217621	1049.015137	1049.015137	1064.943726	0.000000
195.599960	1033.086426	1105.903076	1108.178589	103.124992
195.982254	1158.240112	1094.525513	1112.729614	71.428680
196.364517	1094.525513	1144.586914	1053.566162	-81.818230
196.746750	1101.352051	1167.342163	1044.463989	-86.206947
197.128952	1119.556274	1060.392700	1092.250000	46.153862
197.511139	1137.760376	1055.841675	1089.974487	58.333309
197.893280	1101.352051	1021.708862	1099.076538	2.857134
198.275391	1117.280762	1076.321289	1067.219238	122.222092
198.657471	1128.658325	1069.494751	1064.943726	107.692276
199.039520	989.851563	1108.178589	1076.321289	73.076904
199.421539	1089.974487	1087.698975	1064.943726	1100.005371
199.803513	1099.076538	1039.912964	1096.801025	3.846138
200.185471	1017.157776	1140.035889	1092.250000	61.111149
200.567383	1053.566162	1124.107300	1128.658325	106.451591
200.949265	1087.698975	1094.525513	1130.933838	633.335144
201.331131	1042.188477	1128.658325	1085.423462	50.000072
201.712967	1049.015137	1069.494751	1060.392700	55.555557
202.094742	1105.903076	1115.005249	1087.698975	-199.997314
202.476517	1128.658325	1135.484863	996.678101	-1933.340454
202.858231	1128.658325	1055.841675	1112.729614	21.875093
203.239944	1071.770264	1144.586914	1069.494751	-3.124990
203.621582	1137.760376	1026.259888	1042.188477	85.714333
204.003235	1108.178589	1037.637451	1092.250000	22.580566
204.384827	1060.392700	1053.566162	1074.045776	-200.000000
204.766388	1055.841675	1142.311401	1064.943726	10.526286
205.147934	1092.250000	1105.903076	1060.392700	-233.334229
205.529449	1064.943726	1162.791138	1060.392700	-4.651145
205.910904	1140.035889	1124.107300	1010.331238	814.288391
206.292343	1037.637451	1151.413574	1064.943726	24.000004
206.673767	1044.463989	1112.729614	1060.392700	23.333429
207.055115	1044.463989	1137.760376	1080.872437	39.024498
207.436462	1105.903076	1201.474976	1110.454102	4.761887
207.817780	1078.596802	1119.556274	1083.147949	11.111343
208.199051	1142.311401	1089.974487	1042.188477	191.304596
208.580307	1076.321289	1140.035889	1051.290649	-39.285564
208.961517	1094.525513	1064.943726	1030.810913	215.384552
209.342712	1060.392700	1151.413574	1087.698975	30.000013
209.723846	1074.045776	1112.729614	1117.280762	111.764984
210.104965	1053.566162	1062.668213	1074.045776	225.000000
210.486069	1074.045776	1096.801025	1074.045776	0.000000
210.867111	1074.045776	1117.280762	1085.423462	26.315924
211.248123	1085.423462	1112.729614	1074.045776	-41.667114
211.629120	1069.494751	1146.862427	987.576050	-105.882332
212.010071	980.749451	1094.525513	1128.658325	130.000000
212.390991	1026.259888	1119.556274	1026.259888	0.000000
212.771881	1058.117188	1171.893188	1126.382813	60.000023
213.152756	1062.668213	1046.739624	1087.698975	-157.143631
213.533569	998.953613	1085.423462	1087.698975	102.631569
213.914368	1030.810913	1087.698975	1058.117188	48.000008
214.295135	1067.219238	1108.178589	1089.974487	55.555687
214.675858	1087.698975	1126.382813	1115.005249	70.588326
215.056549	1103.627563	1151.413574	1069.494751	-71.428459
215.437225	1010.331238	1103.627563	1060.392700	53.658558
215.817841	1101.352051	1080.872437	1151.413574	-244.445633
216.198441	1019.433350	1142.311401	1135.484863	94.444458
216.579025	1119.556274	1074.045776	1069.494751	109.999947
216.959549	1112.729614	1112.729614	1074.045776	0.000000
217.340057	1021.708862	1115.005249	1085.423462	68.292679
217.720535	1105.903076	1028.535400	1074.045776	41.176498
218.100967	1083.147949	1060.392700	1053.566162	129.999832
218.481369	1096.801025	1049.015137	1042.188477	114.285934
218.861740	1019.433350	1067.219238	1014.882263	-9.523913
219.242065	1060.392700	1103.627563	1030.810913	-68.421143
219.622391	1064.943726	1089.974487	1071.770264	27.272594
220.002670	1055.841675	1137.760376	1087.698975	38.888924
220.382919	1092.250000	1128.658325	1094.525513	6.249979
220.763123	1049.015137	1187.821899	1019.433350	-21.311489
221.143295	1028.535400	1121.831787	1105.903076	82.926765
221.523453	1037.637451	1110.454102	1023.984375	-18.749937
221.903549	1135.484863	1087.698975	1010.331238	261.904999
222.283630	1096.801025	1055.841675	1076.321289	50.000149
222.663696	1085.423462	1051.290649	1046.739624	113.333282
223.043701	1144.586914	1119.556274	1074.045776	281.819153
223.423676	1096.801025	1112.729614	1023.984375	-457.144379
223.803635	1026.259888	1071.770264	1074.045776	104.999985
224.183548	1046.739624	1117.280762	1039.912964	-9.677559
224.563431	1083.147949	1096.801025	1030.810913	-383.335114
224.943283	1087.698975	1108.178589	1019.433350	-333.334534
225.323105	1130.933838	1105.903076	1053.566162	309.090363
225.702881	1023.984375	1096.801025	1110.454102	118.749939
226.082642	1030.810913	1135.484863	1108.178589	73.913017
226.462357	1042.188477	1178.719727	1062.668213	15.000036
226.842041	1083.147949	1099.076538	1089.974487	42.857143
227.221695	1133.209351	1092.250000	1067.219238	161.111221
227.601318	1062.668213	1133.209351	998.953613	-90.322617
227.980911	960.269775	1187.821899	1074.045776	49.999973
228.360474	1092.250000	1187.821899	1119.556274	28.571447
228.739990	1033.086426	1167.342163	1012.606750	-15.254228
229.119476	1124.107300	1240.158813	1099.076538	-21.568665
229.498932	1092.250000	1265.189575	1033.086426	-34.210548
229.878372	1105.903076	1299.322388	1026.259888	-41.176441
230.257736	1080.872437	1299.322388	1030.810913	-22.916702
230.637115	998.953613	1363.036987	1060.392700	16.875006
231.016449	1071.770264	1374.414551	1074.045776	0.751877
231.395737	1089.974487	1385.792114	1046.739624	-14.615377
231.774994	1067.219238	1235.607788	1074.045776	4.054039
232.154221	1023.984375	1267.465088	1085.423462	25.233656
232.533417	1030.810913	1242.434326	1080.872437	23.655947
232.912582	1115.005249	1246.985352	1099.076538	-12.069024
233.291702	1026.259888	1274.291626	1035.361938	3.669712
233.670792	1103.627563	1281.118164	1049.015137	-30.769194
234.049866	1121.831787	1258.363037	1039.912964	-60.000053
234.428894	1001.229126	1237.883301	1042.188477	17.307682
234.807892	1119.556274	1253.812012	1130.933838	8.474545
235.186874	1076.321289	1319.802124	1058.117188	-7.476605
235.565781	1083.147949	1308.424438	1033.086426	-22.222258
235.944687	1003.504700	1363.036987	1115.005249	31.012667
236.323547	1083.147949	1269.740601	1049.015137	-18.292688
236.702377	1083.147949	1317.526489	1046.739624	-15.533984
237.081177	1103.627563	1367.588013	1067.219238	-13.793098
237.459946	1060.392700	1338.006226	1042.188477	-6.557398
237.838669	1069.494751	1315.250977	1030.810913	-15.740736
238.217361	1046.739624	1237.883301	1049.015137	1.190472
238.596039	1042.188477	1281.118164	1105.903076	26.666674
238.974670	1067.219238	1340.281738	1071.770264	1.666661
239.353271	1039.912964	1235.607788	1126.382813	44.186069
239.731842	1096.801025	1363.036987	1076.321289	-7.692325
240.110367	1121.831787	1196.923950	1089.974487	-42.424267
240.488876	1044.463989	1392.618774	1023.984375	-5.882330
240.867340	1028.535400	1356.210449	1026.259888	-0.694442
241.245789	1105.903076	1479.088501	1028.535400	-20.731699
241.624176	1115.005249	1485.915039	1046.739624	-18.404913
242.002548	1069.494751	1479.088501	1053.566162	-3.888875
242.380890	998.953613	1558.731689	1055.841675	10.162610
242.759186	1076.321289	1642.926025	1042.188477	-6.024096
243.137451	1010.331238	1847.722900	1023.984375	1.630436
243.515686	1035.361938	1890.957764	1049.015137	1.595753
243.893890	1069.494751	1909.161987	1012.606750	-6.775065
244.272049	1028.535400	1888.682251	1096.801025	7.936508
244.650192	1058.117188	1802.212524	1080.872437	3.058109
245.028290	1023.984375	1704.365112	1115.005249	13.377933
245.406357	1060.392700	1686.160889	1108.178589	7.636356
245.784393	1005.780212	1747.599976	1128.658325	16.564417
246.162384	1035.361938	1617.895264	1062.668213	4.687504
246.540359	1026.259888	1649.752563	1128.658325	16.423359
246.918289	1078.596802	1824.967651	1135.484863	7.621956
247.296204	1096.801025	1988.805176	1053.566162	-4.846935
247.674057	1178.719727	2220.908203	1060.392700	-11.353707
248.051895	1137.760376	2521.277100	1096.801025	-2.960524
248.429703	1062.668213	2598.644775	1108.178589	2.962960
248.807465	1099.076538	2471.215576	1028.535400	-5.140961
249.185196	1096.801025	2471.215576	1108.178589	0.827812
249.562897	1092.250000	2232.285889	1069.494751	-1.996012
249.940567	1126.382813	2164.020264	1071.770264	-5.263163
250.318192	1112.729614	1959.223389	1058.117188	-6.451604
250.695801	1030.810913	1879.580200	1042.188477	1.340478
251.073349	1028.535400	1840.896362	1064.943726	4.481791
251.450882	1092.250000	1793.110352	1085.423462	-0.974023
251.828400	1099.076538	1752.151001	1085.423462	-2.090585
252.205872	1087.698975	1772.630737	1053.566162	-4.983389
252.583313	1053.566162	1845.447388	1108.178589	6.896543
252.960693	1028.535400	1947.845825	1092.250000	6.930695
253.338074	1092.250000	2016.111450	1044.463989	-5.172422
253.715408	1117.280762	1966.049927	1021.708862	-11.260057
254.092682	1037.637451	1872.753662	1076.321289	4.632150
254.469955	1076.321289	1806.763550	1085.423462	1.246118
254.847198	1017.157776	1686.160889	1017.157776	0.000000
255.224365	1099.076538	1747.599976	1096.801025	-0.350876
255.601563	1085.423462	1736.222412	1071.770264	-2.097913
255.978683	1103.627563	1708.916138	1060.392700	-7.142851
256.355743	1033.086426	1765.804199	1033.086426	0.000000
256.732819	1078.596802	1743.048950	1115.005249	5.479469
257.109894	1023.984375	1795.385864	1085.423462	7.964606
257.486877	1105.903076	1745.324463	1071.770264	-5.338078
257.863831	1083.147949	1799.937012	1069.494751	-1.904772
258.240753	1019.433350	1929.641602	1101.352051	8.999995
258.617645	1096.801025	1975.152100	1078.596802	-2.072545
258.994507	1099.076538	2047.968750	1094.525513	-0.479615
259.371307	1089.974487	2220.908203	1101.352051	1.006033
259.748108	1089.974487	2200.428711	1096.801025	0.614752
260.124878	1080.872437	2616.848877	1092.250000	0.740738
260.501617	1085.423462	2928.595215	1069.494751	-0.864201
260.878296	1064.943726	3208.484375	1124.107300	2.760087
261.254944	1119.556274	3390.525879	1085.423462	-1.503006
261.631561	1058.117188	3203.933350	1033.086426	-1.166491
262.008179	1096.801025	2876.258301	1055.841675	-2.301789
262.384735	1058.117188	2523.552490	1085.423462	1.863356
262.761261	1076.321289	2298.276123	1051.290649	-2.048409
263.137695	1083.147949	2218.632813	1044.463989	-3.406823
263.514191	1071.770264	2189.051025	1103.627563	2.851325
263.890594	1012.606750	2168.571289	1160.515625	12.795278
264.267029	1074.045776	2177.673340	1112.729614	3.505153
264.643341	1117.280762	2202.704102	1085.423462	-2.935011
265.019653	1062.668213	2145.816162	1128.658325	6.092438
265.395935	1083.147949	2175.397949	1096.801025	1.249995
265.772217	985.300537	2125.336426	1058.117188	6.387224
266.148407	1042.188477	2052.519775	1087.698975	4.504512
266.524597	1085.423462	2236.836914	1028.535400	-4.940715
266.900726	1062.668213	2243.663574	1165.066650	8.670520
267.276855	1085.423462	2339.235352	1108.178589	1.814876
267.652924	1083.147949	2446.184814	1162.791138	5.843069
268.028992	1028.535400	2462.113525	1076.321289	3.333330
268.404999	1094.525513	2466.664551	1053.566162	-2.985073
268.781006	1128.658325	2361.990479	1064.943726	-5.166054
269.156921	985.300537	2268.694336	1135.484863	11.702124
269.532837	1105.903076	2336.959961	1105.903076	0.000000
269.908661	1010.331238	2459.837891	1055.841675	3.139719
270.284546	1053.566162	2380.194824	1074.045776	1.543734
270.660339	1039.912964	2491.695313	1058.117188	1.253922
271.036133	1071.770264	2484.868652	1074.045776	0.161030
271.411835	1076.321289	2573.614014	1137.760376	4.103345
271.787537	1035.361938	2853.503174	1026.259888	-0.500624
272.163239	1030.810913	2965.003662	1069.494751	1.999999
272.538849	1046.739624	3090.157227	1076.321289	1.447656
272.914459	1010.331238	3144.769775	1074.045776	2.985073
273.290070	1092.250000	2944.523926	1071.770264	-1.105654
273.665588	1130.933838	2919.493164	1151.413574	1.145041
274.041046	1055.841675	2949.074951	1121.831787	3.485577
274.416565	1044.463989	2798.890625	1078.596802	1.945525
274.791962	1071.770264	2751.104736	1124.107300	3.116534
275.167389	1092.250000	2687.390137	1167.342163	4.707559
275.542755	1028.535400	2682.839111	1039.912964	0.687755
275.918060	1014.882263	2689.665527	1094.525513	4.755436
276.293365	1053.566162	2698.767578	1133.209351	4.840939
276.668640	1076.321289	2619.124512	1144.586914	4.424778
277.043854	1094.525513	2655.532715	1149.138062	3.498546
277.419037	1092.250000	2757.931152	1144.586914	3.142073
277.794189	1008.055725	2735.176025	1010.331238	0.131752
278.169312	1087.698975	2757.931152	1044.463989	-2.588561
278.544373	1014.882263	2776.135498	1112.729614	5.555553
278.919464	1051.290649	2735.176025	1101.352051	2.972970
279.294464	1124.107300	2803.441650	1124.107300	0.000000
279.669464	1071.770264	2771.584229	1108.178589	2.141901
280.044403	1014.882263	2801.166016	1078.596802	3.566877
280.419312	1010.331238	2810.268311	1108.178589	5.436154
280.794189	1087.698975	2848.952148	1042.188477	-2.583984
281.169037	1069.494751	2990.034424	1110.454102	2.132700
281.543854	1071.770264	3008.238525	1180.995239	5.640422
281.918671	1110.454102	3076.504150	1140.035889	1.504630
282.293365	1067.219238	3224.413086	1174.168701	4.957805
282.668091	1062.668213	3210.759766	1055.841675	-0.317795
283.042786	1112.729614	3379.148438	1089.974487	-1.004012
283.417419	1176.444214	3470.169189	1026.259888	-6.547616
283.792053	1105.903076	3279.025391	1135.484863	1.361257
284.166595	1080.872437	3192.555664	1087.698975	0.323275
284.541138	1033.086426	3165.249512	1124.107300	4.268945
284.915619	1021.708862	3115.187988	1083.147949	2.934784
285.290100	1169.617676	3358.668701	1087.698975	-3.742202
285.664520	1017.157776	3390.525879	1174.168701	6.615532
286.038940	1071.770264	3465.618164	1149.138062	3.231943
286.413300	1042.188477	3476.995850	1103.627563	2.523365
286.787628	1058.117188	3679.517090	1071.770264	0.520831
287.161896	1133.209351	3843.354736	1110.454102	-0.839632
287.536194	1012.606750	3718.200928	1119.556274	3.952903
287.910400	1060.392700	3702.272461	1146.862427	3.273038
288.284607	1103.627563	3379.148438	1149.138062	2.000003
288.658752	1017.157776	3306.331787	1085.423462	2.982110
289.032867	1042.188477	3210.759766	1140.035889	4.512068
289.406921	1085.423462	3356.393066	1026.259888	-2.605212
289.781006	1030.810913	3372.321777	1135.484863	4.470360
290.154999	1035.361938	3269.923340	1103.627563	3.054990
290.529022	1087.698975	3520.230713	1092.250000	0.187090
290.902954	1101.352051	3690.894775	1071.770264	-1.142356
291.276825	1074.045776	3843.354736	1053.566162	-0.739521
291.650757	1085.423462	3877.487549	1085.423462	0.000000
292.024597	1101.352051	3922.997803	1074.045776	-0.967743
292.398407	1103.627563	3597.598389	1014.882263	-3.558394
292.772156	1108.178589	3545.261475	1051.290649	-2.334264
293.145905	1058.117188	3404.179199	1115.005249	2.424832
293.519592	1058.117188	3395.077148	1103.627563	1.947418
293.893280	1196.923950	3527.057129	1183.270874	-0.585935
294.266907	1076.321289	3595.322754	1144.586914	2.710027
294.640533	989.851563	3638.557861	1119.556274	4.896908
295.014069	978.473938	3918.446777	1053.566162	2.554181
295.387604	1128.658325	4032.222900	1130.933838	0.078370
295.761078	1060.392700	4004.916504	1149.138062	3.013912
296.134552	1135.484863	4041.324951	1064.943726	-2.427564
296.507996	1062.668213	4050.427002	1085.423462	0.761616
296.881378	1051.290649	4045.875977	1089.974487	1.291793
297.254730	1076.321289	4289.356934	1128.658325	1.628897
297.628021	962.545288	4607.929688	1071.770264	2.996254
298.001282	1058.117188	4612.480469	1112.729614	1.536490
298.374573	1026.259888	4805.899902	1117.280762	2.408189
298.747803	1101.352051	4644.337891	1128.658325	0.770714
299.121002	1042.188477	4323.489746	1135.484863	2.843274
299.494141	1119.556274	4143.723145	1094.525513	-0.827691
299.867188	1074.045776	4107.314941	1069.494751	-0.150037
300.240265	1078.596802	3941.202148	1137.760376	2.066774
300.613312	1071.770264	3820.599365	1078.596802	0.248343
300.986328	1089.974487	3818.323975	1094.525513	0.166805
301.359314	1087.698975	3704.547852	1105.903076	0.695650
301.732239	1085.423462	3734.129639	1053.566162	-1.202749
302.105103	1014.882263	3781.915527	1128.658325	4.111843
302.477997	1119.556274	3706.823486	1103.627563	-0.615658
302.850830	1094.525513	3761.435791	1126.382813	1.194540
303.223602	1053.566162	3806.946289	1185.546387	4.793389
303.596375	1042.188477	3831.977051	1160.515625	4.241438
303.969116	1094.525513	3649.935303	1149.138062	2.137135
304.341766	1099.076538	3552.087891	1105.903076	0.278292
304.714478	1089.974487	3536.159424	1126.382813	1.488372
305.087067	1089.974487	3533.883789	1117.280762	1.117319
305.459656	1069.494751	3645.384277	1192.372925	4.770320
305.832214	1076.321289	3563.465576	1162.791138	3.476672
306.204681	1162.791138	3554.363525	1149.138062	-0.570883
306.577148	1030.810913	3506.577637	1297.046875	10.753677
306.949646	1085.423462	3713.649902	1265.189575	6.839826
307.322021	1074.045776	3668.139648	1187.821899	4.385968
307.694397	1039.912964	3579.394287	1244.709839	8.064515
308.066742	1069.494751	3595.322754	1340.281738	10.720721
308.439026	992.127075	3818.323975	1385.792114	13.929145
308.811279	1146.862427	3761.435791	1451.782227	11.662316
309.183502	1019.433350	3948.028564	1435.853638	14.219114
309.555695	983.024963	3954.855225	1406.271851	14.241960
309.927887	1033.086426	3991.263428	1392.618774	12.153849
310.299988	1121.831787	4070.906738	1485.915039	12.345676
310.672058	1103.627563	4064.080078	1526.874512	14.296698
311.044128	1069.494751	4239.295410	1483.639526	13.065325
311.416168	1092.250000	4255.224121	1517.772339	13.453235
311.788147	1085.423462	4159.651855	1526.874512	14.359735
312.160065	1124.107300	4089.110840	1426.751587	10.207215
312.531982	1096.801025	4123.243652	1495.017212	13.157896
312.903870	1089.974487	3954.855225	1501.843750	14.376489
313.275696	1019.433350	3893.416016	1460.884399	15.360254
313.647491	1037.637451	4004.916504	1551.905151	17.331289
314.019318	1153.689087	3763.711426	1522.323364	14.123797
314.391022	1044.463989	3765.986816	1465.435425	15.468230
314.762726	1046.739624	3913.895752	1483.639526	15.238091
315.134369	1074.045776	4023.120850	1520.047852	15.123455
315.505981	1089.974487	4287.081055	1549.629639	14.377224
315.877594	1037.637451	4321.213867	1549.629639	15.592516
316.249146	1099.076538	4127.794922	1572.384888	15.627348
316.620636	1030.810913	3927.548828	1556.456177	18.146111
316.992157	1105.903076	3809.221924	1513.221313	15.067340
317.363586	1035.361938	3836.528076	1517.772339	17.221771
317.735016	1089.974487	3690.894775	1426.751587	12.948381
318.106354	1055.841675	3781.915527	1451.782227	14.524205
318.477722	1044.463989	3784.191162	1479.088501	15.863789
318.849060	1074.045776	3788.742188	1542.803101	17.267395
319.220306	1055.841675	3875.211914	1513.221313	16.222759
319.591522	1083.147949	3963.957275	1529.150024	15.481833
319.962738	1053.566162	3895.691650	1508.670288	16.012810
320.333923	1071.770264	4011.743164	1449.506714	12.848297
320.705017	1092.250000	3843.354736	1538.252075	16.211744
321.076111	1155.964600	3836.528076	1499.568237	12.818336
321.447144	1105.903076	3909.344727	1429.027100	11.525976
321.818176	1094.525513	3699.996826	1376.690063	10.829694
322.189178	1005.780212	3829.701416	1408.547363	14.262691
322.560120	1003.504700	3761.435791	1481.364014	17.326731
322.931030	1110.454102	3613.527100	1388.067749	11.090913
323.301910	1060.392700	3868.385254	1449.506714	13.857373
323.672729	1033.086426	4180.131836	1481.364014	14.244395
324.043549	1021.708862	4369.000000	1524.598877	15.023791
324.414337	1078.596802	4425.888184	1522.323364	13.256287
324.785095	1096.801025	4764.940430	1554.180664	12.468982
325.155792	1092.250000	4667.093262	1474.537476	10.693825
325.526428	1074.045776	4728.532227	1622.446289	15.006227
325.897034	1080.872437	4683.021973	1504.119263	11.749841
326.267670	1035.361938	4391.755371	1597.415649	16.745764
326.638184	1071.770264	4505.531250	1606.517700	15.573228
327.008728	1071.770264	4607.929688	1549.629639	13.513514
327.379211	1130.933838	4532.837402	1547.354126	12.240802
327.749634	1087.698975	4516.908691	1576.935913	14.266755
328.120026	1089.974487	4412.234863	1547.354126	13.767122
328.490417	1083.147949	4434.990234	1538.252075	13.577731
328.860748	1105.903076	4207.437988	1467.710938	11.665445
329.231079	1064.943726	4214.264648	1570.109375	16.040462
329.601318	1055.841675	4227.917480	1440.404663	12.123386
329.971558	1060.392700	4312.111816	1524.598877	14.275715
330.341736	1058.117188	4200.611328	1460.884399	12.816801
330.711914	1101.352051	4209.713379	1556.456177	14.641288
331.082062	1130.933838	4391.755371	1565.558350	13.328681
331.452148	1074.045776	4246.121582	1533.701050	14.490678
331.822174	1064.943726	4275.703613	1533.701050	14.599576
332.192200	1087.698975	4466.847168	1488.190552	11.851851
332.562134	1096.801025	4412.234863	1476.812988	11.461907
332.932129	1046.739624	4621.582520	1469.986450	11.839593
333.302063	1067.219238	4667.093262	1535.976563	13.021492
333.671906	1067.219238	4785.420410	1608.793213	14.565483
334.041718	1092.250000	4846.859375	1551.905151	12.242423
334.411499	1071.770264	4821.828613	1540.527588	12.500001
334.781281	1030.810913	4903.747559	1579.211426	14.159812
335.151001	1112.729614	4808.175293	1542.803101	11.637933
335.520721	1126.382813	4833.206055	1472.261963	9.330878
335.890350	1037.637451	4678.470703	1504.119263	12.812501
336.259979	1085.423462	4642.062500	1510.945801	11.964170
336.629547	1046.739624	4683.021973	1522.323364	13.078846
336.999084	1085.423462	4778.593750	1535.976563	12.199630
337.368622	1017.157776	4805.899902	1556.456177	14.234233
337.738098	1023.984375	4796.797852	1481.364014	12.123038
338.107513	1046.739624	4712.603516	1533.701050	13.283675
338.476898	1049.015137	4737.634277	1517.772339	12.708202
338.846252	1055.841675	4869.614746	1545.078613	12.828161
339.215576	1126.382813	4965.186523	1720.293701	15.471250
339.584869	1158.240112	4758.113770	1540.527588	10.619470
339.954132	1064.943726	4883.267578	1576.935913	13.408821
340.323334	1083.147949	4628.409180	1565.558350	13.607189
340.692505	1060.392700	4578.347656	1476.812988	11.836998
341.061646	1115.005249	4444.092285	1522.323364	12.235130
341.430786	1035.361938	4651.164551	1483.639526	12.397734
341.799896	1096.801025	4805.899902	1472.261963	10.122700
342.168915	976.198425	4830.930664	1492.741699	13.400238
342.537903	1117.280762	5010.696777	1581.486938	11.922851
342.906830	978.473938	5008.421387	1540.527588	13.946922
343.275757	1017.157776	5110.819824	1538.252075	12.729295
343.644684	937.514587	5035.727539	1631.548462	16.935038
344.013550	1078.596802	5183.636230	1590.588989	12.472284
344.382355	1064.943726	5361.126953	1622.446289	12.976695
344.751129	1021.708862	5490.831543	1617.895264	13.340122
345.119873	1080.872437	5784.374023	1708.916138	13.352684
345.488586	1087.698975	5891.323242	1656.579102	11.842728
345.857269	1137.760376	6075.640625	1738.497925	12.165899
346.225891	1067.219238	6118.875488	1763.528564	13.783783
346.594482	1087.698975	6389.662598	1729.395752	12.103002
346.963043	1053.566162	6385.111328	1677.058838	11.694409
347.331543	1053.566162	5850.363770	1688.436401	13.235292
347.700043	1133.209351	5766.169922	1706.640625	12.377211
348.068512	1030.810913	5700.179688	1563.282837	11.403510
348.436951	1069.494751	5479.454102	1683.885376	13.931889
348.805328	1064.943726	5402.086426	1574.660400	11.752361
349.173645	1130.933838	5333.820801	1615.619751	11.532214
349.541931	1060.392700	5395.259766	1672.507813	14.120735
349.910217	1078.596802	5577.301270	1622.446289	12.089025
350.278473	1092.250000	5527.240234	1572.384888	10.826064
350.646667	1067.219238	5763.894043	1677.058838	12.984497
351.014801	1026.259888	5827.608887	1636.099487	12.701422
351.382935	1033.086426	5895.874512	1731.671387	14.365934
351.751007	1128.658325	5688.802246	1715.742676	12.874250
352.119049	1080.872437	5950.486816	1645.201538	11.588784
352.487091	1101.352051	5873.119141	1658.854614	11.683356
352.855072	1033.086426	5786.649414	1706.640625	14.169460
353.222992	1046.739624	5975.517578	1752.151001	14.312096
353.590881	1033.086426	6046.058594	1738.497925	14.071722
353.958740	1092.250000	6255.406738	1777.181763	13.265756
354.326599	1035.361938	6337.325195	1768.079712	13.819744
354.694397	1158.240112	6601.285645	1911.437500	13.837793
355.062134	1037.637451	6703.684082	1870.478149	14.698796
355.429840	1130.933838	6890.276855	1954.672363	14.302648
355.797516	1101.352051	6960.818359	1893.233276	13.514563
356.165192	1046.739624	7017.706055	1906.886475	14.405488
356.532776	1044.463989	7233.880859	1884.131226	13.566176
356.900360	1083.147949	7445.503906	2004.733887	14.484980
357.267883	1078.596802	7588.861816	1975.152100	13.771410
357.635376	1071.770264	8087.201172	2088.927979	14.498863
358.002808	1069.494751	8262.416016	2120.785400	14.615628
358.370270	1080.872437	8756.204102	2127.612061	13.637712
358.737640	1062.668213	8722.071289	2248.214600	15.478312
359.105011	1055.841675	8494.519531	2211.806152	15.539919
359.472321	1062.668213	8162.292969	2116.234375	14.839744
359.839569	1049.015137	8182.772949	2143.540527	15.342901
360.206787	1037.637451	7930.189941	2072.999512	15.021461
360.574005	1023.984375	8296.548828	2184.500000	15.957447
360.941193	1046.739624	8801.714844	2282.347412	15.933098
361.308319	1003.504700	9165.797852	2321.031250	16.141624
361.675415	1008.055725	9964.505859	2437.082764	15.955284
362.042450	1110.454102	10690.396484	2487.144287	14.370547
362.409424	1008.055725	11115.918945	2614.573486	15.893744
362.776428	1046.739624	11099.990234	2589.542725	15.346311
363.143402	1071.770264	10804.172852	2641.879639	16.132803
363.510284	1094.525513	9932.648438	2498.521729	15.885683
363.877136	1092.250000	9236.338867	2291.449463	14.724784
364.243988	1121.831787	8503.621094	2334.684326	16.430334
364.610779	1105.903076	8071.272461	2182.224365	15.452466
364.977539	1058.117188	7964.322754	2193.602051	16.441515
365.344269	1017.157776	7775.454590	2204.979736	17.575760
365.710938	1039.912964	7641.198730	2184.500000	17.338850
366.077576	1019.433350	7427.299805	2225.459229	18.821022
366.444183	1001.229126	7334.003418	2141.265137	18.002157
366.810760	1044.463989	7447.779785	2118.509766	16.773275
367.177277	998.953613	7525.147461	2264.143311	19.386333
367.543823	1055.841675	7436.401855	2166.295898	17.403711
367.910248	1039.912964	7390.891602	2277.796387	19.491224
368.276642	1049.015137	7236.156250	2184.500000	18.352335
368.643036	1058.117188	7447.779785	2179.948975	17.556980
369.009399	1110.454102	7124.655762	2234.561523	18.690884
369.375671	1051.290649	7142.859863	2296.000488	20.433319
369.741974	1042.188477	6938.062988	2266.418701	20.764183
370.108215	1142.311401	7004.053223	2225.459229	18.478260
370.474396	1037.637451	7111.002441	2268.694336	20.269766
370.840546	1085.423462	7145.135254	2255.041016	19.301537
371.206665	1021.708862	7274.839844	2341.510986	21.106260
371.572784	1089.974487	7288.493164	2377.919189	20.778267
371.938843	1008.055725	7570.657715	2341.510986	20.319004
372.304840	1110.454102	7418.197754	2432.531738	20.959597
372.670807	1078.596802	7618.443848	2405.225586	20.285318
373.036713	1055.841675	7472.810547	2514.450439	22.730495
373.402649	1026.259888	7368.136230	2398.398926	21.636168
373.768524	985.300537	7363.585449	2412.052002	22.368889
374.134308	1017.157776	7447.779785	2457.562500	22.399151
374.500122	980.749451	7409.095703	2416.603027	22.336281
374.865875	1049.015137	7818.689453	2607.746826	23.025209
375.231567	1112.729614	7859.648926	2530.379150	21.011805
375.597260	1071.770264	7848.271484	2612.297852	22.733377
375.962891	1033.086426	7902.883789	2694.216553	24.180191
376.328461	1078.596802	8394.396484	2776.135498	23.203733
376.694031	1055.841675	8335.232422	2691.941162	22.475775
377.059540	1094.525513	8699.316406	2930.870850	24.147217
377.425049	1112.729614	8945.072266	2851.227539	22.196398
377.790497	1087.698975	9263.645508	2978.656738	23.128305
378.155945	1089.974487	9614.075195	3092.432861	23.491726
378.521301	1121.831787	9611.799805	3215.310791	24.658268
378.886597	1060.392700	9275.022461	3005.962891	23.684210
379.251892	1142.311401	8906.388672	3030.993652	24.325909
379.617157	1074.045776	8565.060547	2926.319824	24.726610
379.982422	1039.912964	8351.161133	2955.901611	26.206041
380.347595	1094.525513	8178.221680	2928.595215	25.891422
380.712738	1053.566162	8278.344727	2930.870850	25.984253
381.077820	1021.708862	8230.558594	2965.003662	26.957073
381.442902	989.851563	8403.498047	2905.840088	25.844078
381.807953	1126.382813	8319.303711	3083.330566	27.206579
382.172974	1085.423462	8480.866211	3067.402100	26.799999
382.537933	1021.708862	8114.507324	3044.646729	28.521011
382.902832	1001.229126	8291.998047	3046.922363	28.058676
383.267700	1112.729614	8330.681641	3160.698486	28.373268
383.632538	1023.984375	8269.242188	3228.964111	30.433420
383.997345	1099.076538	8594.641602	3356.393066	30.115360
384.362152	1046.739624	8844.949219	3463.342773	30.989204
384.726898	1049.015137	8976.929688	3517.955078	31.142363
385.091553	1092.250000	8854.051758	3527.057129	31.369097
385.456238	1060.392700	8872.255859	3529.332764	31.605007
385.820862	1069.494751	9113.460938	3606.700439	31.541723
386.185425	1083.147949	8942.796875	3615.802490	32.223507
386.549988	1055.841675	9006.511719	3681.792725	33.028049
386.914490	1053.566162	9281.849609	3827.426025	33.711285
387.278961	1080.872437	9422.931641	3952.579590	34.424438
387.643372	980.749451	9407.002930	3897.967041	34.620575
388.007782	1105.903076	9566.289063	4034.498291	34.615387
388.372101	1083.147949	9545.809570	4027.671875	34.794300
388.736450	1078.596802	9447.961914	4091.386475	35.997826
389.100739	1092.250000	9475.268555	4296.183105	38.219326
389.464966	998.953613	9379.696289	4232.468750	38.582684
389.829163	1033.086426	9320.533203	4243.846191	38.742447
390.193329	1089.974487	9163.522461	4225.642090	38.838779
390.557495	1001.229126	9193.104492	4448.643066	42.083332
390.921570	1049.015137	9413.829102	4544.214844	41.784546
391.285614	1053.566162	9598.146484	4737.634277	43.115849
391.649597	1101.352051	10248.945313	4906.022949	41.592041
392.013550	1055.841675	10742.733398	5274.657227	43.551796
392.377502	1062.668213	10817.826172	5431.667969	44.786564
392.741455	1119.556274	10952.082031	5540.893066	44.966442
393.105316	1026.259888	10963.458984	5440.770020	44.424088
393.469086	1037.637451	10565.243164	5477.178711	46.596607
393.832886	1080.872437	10444.640625	5556.821777	47.800724
394.196655	1012.606750	10553.865234	5613.709961	48.223228
394.560333	1039.912964	10647.162109	5752.516602	49.052582
394.924042	1058.117188	10733.631836	6048.334473	51.575729
395.287659	1042.188477	10738.182617	5986.895020	50.997417
395.651245	1005.780212	10763.213867	6173.487793	52.961750
396.014771	1121.831787	10476.498047	5993.721680	52.079781
396.378296	1037.637451	10114.690430	5820.782227	52.694908
396.741791	1110.454102	9798.392578	5916.354004	55.316917
397.105255	1062.668213	9684.616211	5843.537598	55.449986
397.468628	1076.321289	9450.238281	5798.026855	56.385864
397.832001	1014.882263	9427.482422	5930.007324	58.425751
398.195313	1049.015137	9650.483398	6080.191406	58.492062
398.558624	1092.250000	9402.452148	6030.129883	59.419491
398.921844	1087.698975	9582.217773	6257.682129	60.862583
399.285095	1026.259888	9602.698242	6221.273926	60.573093
399.648254	1089.974487	9675.514648	6373.733887	61.542538
400.011383	1042.188477	9741.504883	6489.785156	62.620975
400.374451	1126.382813	9723.300781	6498.887207	62.493378
400.737549	1067.219238	9645.932617	6862.970703	67.559685
401.100586	1094.525513	9591.320313	6592.183594	64.702728
401.463562	1078.596802	9645.932617	6692.306641	65.524567
401.826508	994.402588	9946.301758	6858.419922	65.505844
402.189392	1099.076538	9866.658203	6858.419922	65.689072
402.552246	1030.810913	9686.891602	6835.664551	67.060989
402.915070	1126.382813	9918.995117	7019.981445	67.028984
403.277893	1044.463989	10148.823242	7236.156250	68.007996
403.640656	1055.841675	10289.905273	7311.248535	67.742729
404.003326	1042.188477	10640.334961	7720.842285	69.582748
404.366028	1001.229126	10806.448242	7875.577637	70.109077
404.728699	1051.290649	11036.276367	8084.925293	70.442116
405.091248	1037.637451	11475.451172	8505.896484	71.550034
405.453857	1110.454102	11366.226563	8603.744141	73.064125
405.816345	1121.831787	11357.124023	8260.140625	69.742111
406.178833	1062.668213	11377.604492	8376.192383	70.902275
406.541260	1135.484863	11416.288086	8499.070313	71.624619
406.903687	1108.178589	10983.938477	8398.947266	73.824890
407.266052	1028.535400	10936.153320	8087.201172	71.244835
407.628387	1076.321289	10756.386719	8153.190918	73.107666
407.990662	1069.494751	10565.243164	8100.854004	74.047447
408.352905	1119.556274	10797.346680	8362.539063	74.841293
408.715118	1096.801025	10676.743164	8335.232422	75.558197
409.077332	1076.321289	10442.365234	8112.231445	75.121475
409.439484	1096.801025	10679.019531	8505.896484	77.321297
409.801575	1010.331238	10783.693359	8378.467773	75.389992
410.163605	1080.872437	11179.633789	8469.488281	73.163582
410.525635	1051.290649	11074.959961	8815.367188	77.457436
410.887604	1087.698975	11384.430664	8794.887695	74.850822
411.249573	1130.933838	11400.359375	8874.531250	75.404388
411.611481	1058.117188	11566.472656	8892.735352	74.556084
411.973328	1021.708862	11209.215820	8897.286133	77.306229
412.335144	1030.810913	11475.451172	8999.684570	76.296295
412.696930	1035.361938	11079.510742	8769.857422	77.004990
413.058685	1078.596802	11102.265625	8735.724609	76.390472
413.420410	1080.872437	11065.857422	8715.245117	76.458527
413.782104	1074.045776	11131.847656	8742.550781	76.244347
414.143707	1060.392700	11250.174805	8760.754883	75.569450
414.505310	1012.606750	11272.929688	8726.622070	75.182961
414.866852	1099.076538	11477.726563	8997.409180	76.101730
415.228394	1067.219238	11525.512695	9297.778320	78.698875
415.589874	1078.596802	11586.952148	9277.297852	78.020782
415.951324	1128.658325	11805.402344	9356.941406	77.067345
416.312683	1101.352051	12183.138672	9500.299805	75.790550
416.674072	1060.392700	12422.068359	9880.311523	77.628677
417.035370	998.953613	12674.650391	10424.161133	80.725006
417.396667	1012.606750	12852.141602	10547.039063	80.530464
417.757935	1049.015137	13141.132813	10567.518555	78.716606
418.119141	1062.668213	13755.523438	10933.877930	77.769814
418.480286	1051.290649	13846.543945	11282.032227	79.957321
418.841400	1062.668213	14690.762695	11616.534180	77.441978
419.202484	1055.841675	15052.570313	12048.882813	78.540077
419.563568	1112.729614	15619.174805	12608.661133	79.247063
419.924591	1092.250000	16490.699219	13077.417969	77.833603
420.285553	1060.392700	16729.628906	13220.775391	77.606735
420.646484	1087.698975	17785.470703	14447.281250	80.008171
421.007355	1110.454102	18261.054688	14588.364258	78.585640
421.368225	1060.392700	19087.068359	15428.031250	79.702095
421.729065	1014.882263	19485.285156	15296.050781	77.319206
422.089874	1069.494751	20008.654297	16390.576172	80.896309
422.450592	1085.423462	20354.533203	16001.461914	77.409065
422.811279	1010.331238	19917.632813	16017.390625	79.371773
423.171936	1060.392700	19933.562500	15810.318359	78.152878
423.532593	1010.331238	19567.203125	15687.440430	79.092590
423.893127	1019.433350	19942.664063	15855.829102	78.403076
424.253723	1039.912964	20397.767578	15760.256836	76.043259
424.614197	1039.912964	20456.931641	16008.289063	77.088951
424.974670	1137.760376	21091.802734	16681.843750	77.899414
425.335052	1087.698975	21280.669922	16913.945313	78.375023
425.695496	1087.698975	19999.552734	15812.593750	77.860664
426.055817	1008.055725	20254.410156	16117.513672	78.505562
426.416168	985.300537	20156.562500	16037.871094	78.516327
426.776398	1064.943726	19171.263672	15264.193359	78.421509
427.136627	1058.117188	18213.267578	14645.251953	79.201492
427.496826	992.127075	17753.613281	14454.108398	80.314964
427.856995	1060.392700	17266.652344	13641.747070	77.632683
428.217102	1046.739624	16506.626953	13370.959961	79.717400
428.577179	1053.566162	16518.005859	13172.990234	78.369629
428.937195	1042.188477	16304.106445	12979.570313	78.216789
429.297180	1028.535400	15616.899414	12483.506836	78.521286
429.657135	1076.321289	15484.918945	12469.853516	79.074539
430.017059	1085.423462	15980.982422	12638.242188	77.558815
430.376984	1030.810913	15425.755859	12251.404297	77.948151
430.736786	1014.882263	15437.132813	12251.404297	77.911018
431.096588	1044.463989	15018.437500	12046.607422	78.733109
431.456360	1094.525513	15496.296875	12164.934570	76.868385
431.816071	985.300537	14840.946289	11941.933594	79.077026
432.175781	1064.943726	14911.488281	11991.994141	78.915359
432.535400	1110.454102	15455.336914	12219.546875	77.442894
432.895020	1030.810913	15170.897461	11944.208984	77.180565
433.254578	1019.433350	15327.908203	12001.096680	76.749359
433.614105	1026.259888	15457.613281	12458.476563	79.217911
433.973602	1101.352051	15557.735352	12526.742188	79.033539
434.333038	1003.504700	15830.797852	12533.568359	77.762428
434.692444	1044.463989	15812.593750	12765.671875	79.368263
435.051819	1083.147949	16103.860352	12879.447266	78.533546
435.411133	1049.015137	16165.299805	12868.070313	78.187561
435.770416	989.851563	15387.071289	12390.210938	79.184448
436.129669	1049.015137	16274.524414	12906.753906	77.880730
436.488861	996.678101	15644.205078	12633.691406	79.446953
436.848083	1023.984375	15910.441406	12349.250977	76.077652
437.207184	1046.739624	15785.288086	12567.701172	78.168900
437.566254	1039.912964	16263.147461	12909.029297	77.967110
437.925293	987.576050	15992.360352	12918.131836	79.511681
438.284363	1101.352051	16265.422852	12838.488281	77.400963
438.643311	1089.974487	16663.638672	13070.591797	76.928696
439.002258	1117.280762	16586.271484	13300.418945	78.758461
439.361145	1108.178589	17146.048828	13705.461914	78.547112
439.719971	1051.290649	17505.582031	14226.555664	80.071907
440.078827	985.300537	17603.429688	14335.781250	80.336845
440.437592	1062.668213	18395.310547	14636.149414	78.311668
440.796295	1028.535400	18802.628906	14613.394531	76.430672
441.155029	1119.556274	19640.019531	15487.194336	77.577095
441.513672	1096.801025	20345.431641	15892.237305	76.864876
441.872253	1028.535400	20306.748047	15903.615234	77.160057
442.230865	1117.280762	19517.142578	15605.521484	78.741028
442.589386	1078.596802	19717.388672	15573.664063	77.768280
442.947876	1060.392700	19426.121094	15441.684570	78.305046
443.306335	1110.454102	18982.394531	15050.294922	77.998466
443.664764	1112.729614	18224.646484	14426.801758	77.805855
444.023102	1044.463989	18793.525391	14770.405273	77.333344
444.381500	1085.423462	18377.105469	14636.149414	78.365578
444.739777	1026.259888	18600.107422	14592.915039	77.197983
445.098022	1094.525513	18734.363281	15259.642578	80.301857
445.456238	1033.086426	18656.994141	14859.150391	78.450615
445.814423	1085.423462	19483.009766	15459.888672	78.132339
446.172577	1023.984375	20320.400391	16092.483398	78.089622
446.530701	1101.352051	20468.310547	16160.749023	77.758186
446.888733	1060.392700	21344.384766	16756.935547	77.383896
447.246765	1076.321289	22152.195313	17626.183594	78.525154
447.604736	1064.943726	21137.312500	16857.058594	78.675888
447.962677	1049.015137	21756.253906	17148.324219	77.747253
448.320587	1046.739624	21904.164063	17448.693359	78.638443
448.678436	1019.433350	21389.896484	16916.220703	78.038422
449.036255	1128.658325	21253.365234	16675.015625	77.250107
449.394043	1017.157776	19949.490234	15669.236328	77.391830
449.751770	1087.698975	20347.707031	16003.738281	77.445656
450.109467	998.953613	19626.367188	15289.224609	76.716347
450.467163	1064.943726	19517.142578	15721.573242	79.430260
450.824768	1060.392700	19232.701172	15348.387695	78.625099
451.182343	1069.494751	19025.628906	15050.294922	77.860855
451.539886	1064.943726	18356.626953	14567.883789	78.089218
451.897369	989.851563	18468.126953	14743.099609	78.687675
452.254822	1099.076538	18201.890625	14449.556641	78.060135
452.612274	1101.352051	18759.392578	14877.355469	78.015472
452.969635	1023.984375	18656.994141	14576.986328	76.861534
453.326965	1044.463989	18538.667969	14627.047852	77.640488
453.684326	1042.188477	18513.636719	14536.027344	77.233658
454.041534	1014.882263	17922.001953	14062.718750	77.173630
454.398773	1023.984375	17576.123047	14115.055664	79.089905
454.755951	1062.668213	17173.355469	13655.400391	78.163841
455.113098	1023.984375	16866.160156	13122.928711	76.371735
455.470215	1158.240112	16754.660156	13361.858398	78.246277
455.827240	1060.392700	16736.455078	13330.000977	78.269707
456.184265	1078.596802	16413.332031	13116.101563	78.498291
456.541260	1062.668213	16793.343750	13184.367188	77.057716
456.898193	1105.903076	16447.464844	12963.641602	77.291603
457.255096	1033.086426	16984.486328	13284.490234	76.804565
457.611969	1069.494751	16624.955078	13220.775391	78.115852
457.968781	1071.770264	16590.822266	13377.787109	79.296188
458.325531	1105.903076	17234.794922	13395.991211	76.199211
458.682312	1049.015137	17908.349609	14012.657227	76.892967
459.039001	1071.770264	18868.619141	14572.435547	75.859856
459.395630	1039.912964	19703.734375	15428.031250	77.090950
459.752289	1014.882263	21005.332031	16752.384766	78.725105
460.108856	1023.984375	22919.044922	17742.236328	76.356270
460.465363	1049.015137	23478.824219	18686.576172	78.634468
460.821899	1103.627563	23817.876953	18527.291016	76.708076
461.178345	1053.566162	22702.871094	18074.460938	78.620972
461.534760	1076.321289	22275.072266	17539.714844	77.662102
461.891144	1076.321289	21722.121094	16661.363281	75.487709
462.247467	1014.882263	20588.912109	16056.075195	76.842598
462.603760	1103.627563	20174.767578	15717.022461	76.625694
462.960052	1053.566162	18697.955078	14993.406250	79.004379
463.316254	1092.250000	18443.095703	14608.843750	77.901642
463.672424	1092.250000	18231.472656	14419.975586	77.761551
464.028564	1101.352051	17516.958984	13894.330078	77.931801
464.384644	1140.035889	17380.427734	13873.850586	78.408295
464.740723	1021.708862	18072.185547	14019.483398	76.231148
465.096741	1014.882263	17683.072266	13853.371094	77.023895
465.452698	1003.504700	17407.734375	13951.217773	78.929108
465.808655	960.269775	17696.724609	14069.544922	78.327667
466.164520	1069.494751	17623.908203	13769.176758	76.714775
466.520355	1044.463989	18358.902344	14545.128906	77.973457
466.876190	1155.964600	18256.503906	14581.537109	78.509644
467.231964	1049.015137	18616.035156	14506.445313	76.606224
467.587677	1037.637451	18975.568359	15239.163086	79.170364
467.943390	1094.525513	19332.824219	15334.734375	78.078606
468.299011	1158.240112	18661.546875	14809.089844	77.990120
468.654633	1149.138062	18506.810547	14424.526367	76.481392
469.010223	1021.708862	18540.943359	14551.955078	77.230804
469.365723	1167.342163	18067.634766	14247.036133	77.393303
469.721191	1117.280762	18183.687500	14281.168945	77.133339
470.076660	1110.454102	17396.357422	13725.941406	77.462616
470.432068	1062.668213	17928.828125	14174.218750	77.738800
470.787445	1042.188477	17601.154297	13860.197266	77.408272
471.142792	1078.596802	17464.623047	13580.308594	76.294960
471.498016	1064.943726	17767.265625	14060.443359	77.806549
471.853271	1042.188477	17790.021484	14187.872070	78.491852
472.208496	1055.841675	17937.929688	13801.033203	75.495354
472.563660	1012.606750	18042.603516	14360.811523	78.380554
472.918762	1115.005249	18251.953125	14285.719727	76.855667
473.273865	1112.729614	18684.300781	14852.324219	78.192184
473.628876	1026.259888	18934.609375	15225.509766	79.288437
473.983917	1071.770264	18932.333984	15011.610352	78.048149
474.338837	1071.770264	19143.957031	15107.182617	77.663048
474.693787	1101.352051	19096.169922	15070.774414	77.630249
475.048645	1058.117188	18757.117188	14927.416016	78.362045
475.403503	1089.974487	19314.621094	15114.008789	76.950928
475.758270	1010.331238	19519.417969	15248.264648	76.924026
476.113037	1035.361938	19298.691406	15220.958984	77.672562
476.467773	1117.280762	19746.968750	15464.439453	77.012337
476.822418	1174.168701	20825.566406	16306.381836	77.003235
477.177063	1010.331238	20247.583984	16056.075195	78.211502
477.531647	1028.535400	20880.179688	16533.933594	78.106369
477.886200	1005.780212	21494.570313	16811.546875	77.143478
478.240723	1044.463989	22108.960938	17359.947266	77.454895
478.595184	1074.045776	22113.511719	17639.837891	78.736755
478.949585	1089.974487	22677.839844	17774.093750	77.284714
479.303986	1076.321289	22805.269531	18085.839844	78.280449
479.658325	992.127075	23267.201172	18010.748047	76.402084
480.012634	1074.045776	22919.044922	18165.482422	78.239586
480.366913	1010.331238	23863.386719	18770.771484	77.715820
480.721130	1062.668213	24375.378906	18884.546875	76.447044
481.075317	1144.586914	25124.025391	19758.347656	77.623848
481.429474	1042.188477	26345.980469	20993.955078	78.848915
481.783569	1074.045776	27096.902344	21387.619141	78.060509
482.137604	1076.321289	28489.519531	22252.318359	77.247444
482.491669	1101.352051	31129.125000	24627.960938	78.349495
482.845612	989.851563	34688.039063	27042.289063	77.311096
483.199554	1037.637451	38736.191406	30230.292969	77.437073
483.553436	1030.810913	45319.273438	35946.402344	78.836761
483.907318	1092.250000	52503.089844	41799.042969	79.179398
484.261139	1108.178589	57998.472656	48097.683594	82.596695
484.614899	1099.076538	59985.003906	50914.777344	84.596954
484.968628	1105.903076	59912.187500	50880.644531	84.641876
485.322357	1058.117188	57973.445313	47719.945313	81.984642
485.675964	1133.209351	54819.570313	44263.429688	80.337387
486.029572	1110.454102	51119.574219	40247.136719	78.259094
486.383148	969.371887	47931.570313	37917.003906	78.675262
486.736694	1028.535400	45879.050781	35748.433594	77.412483
487.090149	1074.045776	45740.242188	35900.890625	77.971367
487.443604	1069.494751	46859.800781	36433.363281	77.230034
487.796997	1071.770264	48165.949219	38319.769531	79.092575
488.150360	1067.219238	50236.671875	40060.542969	79.303963
488.503693	1042.188477	50939.808594	41093.628906	80.267235
488.856964	1071.770264	49988.640625	39478.011719	78.513283
489.210175	1051.290649	47296.699219	37755.441406	79.368202
489.563416	1046.739624	44905.128906	35152.246094	77.762787
489.916565	1110.454102	42374.750000	33045.113281	77.390533
490.269653	1083.147949	39924.011719	30960.736328	76.923080
490.622772	1115.005249	38645.167969	30159.751953	77.390404
490.975769	1035.361938	38567.800781	30091.486328	77.416039
491.328735	1083.147949	40046.890625	31329.371094	77.626587
491.681732	1049.015137	42024.316406	33165.714844	78.380630
492.034607	1042.188477	44613.859375	35361.593750	78.765411
492.387482	1017.157776	45430.773438	36005.566406	78.778564
492.740326	1099.076538	44852.789063	34763.132813	76.939888
493.093079	1028.535400	42939.078125	33479.738281	77.429688
493.445862	1021.708862	39093.449219	30796.898438	78.208107
493.798523	1033.086426	36228.566406	27866.027344	76.239738
494.151215	1101.352051	33502.492188	26284.541016	77.723160
494.503815	1058.117188	30969.837891	24234.296875	77.481934
494.856384	1064.943726	29026.542969	22866.708984	77.970383
495.208923	1046.739624	28182.324219	21767.632813	76.360596
495.561432	1117.280762	27435.955078	21107.730469	75.955383
495.913879	1083.147949	26468.857422	20657.177734	77.106491
496.266296	1049.015137	26971.748047	21096.353516	77.334969
496.618683	1080.872437	26951.267578	21342.109375	78.318237
496.970978	1110.454102	27611.169922	21626.548828	77.417137
497.323273	1035.361938	27891.058594	21742.601563	77.105576
497.675507	1021.708862	28519.101563	21747.152344	75.372398
498.027710	1099.076538	28473.591797	22072.552734	76.616798
498.379852	1094.525513	27704.464844	21769.908203	77.697968
498.731995	1049.015137	27572.486328	21537.804688	77.247765
499.084076	1121.831787	27021.808594	21066.771484	77.007561
499.436096	1089.974487	26910.308594	20686.759766	75.896713
499.788086	1078.596802	26250.408203	20286.267578	76.306274
500.140106	1087.698975	26009.203125	19944.939453	75.666542
500.491943	1085.423462	25126.300781	19767.449219	77.709419
500.843842	1117.280762	24819.105469	19401.089844	77.140938
501.195679	1046.739624	23968.060547	19091.619141	78.725304
501.547455	1076.321289	24206.990234	18399.861328	74.894241
501.899231	1053.566162	23747.335938	18595.556641	77.298706
502.250885	983.024963	23642.660156	18249.677734	76.200050
502.602600	1010.331238	23276.302734	18254.228516	77.445068
502.954193	1101.352051	23287.679688	18197.339844	77.056412
503.305786	1105.903076	23066.955078	18317.943359	78.375298
503.657379	1094.525513	23490.201172	18272.431641	76.701889
504.008820	1089.974487	23365.046875	18550.044922	78.383904
504.360291	1080.872437	23892.968750	18525.015625	76.468826
504.711700	1026.259888	24034.050781	18379.380859	75.422806
505.063080	1058.117188	24243.398438	18449.921875	75.012268
505.414368	1017.157776	24102.316406	18561.423828	75.998032
505.765656	1028.535400	23754.162109	18185.962891	75.498146
506.116943	1033.086426	23658.589844	18208.716797	75.912697
506.468109	1060.392700	23633.558594	17949.308594	74.818550
506.819305	955.718750	23269.476563	18352.076172	77.962471
507.170410	1030.810913	23540.261719	18238.298828	76.445618
507.521484	1049.015137	23501.578125	18040.328125	75.676498
507.872559	1051.290649	23635.833984	18238.298828	76.100754
508.223480	1053.566162	23506.128906	18570.525391	78.017639
508.574493	1035.361938	24350.347656	18697.955078	75.756401
508.925385	1110.454102	24232.021484	18879.996094	76.852676
509.276245	1126.382813	24641.615234	19143.957031	76.620865
509.627045	1101.352051	25269.658203	19178.089844	74.795219
509.977814	1069.494751	25240.076172	19699.183594	77.075882
510.328613	1051.290649	25167.259766	19762.898438	77.590111
510.679260	1037.637451	25410.740234	19867.572266	77.257027
511.029999	1064.943726	26027.406250	20067.818359	76.125801
511.380585	1110.454102	25783.925781	19740.142578	75.504929
511.731140	1062.668213	26396.041016	20220.277344	75.622025
512.081726	1074.045776	26434.724609	20390.941406	76.168686
512.432129	1089.974487	26805.634766	20682.208984	76.187950
512.782654	1042.188477	26721.441406	20541.126953	75.932648
513.133057	1042.188477	26725.992188	20816.464844	76.991234
513.483398	1030.810913	26682.757813	20989.404297	77.805374
513.833801	1012.606750	26883.001953	20481.962891	75.257278
514.183960	1003.504700	26491.613281	20145.185547	75.100441
514.534302	1092.250000	26061.539063	20156.562500	76.351044
514.884460	1151.413574	26355.082031	20199.798828	75.577827
515.234619	1108.178589	25909.080078	20263.513672	77.236450
515.584717	1124.107300	25827.160156	20008.654297	76.446205
515.934753	1094.525513	25938.662109	19958.593750	75.929657
516.284851	1124.107300	26377.837891	20279.441406	75.851501
516.634766	1130.933838	26582.634766	20602.564453	76.504242
516.984741	1101.352051	27101.453125	20864.250000	76.010849
517.334595	1089.974487	27636.199219	21194.201172	75.732903
517.684448	1101.352051	28589.642578	22047.521484	76.200333
518.034363	1096.801025	29775.189453	23248.996094	77.243515
518.384094	1033.086426	30981.214844	24020.398438	76.757088
518.733826	1064.943726	31898.250000	24514.185547	76.051659
519.083496	992.127075	32942.714844	25556.375000	76.881989
519.433167	1085.423462	33350.031250	25501.761719	75.675301
519.782776	1055.841675	33099.726563	25267.382813	75.557449
520.132324	1069.494751	32849.417969	24926.054688	75.068024
520.481873	1019.433350	32155.384766	24439.093750	75.217422
520.831299	1053.566162	31277.033203	23822.427734	75.335045
521.180786	1030.810913	30674.019531	23153.423828	74.629616
521.530151	1019.433350	29877.587891	22969.107422	76.060562
521.879517	1110.454102	29128.941406	22632.330078	76.813118
522.228882	1085.423462	29019.716797	22807.544922	77.761482
522.578064	1080.872437	29131.216797	22443.460938	76.158028
522.927307	1105.903076	28921.869141	22215.910156	75.891693
523.276489	1087.698975	28976.482422	22379.748047	76.346283
523.625610	1080.872437	29763.812500	22671.013672	75.271713
523.974792	1046.739624	30175.681641	22916.769531	75.080070
524.323792	1055.841675	30758.214844	23503.853516	75.576492
524.672852	1149.138062	31008.521484	23863.386719	76.070724
525.021790	1001.229126	32387.488281	24687.125000	75.465813
525.370728	1037.637451	34075.925781	25642.843750	74.474823
525.719604	1103.627563	35575.492188	27215.228516	75.747581
526.068420	1117.280762	37295.785156	28639.705078	76.073967
526.417297	1010.331238	38852.242188	29743.332031	75.929039
526.765991	1039.912964	40219.832031	30583.000000	75.403648
527.114746	1021.708862	41394.000000	31149.603516	74.625175
527.463379	1051.290649	42413.433594	32633.244141	76.354729
527.812012	1146.862427	45128.128906	34465.039063	75.755379
528.160706	1087.698975	48789.441406	37550.644531	76.439438
528.509155	1126.382813	53490.667969	42138.093750	78.320007
528.857727	1117.280762	57636.667969	46427.449219	80.167480
529.206177	1044.463989	59723.320313	49367.421875	82.351570
529.554565	1044.463989	60041.890625	49895.343750	82.801712
529.902893	1117.280762	58897.304688	48081.753906	81.281502
530.251221	1103.627563	56872.089844	45501.312500	79.610741
530.599548	1069.494751	53677.261719	41892.339844	77.598511
530.947876	1067.219238	50077.386719	38545.046875	76.469498
531.296021	1096.801025	46306.847656	35568.664063	76.248238
531.644165	1078.596802	43284.957031	33122.480469	75.921928
531.992249	1078.596802	41457.714844	31832.259766	76.162292
532.340454	1101.352051	40795.535156	30603.478516	74.323555
532.688354	1094.525513	40647.628906	30667.193359	74.766998
533.036438	1092.250000	41871.859375	32100.771484	76.039284
533.384338	1080.872437	44229.296875	33980.351563	76.247231
533.732239	987.576050	46543.503906	35907.718750	76.653343
534.080139	1026.259888	47260.292969	35671.062500	74.933548
534.427917	1021.708862	46543.503906	35639.207031	76.045990
534.775757	1074.045776	44293.011719	34437.730469	77.196861
535.123474	1096.801025	42265.523438	32203.169922	75.558258
535.471191	1019.433350	39933.113281	30382.753906	75.457581
535.818848	1064.943726	38665.648438	29663.689453	76.059074
536.166382	1049.015137	37241.171875	28735.277344	76.497963
536.513977	1115.005249	37566.574219	28687.490234	75.641418
536.861511	1026.259888	38142.281250	28933.246094	75.188522
537.208984	1042.188477	38155.933594	29040.197266	75.438377
537.556396	1121.831787	37910.175781	28792.164063	75.214943
537.903809	1083.147949	36893.019531	28013.937500	75.204933
538.251160	1060.392700	36135.269531	27265.291016	74.711311
538.598389	1094.525513	34929.246094	26302.744141	74.503998
538.945740	1023.984375	33409.195313	25629.191406	75.976677
539.292969	1021.708862	32917.683594	25171.810547	75.715202
539.640137	1049.015137	32640.070313	24841.861328	75.315132
539.987244	1087.698975	33102.000000	25164.984375	75.207909
540.334351	1108.178589	34069.097656	25702.007813	74.615128
540.681458	1103.627563	35668.789063	27360.861328	75.964455
541.028442	1003.504700	39063.867188	30323.589844	77.035751
541.375366	1103.627563	42406.605469	32822.113281	76.794678
541.722290	1039.912964	46402.421875	35457.164063	75.871574
542.069153	1074.045776	47808.691406	37207.039063	77.315216
542.416016	1069.494751	48611.949219	37122.847656	75.834015
542.762756	1080.872437	47312.628906	36269.527344	76.113602
543.109558	1155.964600	45380.710938	34842.773438	76.171852
543.456299	1039.912964	43394.183594	33320.449219	76.215546
543.802917	1142.311401	41728.500000	32041.609375	76.132545
544.149536	985.300537	39321.000000	30325.865234	76.535881
544.496094	1071.770264	37211.589844	28505.449219	75.909843
544.842651	1021.708862	35589.144531	27174.269531	75.656639
545.189148	1133.209351	34050.894531	25997.824219	75.535736
545.535583	1046.739624	32621.867188	24775.871094	75.151337
545.882019	1092.250000	31777.648438	24741.738281	77.070824
546.228333	1008.055725	31261.105469	24263.878906	76.871002
546.574707	1005.780212	31363.503906	24236.572266	76.523499
546.920898	1080.872437	31147.328125	24163.755859	76.772881
547.267212	1092.250000	31481.830078	24156.929688	75.896667
547.613342	1037.637451	31206.492188	23904.345703	75.795746
547.959473	1055.841675	30660.367188	23522.058594	75.887779
548.305664	996.678101	29986.812500	23032.822266	76.012566
548.651611	1089.974487	28905.941406	22211.359375	75.932594
548.997742	1042.188477	27690.812500	21339.833984	76.167702
549.343689	1049.015137	26250.408203	20229.380859	76.108353
549.689575	1074.045776	25733.865234	19410.193359	74.356377
550.035522	1083.147949	24718.982422	18650.167969	74.323669
550.381287	1108.178589	23776.916016	18306.564453	75.868301
550.727173	1101.352051	23658.589844	18060.808594	75.184105
551.072876	1110.454102	23064.679688	17562.468750	74.937805
551.418640	1092.250000	22859.882813	17619.357422	75.925148
551.764282	1080.872437	22759.759766	17567.021484	76.047028
552.109863	1058.117188	22848.503906	17410.009766	75.041771
552.455505	1119.556274	22823.474609	17344.019531	74.753616
552.801025	1069.494751	23465.169922	17753.613281	74.497055
553.146545	1044.463989	23319.537109	17987.992188	76.064972
553.491943	1019.433350	23993.091797	18399.861328	75.653725
553.837341	1012.606750	23767.814453	18031.226563	74.790001
554.182800	1060.392700	23617.630859	17810.501953	74.256027
554.528015	971.647400	23305.884766	17435.041016	73.713707
554.873352	1049.015137	23101.087891	17278.029297	73.594055
555.218628	1028.535400	22682.390625	16788.792969	72.782684
555.563721	1055.841675	22240.939453	16520.281250	72.996780
555.908875	1042.188477	22040.695313	16388.300781	73.081917
556.254028	1058.117188	21446.783203	15776.185547	72.187500
556.599121	1060.392700	21355.763672	15960.502930	73.416298
556.944031	1053.566162	21205.578125	15901.339844	73.678864
557.289063	1126.382813	20902.933594	15803.492188	74.214706
557.633972	1074.045776	21037.189453	15717.022461	73.350052
557.978882	1060.392700	20727.718750	15648.756836	74.175636
558.323792	1137.760376	20529.748047	15730.675781	75.252289
558.668518	1110.454102	20140.634766	15061.671875	73.311012
559.013306	1087.698975	20479.687500	15293.775391	73.257454
559.358032	1124.107300	19967.695313	15004.784180	73.662598
559.702637	1085.423462	20211.175781	15139.040039	73.480072
560.047363	1008.055725	20322.675781	15330.183594	74.151749
560.391846	1044.463989	20072.369141	15200.478516	74.396080
560.736450	1101.352051	20179.318359	15314.254883	74.499039
561.080933	1089.974487	19878.949219	15289.224609	75.572243
561.425354	1089.974487	20532.023438	15364.316406	73.419945
561.769775	1092.250000	20454.656250	15464.439453	74.227287
562.114136	1026.259888	20689.035156	15671.511719	74.482117
562.458496	1046.739624	20798.259766	15339.286133	72.361755
562.802673	1058.117188	20650.351563	15400.724609	73.205574
563.146912	1094.525513	20354.533203	15375.694336	74.149338
563.491150	1046.739624	20263.513672	14906.936523	72.125519
563.835266	1049.015137	20231.656250	15189.101563	73.712929
564.179443	1080.872437	20290.818359	15193.652344	73.466011
564.523438	1096.801025	20038.236328	14947.896484	73.125900
564.867493	1049.015137	20190.695313	15257.367188	74.227295
565.211426	1067.219238	20664.003906	15277.846680	72.515091
565.555359	1064.943726	20982.578125	15614.624023	73.049240
565.899231	1060.392700	21453.609375	15742.052734	71.992859
566.243042	1128.658325	21751.703125	16386.025391	73.982124
566.586914	1055.841675	22418.431641	16818.375000	73.785683
566.930603	1069.494751	23139.771484	17171.080078	72.955971
567.274292	1105.903076	22932.699219	17212.039063	73.790649
567.617981	1162.791138	22978.208984	17248.447266	73.735268
567.961609	1074.045776	22209.083984	16679.568359	73.837204
568.305237	1060.392700	21926.917969	16659.087891	74.754639
568.648682	1096.801025	21635.652344	16156.197266	73.321510
568.992188	1042.188477	21128.210938	16049.248047	74.713943
569.335632	1103.627563	21289.773438	16072.003906	74.151726
569.679016	1067.219238	21207.853516	15796.665039	73.132973
570.022461	1074.045776	21098.628906	15794.389648	73.511360
570.365662	1103.627563	21114.556641	15773.910156	73.311348
570.708984	1085.423462	20937.066406	15767.083984	73.956902
571.052185	1155.964600	21298.875000	15701.093750	72.209671
571.395386	1042.188477	21376.242188	16276.800781	74.921661
571.738525	1069.494751	22161.296875	16513.455078	73.222572
572.081604	1069.494751	22507.175781	16822.925781	73.484772
572.424683	1092.250000	22880.361328	17143.773438	73.671021
572.767578	1110.454102	23192.107422	17234.794922	73.021439
573.110596	980.749451	22955.453125	17045.925781	73.107597
573.453552	1119.556274	23005.515625	17082.333984	72.936157
573.796387	1060.392700	22577.716797	17189.283203	74.957695
574.139282	1094.525513	22602.748047	16727.353516	72.683029
574.481995	1019.433350	22004.287109	16581.720703	74.159615
574.824768	980.749451	22031.591797	16440.638672	73.440720
575.167480	1017.157776	22243.216797	16301.831055	72.009003
575.510132	1074.045776	21806.316406	16167.575195	72.802101
575.852722	1039.912964	21851.826172	16431.535156	73.955818
576.195251	1039.912964	21751.703125	16247.218750	73.423424
576.537842	1039.912964	21378.517578	16192.606445	74.502129
576.880188	1092.250000	20907.484375	15687.440430	73.656410
577.222717	1049.015137	20268.064453	15391.623047	74.627037
577.565063	1044.463989	20058.716797	15186.826172	74.377693
577.907410	1092.250000	19883.500000	14865.977539	73.298622
578.249756	1085.423462	19228.150391	14638.425781	74.702126
578.591919	1053.566162	19219.048828	14317.577148	73.017662
578.934204	1069.494751	18461.300781	14117.331055	75.022888
579.276306	1119.556274	18540.943359	14030.861328	74.111809
579.618469	1001.229126	17869.664063	13530.247070	74.274925
579.960571	1071.770264	17610.255859	13609.889648	75.811768
580.302551	1053.566162	17432.765625	13145.683594	73.826057
580.644531	1130.933838	17309.886719	13050.111328	73.670883
580.986511	1053.566162	17364.500000	12761.121094	71.777344
581.328369	1035.361938	17171.080078	12897.652344	73.515724
581.670227	1101.352051	17143.773438	12886.274414	73.460991
582.012024	1101.352051	16706.873047	12581.354492	73.563721
582.353821	1115.005249	16665.914063	12501.710938	73.222122
582.695496	1019.433350	16583.996094	12620.038086	74.532158
583.037231	1110.454102	16606.750000	12624.589844	74.302505
583.378845	1076.321289	16540.759766	12401.587891	73.234261
583.720398	989.851563	16306.381836	12431.169922	74.699150
584.062012	1062.668213	16304.106445	12306.016602	73.768288
584.403442	1078.596802	16602.199219	12317.394531	72.398132
584.744934	1019.433350	16310.933594	12092.117188	72.410706
585.086365	1071.770264	16215.361328	12171.760742	73.298271
585.427734	1130.933838	15933.196289	12096.668945	74.081482
585.768982	1115.005249	15933.196289	11982.892578	73.341522
586.110291	1153.689087	15910.441406	11905.524414	72.860443
586.451599	1005.780212	15994.635742	11926.004883	72.855629
586.792725	1117.280762	15908.166016	12185.414063	74.830772
587.133850	1053.566162	15853.553711	12032.954102	74.185112
587.474915	1103.627563	15914.992188	12012.474609	73.651871
587.815979	1099.076538	15967.329102	12035.229492	73.553719
588.157043	1055.841675	16288.177734	12171.760742	72.975800
588.497925	1146.862427	16358.718750	12083.015625	71.892296
588.838867	1078.596802	16156.197266	12276.434570	74.268036
589.179749	1108.178589	16465.667969	12219.546875	72.351463
589.520569	1055.841675	16404.228516	12424.343750	74.069687
589.861450	1112.729614	16820.650391	12704.232422	73.793999
590.202087	1087.698975	16579.445313	12490.333984	73.604584
590.542847	1080.872437	16649.986328	12499.435547	73.341125
590.883484	1053.566162	16936.701172	12767.947266	73.753586
591.224121	1085.423462	16627.230469	12563.150391	73.850662
591.564636	1128.658325	16479.322266	12458.476563	73.806702
591.905151	1067.219238	16206.258789	12303.741211	74.222160
592.245667	1101.352051	16219.912109	12392.486328	74.683929
592.585999	1117.280762	16060.625977	12149.005859	73.823662
592.926453	1008.055725	15978.707031	12149.005859	74.418610
593.266724	1110.454102	16395.126953	12176.311523	72.398392
593.607056	1039.912964	16215.361328	12103.495117	72.904480
593.947388	1092.250000	15965.053711	12128.525391	74.204407
594.287476	998.953613	16310.933594	12269.608398	73.606773
594.627686	1003.504700	16488.423828	12392.486328	73.548859
594.967773	1069.494751	16659.087891	12592.732422	73.916214
595.307861	1010.331238	16734.179688	12620.038086	73.835022
595.647888	1112.729614	16918.498047	12802.080078	73.956230
595.987854	985.300537	17132.396484	12938.611328	74.027618
596.327820	1049.015137	17510.132813	12902.203125	72.007187
596.667725	1051.290649	18051.707031	13436.950195	72.855034
597.007568	1076.321289	18513.636719	13650.849609	72.112747
597.347351	1101.352051	19159.884766	14438.179688	73.853333
597.687073	1099.076538	19494.386719	14210.626953	71.276596
598.026794	1119.556274	19023.353516	14272.066406	73.462128
598.366455	1064.943726	18766.220703	13798.757813	71.937263
598.706116	1099.076538	18117.697266	13830.615234	74.809464
599.045654	1012.606750	17769.541016	13248.082031	73.017387
599.385193	1049.015137	17109.640625	12863.519531	73.561920
599.724731	987.576050	16552.138672	12340.149414	72.938599
600.064087	1067.219238	16185.779297	12167.209961	73.419624
600.403564	1058.117188	15742.052734	11825.881836	73.330238
600.742920	1019.433350	15503.123047	11857.739258	74.831108
601.082153	1023.984375	15664.685547	11564.196289	71.992538
601.421387	964.820801	15118.560547	11366.226563	73.488747
601.760620	1019.433350	15261.917969	11441.318359	73.174629
602.099854	1108.178589	15537.255859	11361.675781	71.061348
602.438843	1083.147949	15377.969727	11461.797852	72.604263
602.778015	1062.668213	15705.644531	11734.860352	72.882668
603.117065	1014.882263	16342.790039	12094.392578	72.283257
603.456055	1051.290649	16586.271484	12326.496094	72.579460
603.794983	1087.698975	17064.130859	12626.865234	72.226181
604.133850	1055.841675	17767.265625	13045.560547	71.745644
604.472778	1076.321289	18063.083984	13336.827148	72.176826
604.811584	1092.250000	18832.210938	13816.961914	71.729088
605.150330	1037.637451	19125.751953	14408.597656	73.921242
605.489075	1023.984375	19621.816406	14344.882813	71.626083
605.827698	1126.382813	19665.050781	14394.944336	71.572357
606.166382	1053.566162	18898.201172	13878.401367	71.869415
606.504883	1080.872437	18415.789063	13557.552734	71.974281
606.843445	1076.321289	17844.634766	13282.214844	72.791428
607.181946	971.647400	17259.826172	12729.263672	72.184967
607.520386	1019.433350	16524.832031	12481.231445	73.921333
607.858826	1008.055725	16258.595703	12087.566406	72.649956
608.197083	1053.566162	16203.983398	12030.678711	72.454193
608.535461	1071.770264	15494.021484	11730.309570	73.903435
608.873718	1046.739624	16017.390625	11907.800781	72.549026
609.211914	1071.770264	16108.412109	12007.922852	72.730019
609.550171	1078.596802	16954.906250	12394.761719	71.277046
609.888245	1094.525513	17064.130859	12492.609375	71.373611
610.226318	1103.627563	17516.958984	12795.253906	71.232498
610.564392	1030.810913	17237.070313	13111.550781	74.543663
610.902344	1078.596802	17130.121094	13184.367188	75.418198
611.240295	1121.831787	17182.457031	12929.508789	73.519409
611.578247	1103.627563	16754.660156	12790.702148	74.672867
611.916138	1135.484863	16320.035156	12868.070313	77.266602
612.253845	1049.015137	15530.429688	12385.660156	78.284096
612.591675	1103.627563	15441.684570	11989.718750	75.924454
612.929382	1037.637451	15009.334961	11784.921875	76.921822
613.267090	1001.229126	14262.964844	11348.022461	78.019905
613.604736	1133.209351	14442.730469	11238.796875	75.927505
613.942261	1042.188477	14265.240234	10965.734375	75.047318
614.279785	946.616638	14226.555664	10740.458008	73.749146
614.617310	978.473938	14064.994141	10710.875977	74.369675
614.954712	1008.055725	13730.492188	10767.764648	76.712578
615.292175	1044.463989	14003.554688	10569.793945	73.503075
615.629517	1126.382813	13571.206055	10292.180664	73.651489
615.966797	1089.974487	13543.899414	10362.721680	74.456421
616.304138	1076.321289	13409.644531	10021.393555	72.527672
616.641296	1064.943726	13719.115234	10283.078125	72.846603
616.978516	1033.086426	13325.450195	10132.894531	74.028145
617.315552	1085.423462	13637.196289	10064.628906	71.537346
617.652771	1121.831787	13418.746094	10198.883789	73.815689
617.989685	1017.157776	13628.093750	10276.251953	73.421150
618.326721	1108.178589	13477.910156	10073.730469	72.479759
618.663696	1092.250000	13568.930664	10258.047852	73.463432
619.000549	1121.831787	13816.961914	10258.047852	71.966301
619.337463	1074.045776	13587.134766	10212.537109	73.031456
619.674194	1076.321289	13578.032227	9966.781250	71.113945
620.010986	1087.698975	13457.429688	9975.882813	71.854301
620.347778	1076.321289	13430.124023	9841.627930	70.952293
620.684387	1101.352051	13434.674805	10012.291992	72.250923
621.020996	1030.810913	13248.082031	9868.933594	72.341217
621.357605	1078.596802	13150.234375	9809.770508	72.327995
621.694214	1058.117188	13145.683594	9857.555664	72.797440
622.030579	1080.872437	13015.978516	9677.790039	72.030510
622.367065	1012.606750	13086.520508	9812.045898	72.879761
622.703430	1067.219238	13047.835938	9607.249023	71.282051
623.039795	1026.259888	12902.203125	9461.615234	71.028931
623.376160	1030.810913	12890.825195	9554.912109	71.872604
623.712402	1178.719727	12827.110352	9566.289063	72.006248
624.048645	1099.076538	12799.804688	9714.198242	73.628937
624.384766	1105.903076	12813.458008	9520.779297	71.875610
624.720886	1042.188477	12918.131836	9630.003906	72.312698
625.057007	1067.219238	12918.131836	9616.350586	72.139015
625.392944	1078.596802	13152.509766	9711.922852	71.503960
625.729004	1083.147949	13116.101563	9732.402344	71.879730
626.064941	1019.433350	13461.981445	9964.505859	71.890999
626.400818	1083.147949	13284.490234	9939.474609	72.584854
626.736633	1099.076538	13919.360352	10371.824219	72.328728
627.072449	1092.250000	13935.289063	10424.161133	72.661240
627.408264	1028.535400	13951.217773	10503.803711	73.322769
627.743896	998.953613	14426.801758	10544.763672	71.089653
628.079590	1021.708862	14181.045898	10408.232422	71.329758
628.415161	1051.290649	14404.046875	10594.825195	71.472397
628.750793	1037.637451	14014.932617	10280.802734	71.225670
629.086365	1105.903076	13707.737305	10048.700195	70.964249
629.421753	1064.943726	13336.827148	9903.066406	72.019287
629.757263	1060.392700	13154.786133	9955.403320	73.546562
630.092651	1008.055725	13097.897461	9705.096680	71.936768
630.427917	1128.658325	12849.866211	9320.533203	69.889343
630.763184	1096.801025	12681.477539	9297.778320	70.791595
631.098511	1128.658325	12681.477539	9552.636719	72.917084
631.433716	1094.525513	12244.577148	9277.297852	73.387756
631.768799	1055.841675	12242.301758	9040.644531	71.379173
632.103943	1133.209351	12019.300781	9149.869141	73.641304
632.438965	1158.240112	12139.903320	8917.765625	70.658928
632.773987	1049.015137	11939.657227	8785.786133	71.040535
633.109070	1030.810913	11873.667969	8669.734375	70.451202
633.443848	1087.698975	11759.891602	8817.643555	72.430710
633.778870	1035.361938	11648.390625	8879.082031	73.906525
634.113708	1046.739624	11991.994141	8892.735352	71.683990
634.448425	951.167725	12080.740234	8728.897461	69.883453
634.783264	985.300537	12060.259766	8926.868164	71.707420
635.117859	1058.117188	11896.422852	9058.848633	73.819023
635.452576	980.749451	12012.474609	8690.213867	69.884483
635.787170	1053.566162	11627.911133	8690.213867	72.218636
636.121704	1085.423462	11705.279297	8644.703125	71.180626
636.456177	1130.933838	11404.910156	8451.284180	71.251389
636.790588	1117.280762	11391.256836	8455.834961	71.428566
637.125122	1080.872437	11275.206055	8216.905273	69.999992
637.459412	1019.433350	11036.276367	8198.701172	71.671959
637.793762	1135.484863	10883.816406	7987.078125	70.284775
638.128052	1067.219238	10963.458984	8073.547852	70.797882
638.462280	1028.535400	10842.856445	8189.599121	72.965446
638.796509	1026.259888	10656.263672	8128.160156	73.747635
639.130615	1067.219238	10603.926758	7861.924316	71.247917
639.464722	1060.392700	10496.977539	7989.353516	73.426575
639.798767	1094.525513	10628.958008	7932.465332	71.718376
640.132751	1071.770264	10590.273438	7645.750000	69.065269
640.466736	1001.229126	10565.243164	7582.035156	68.807999
640.800598	1037.637451	10458.293945	7579.759766	69.444443
641.134521	1076.321289	10214.812500	7422.749023	69.447220
641.468262	1067.219238	10449.191406	7461.432617	68.154251
641.802063	1046.739624	10030.496094	7422.749023	70.972641
642.135803	1099.076538	9953.127930	7475.085938	72.012337
642.469421	1046.739624	9830.250000	7263.462402	70.777199
642.803101	1033.086426	10121.516602	7320.350586	69.178772
643.136658	1083.147949	9918.995117	7192.921387	69.147568
643.470215	1087.698975	9705.096680	7308.972656	72.194344
643.803711	1042.188477	9652.758789	7372.687500	73.520088
644.137085	1067.219238	9889.413086	7149.686523	68.945068
644.470581	1053.566162	9800.667969	7213.400879	70.421440
644.803833	1087.698975	9463.890625	7238.431641	73.431137
645.137207	1092.250000	9816.596680	7038.186035	68.153366
645.470459	1094.525513	9614.075195	7161.063965	71.207268
645.803589	1074.045776	9593.595703	7261.187012	72.622864
646.136780	1128.658325	9834.800781	7227.054199	70.047050
646.469849	1083.147949	9579.942383	7076.869629	70.540970
646.802979	1110.454102	9757.433594	7190.645508	70.315781
647.135986	1089.974487	9868.933594	7145.135254	68.973564
647.468994	1105.903076	9914.444336	7170.166016	68.845261
647.801941	1055.841675	9793.841797	7252.084961	70.911461
648.134766	1105.903076	9873.484375	7245.258301	70.023369
648.467651	1026.259888	9930.373047	7142.859863	68.694099
648.800354	1058.117188	9953.127930	7345.381348	70.683044
649.133179	1058.117188	9841.627930	7065.492188	68.393784
649.465881	1021.708862	9750.606445	7097.349609	69.603760
649.798462	1124.107300	9616.350586	7313.523926	72.883179
650.131104	1049.015137	9666.412109	7070.042969	69.870613
650.463623	1071.770264	9641.381836	7170.166016	71.163033
650.796143	1064.943726	9689.167969	7186.094727	70.976250
651.128662	1042.188477	9641.381836	7299.870605	72.770569
651.461060	1055.841675	9680.065430	7095.073730	70.026382
651.793396	1035.361938	9766.535156	7324.901367	72.035446
652.125732	1046.739624	9693.718750	7222.502930	71.421043
652.458008	1019.433350	9698.269531	7188.370117	71.080231
652.790222	1074.045776	9796.117188	7288.493164	71.249672
653.122437	1080.872437	9680.065430	7149.686523	70.574226
653.454529	1062.668213	9627.728516	7211.125488	71.785332
653.786621	1010.331238	9707.372070	6990.399902	68.759811
654.118713	1069.494751	9516.227539	7054.114258	70.851295
654.450623	1062.668213	9504.850586	7040.461426	70.808617
654.782654	1062.668213	9536.708008	7019.981445	70.300751
655.114502	1071.770264	9472.993164	6849.317383	68.770309
655.446350	1130.933838	9309.155273	6892.552734	70.450760
655.778198	1062.668213	9350.115234	6947.165039	71.004944
656.109863	1094.525513	9106.633789	6651.347168	69.355301
656.441650	1021.708862	9158.971680	6908.480957	72.343391
656.773254	1021.708862	9067.950195	6787.878418	71.662895
657.104919	1110.454102	9172.624023	6799.256348	70.561676
657.436462	1101.352051	9252.267578	6671.827148	68.341713
657.767944	1012.606750	9238.614258	6831.113281	70.733055
658.099548	1096.801025	9443.411133	6831.113281	68.702293
658.430908	1067.219238	9798.392578	7019.981445	68.178261
658.762268	1030.810913	9793.841797	7170.166016	70.059715
659.093628	1064.943726	10062.352539	7502.392090	71.547798
659.424927	1094.525513	10335.415039	7459.157227	68.874664
659.756226	1049.015137	10726.804688	7663.954102	68.351761
660.087341	992.127075	10995.316406	8057.619141	70.632393
660.418518	1105.903076	11077.235352	8173.670898	70.880875
660.749573	1144.586914	10704.049805	8003.006836	71.744827
661.080627	1124.107300	10810.999023	7775.454590	68.663383
661.411621	1067.219238	10681.294922	7668.504883	68.662712
661.742554	1124.107300	10344.517578	7577.484375	69.990128
662.073547	1135.484863	10021.393555	7340.830078	69.833549
662.404297	1096.801025	10028.219727	7176.992676	68.076431
662.735229	1080.872437	9645.932617	7122.379883	70.536659
663.065979	1055.841675	9577.666992	7008.604004	69.853134
663.396667	1028.535400	9281.849609	6953.991699	71.794868
663.727417	1099.076538	9067.950195	6635.418457	69.474586
664.057922	1071.770264	9052.021484	6599.010254	69.261482
664.388611	1071.770264	8869.980469	6492.061035	69.506859
664.719116	1078.596802	8922.317383	6348.703125	67.188858
665.049622	1062.668213	8535.478516	6416.968750	71.650429
665.380005	1076.321289	8576.437500	6492.061035	72.208748
665.710388	1049.015137	8644.703125	6423.795410	70.760941
666.040771	1053.566162	8626.499023	6312.294922	69.441109
666.371033	1042.188477	8569.611328	6280.437500	69.588875
666.701294	1046.739624	8360.263672	6148.457031	69.757309
667.031555	1017.157776	8462.662109	6287.264160	70.782394
667.361633	1108.178589	8587.815430	6282.712891	69.181625
667.691772	1099.076538	8464.937500	6155.283691	68.643806
668.021790	1067.219238	8453.559570	6159.834961	68.946396
668.351807	1003.504700	8494.519531	6234.926758	69.835960
668.681763	1037.637451	8360.263672	6344.151855	72.467369
669.011719	1083.147949	8371.640625	6237.202637	70.714958
669.341614	1028.535400	8451.284180	6216.722656	69.895767
669.671387	1044.463989	8567.335938	6241.753418	69.086510
670.001221	1055.841675	8535.478516	6401.040039	71.463341
670.330933	1039.912964	8317.028320	6187.141113	70.731712
670.660583	983.024963	8357.988281	6248.580078	71.397713
670.990173	1023.984375	8235.109375	6305.468262	73.240776
671.319763	1026.259888	8435.355469	6114.324219	68.673218
671.649292	1085.423462	8180.497070	5989.170898	69.114822
671.978821	1064.943726	8244.211914	6262.233398	72.393028
672.308289	1080.872437	8230.558594	6121.150879	70.496498
672.637695	1037.637451	8273.793945	5977.792969	68.270432
672.966980	1064.943726	8096.303223	5961.864258	69.644005
673.296326	1062.668213	8146.364258	5911.803223	68.454865
673.625610	1092.250000	7943.843262	6118.875488	73.364326
673.954773	1137.760376	8098.578613	5804.853516	67.048058
674.283936	1060.392700	7946.118652	5870.843750	69.861206
674.613037	1089.974487	7948.394043	5788.924805	68.513603
674.942078	1067.219238	7798.209961	5870.843750	71.365784
675.271118	1044.463989	7882.404297	5757.067871	68.918472
675.600098	1124.107300	7682.158203	5752.516602	70.575989
675.928955	1046.739624	7884.679688	5800.302734	69.517471
676.257813	1087.698975	7600.239258	5645.566895	69.986031
676.586670	1119.556274	7864.199707	5772.996094	68.994598
676.915466	1142.311401	7709.464355	5659.220215	68.780319
677.244141	1110.454102	7793.658691	5588.679199	67.007156
677.572876	1067.219238	7686.709473	5622.812012	68.820900
677.901489	1030.810913	7743.597168	5800.302734	71.050850
678.230042	1071.770264	7770.903320	5556.821777	66.949738
678.558594	1117.280762	7759.525879	5752.516602	69.784172
678.887085	1049.015137	7850.546875	5850.363770	70.592163
679.215515	1035.361938	7841.444824	5975.517578	72.584419
679.543945	1003.504700	8039.415039	5904.976563	69.663651
679.872253	1083.147949	8189.599121	6089.293457	70.445084
680.200562	1101.352051	8362.539063	6134.804199	69.319962
680.528809	1076.321289	8114.507324	6137.079590	71.904297
680.856995	1058.117188	8619.672852	6198.518555	67.980736
681.185120	1103.627563	8521.825195	6398.764648	71.380371
681.513306	1055.841675	8569.611328	6337.325195	70.290726
681.841309	1087.698975	8565.060547	6273.610840	69.354843
682.169373	1108.178589	8403.498047	6296.366211	71.116661
682.497314	1074.045776	8207.803711	6246.304688	72.503983
682.825134	1051.290649	8196.425781	6153.008301	71.401276
683.153076	983.024963	8339.784180	6032.405762	68.635941
683.480896	1080.872437	8178.221680	5998.272949	69.285027
683.808655	1049.015137	8187.323730	5841.261719	67.134201
684.136414	1044.463989	8082.649902	5961.864258	69.867439
684.464050	1135.484863	7786.832031	5497.658203	65.583305
684.791626	1112.729614	7780.005859	5597.781250	67.269623
685.119263	1085.423462	7543.351563	5634.189453	70.436928
685.446838	1083.147949	7468.259277	5597.781250	70.705635
685.774292	1039.912964	7431.851074	5520.413574	70.096123
686.101685	1003.504700	7527.422852	5361.126953	66.794556
686.429077	1078.596802	7502.392090	5404.361816	67.339706
686.756348	1069.494751	7293.043945	5402.086426	69.616089
687.083679	1033.086426	7233.880859	5465.800781	71.486237
687.410950	1080.872437	7497.840820	5445.321289	68.014183
687.738159	1151.413574	7327.176758	5367.953613	68.275612
688.065308	1126.382813	7570.657715	5465.800781	67.337570
688.392395	1115.005249	7527.422852	5588.679199	69.765793
688.719421	1089.974487	7531.973633	5345.198242	66.054398
689.046448	1085.423462	7459.157227	5522.688965	69.617996
689.373413	1060.392700	7475.085938	5524.964355	69.599144
689.700317	1055.841675	7324.901367	5468.076660	70.381126
690.027100	1003.504700	7302.146484	5254.177734	67.485550
690.353943	1064.943726	7172.441406	5347.474121	70.119232
690.680725	1008.055725	7006.328613	5195.014160	69.802734
691.007446	1051.290649	6979.022461	5249.626465	70.825333
691.334106	1026.259888	6812.909180	5126.748535	70.861191
691.660645	1149.138062	6662.725098	5101.717773	71.687988
691.987244	1001.229126	6662.725098	4969.737305	70.096458
692.313721	1044.463989	6551.224609	5010.696777	72.024788
692.640259	1096.801025	6694.582031	4883.267578	67.642273
692.966675	1137.760376	6658.173828	4896.920898	68.095634
693.293030	1089.974487	6535.295898	4926.502441	70.455490
693.619324	1037.637451	6548.948730	4865.063477	69.446739
693.945618	1099.076538	6405.590820	4876.440918	71.183533
694.271851	1046.739624	6419.244141	4874.165527	71.240997
694.598083	1117.280762	6382.835938	4785.420410	69.662926
694.924194	1051.290649	6341.876465	4721.705566	69.376343
695.250244	1051.290649	6280.437500	4651.164551	68.842468
695.576294	1001.229126	6289.539551	4789.971191	71.643715
695.902283	1060.392700	6216.722656	4669.368652	69.991173
696.228210	1039.912964	6376.009277	4719.430176	68.955223
696.554138	1058.117188	6339.601074	4723.980957	69.409729
696.879944	1101.352051	6360.080566	4710.328125	68.628304
697.205750	1128.658325	6451.101563	4783.144531	68.661819
697.531433	1033.086426	6517.091797	4824.104004	69.128624
697.857178	1080.872437	6710.510742	4906.022949	67.946648
698.182739	1115.005249	6771.949707	5167.707520	71.641190
698.508423	1078.596802	7233.880859	5263.279785	67.985214
698.833984	1030.810913	7274.839844	5443.045898	70.663269
699.159485	1099.076538	7616.167969	5611.434082	69.238823
699.484924	1087.698975	8057.619141	5893.598633	68.952003
699.810303	1046.739624	8064.445801	5982.344238	70.330742
700.135681	1046.739624	8062.170410	6112.048828	72.202400
700.460999	1051.290649	8028.037598	5866.292480	69.014999
700.786255	1037.637451	7682.158203	5602.332031	68.698624
701.111450	1105.903076	7645.750000	5499.933594	67.188583
701.436646	1067.219238	7363.585449	5445.321289	69.533791
701.761719	1085.423462	7067.767578	5251.901855	69.646248
702.086792	1108.178589	6676.377930	5047.104980	70.739677
702.411865	1105.903076	6735.541504	4910.573730	67.582855
702.736816	1026.259888	6371.458008	4671.644043	68.199234
703.061646	1171.893188	6196.243164	4655.715332	69.338760
703.386536	1037.637451	6118.875488	4514.633301	68.428123
703.711365	1019.433350	5916.354004	4357.622559	68.169144
704.036194	1074.045776	6023.303711	4478.225098	68.781609
704.360901	1124.107300	5818.506836	4193.784668	65.390205
704.685547	1058.117188	5752.516602	4323.489746	69.558899
705.010132	1035.361938	5725.210449	4328.040527	70.208633
705.334717	1035.361938	5520.413574	4246.121582	71.588020
705.659302	1119.556274	5586.403809	4230.193359	69.638313
705.983765	1099.076538	5615.985352	4355.346680	72.090675
706.308228	1033.086426	5638.740723	4196.060547	68.675888
706.632568	1019.433350	5411.188477	4211.988770	72.694298
706.956909	1060.392700	5436.219238	4180.131836	71.294853
707.281189	1071.770264	5486.280762	4225.642090	71.443291
707.605408	1051.290649	5565.923828	4182.407227	69.354843
707.929626	1162.791138	5600.056641	4171.029785	67.794876
708.253784	1064.943726	5524.964355	4264.326172	71.734703
708.577820	1058.117188	5625.087402	4145.999023	67.613358
708.901855	1055.841675	5470.352051	4107.314941	69.123711
709.225830	1037.637451	5586.403809	4227.917480	70.135056
709.549805	1099.076538	5575.025879	4323.489746	72.038643
709.873718	1071.770264	5429.392578	4205.162598	71.906013
710.197510	1055.841675	5770.720703	4252.948242	67.808876
710.521362	1051.290649	5595.505859	4337.142578	72.308456
710.845093	1064.943726	5679.699707	4280.254395	69.674553
711.168701	998.953613	5775.271973	4498.704590	73.272987
711.492432	1074.045776	5914.078613	4332.591797	67.324875
711.816040	1083.147949	6116.600098	4391.755371	65.732368
712.139587	1069.494751	6023.303711	4444.092285	68.121269
712.463074	1019.433350	6073.365234	4471.398438	68.302567
712.786499	1087.698975	6061.987305	4516.908691	68.938705
713.109924	1076.321289	5898.149902	4439.541016	69.749878
713.433350	1019.433350	5943.660156	4298.458984	66.589661
713.756592	1135.484863	5811.680176	4266.601563	66.958641
714.079834	996.678101	5836.710938	4309.836426	68.453217
714.403015	1033.086426	5704.730469	4143.723145	66.585480
714.726196	1162.791138	5695.628418	4337.142578	70.030121
715.049255	1119.556274	5636.464844	4173.305176	67.607056
715.372375	1074.045776	5593.229980	4287.081055	71.097679
715.695435	1115.005249	5577.301270	4120.968262	67.363594
716.018311	1096.801025	5643.291504	4114.141602	66.366371
716.341248	1053.566162	5634.189453	4177.855957	68.206657
716.664063	1099.076538	5556.821777	4275.703613	71.260849
716.987000	1035.361938	5600.056641	4225.642090	69.890327
717.309692	1028.535400	5458.974609	4202.886719	71.648682
717.632385	1012.606750	5631.914063	4080.008789	66.403946
717.955078	1121.831787	5411.188477	4143.723145	70.450928
718.277649	1092.250000	5379.331055	4057.253662	69.161362
718.600220	1103.627563	5192.738281	3959.406250	69.838623
718.922791	1012.606750	5210.942871	3816.048340	66.775070
719.245300	1046.739624	5001.594727	3736.405273	68.009209
719.567688	1039.912964	5081.237793	3770.538086	67.567574
719.890015	1035.361938	4833.206055	3775.089111	72.139008
720.212341	1044.463989	4853.686035	3754.609375	71.146950
720.534607	1092.250000	4735.358887	3597.598389	68.769516
720.856873	1001.229126	4842.308105	3558.914551	66.587685
721.179016	1051.290649	4783.144531	3502.026611	65.670731
721.501160	1062.668213	4703.501465	3463.342773	65.937500
721.823242	1105.903076	4626.133789	3413.281250	65.546219
722.145264	1044.463989	4592.000977	3470.169189	68.377159
722.467224	1112.729614	4523.735352	3456.516113	68.712479
722.789185	1112.729614	4546.490723	3449.689453	68.058311
723.111023	1096.801025	4489.602539	3345.015625	66.264252
723.432861	1067.219238	4635.235840	3420.107666	65.943878
723.754578	1028.535400	4439.541016	3422.383301	70.180122
724.076294	1117.280762	4432.714355	3360.944336	67.673309
724.397949	1071.770264	4460.020996	3497.475586	71.591675
724.719666	1055.841675	4478.225098	3436.036377	69.547874
725.041260	1051.290649	4380.377441	3351.842041	69.104568
725.362732	1042.188477	4421.336914	3326.811523	67.609428
725.684265	1033.086426	4566.970215	3495.199951	69.671608
726.005676	1035.361938	4437.265625	3319.984863	67.157188
726.327087	1058.117188	4596.552246	3381.423828	65.659157
726.648438	1037.637451	4512.357910	3370.046387	67.125084
726.969666	994.402588	4471.398438	3415.556641	69.633507
727.290894	1099.076538	4416.785645	3561.189941	74.211250
727.612061	1110.454102	4557.868164	3492.924316	69.108910
727.933228	1112.729614	4648.889160	3527.057129	68.275414
728.254395	1089.974487	4562.419434	3618.078125	72.804710
728.575378	1030.810913	4860.512207	3613.527100	67.439110
728.896301	1108.178589	4837.757324	3704.547852	69.615616
729.217285	1087.698975	4803.624512	3647.659912	68.891609
729.538147	1101.352051	4819.553223	3602.149414	67.258255
729.858948	1064.943726	4926.502441	3524.781738	63.700649
730.179810	1037.637451	4906.022949	3590.771729	65.999992
730.500549	1074.045776	4721.705566	3515.679688	66.936996
730.821228	1058.117188	4721.705566	3556.638916	68.198753
731.141846	1108.178589	4687.572754	3540.710449	67.959320
731.462402	1096.801025	4764.940430	3618.078125	68.734497
731.782898	1062.668213	4824.104004	3611.251465	67.755600
732.103455	1094.525513	4926.502441	3615.802490	65.795715
732.423889	1085.423462	4871.890137	3704.547852	69.170670
732.744263	1064.943726	4896.920898	3681.792725	68.289787
733.064636	1076.321289	4919.675781	3649.935303	66.962700
733.384888	1021.708862	4842.308105	3722.751953	70.696846
733.705200	1080.872437	4803.624512	3720.476563	70.904640
734.025330	992.127075	4874.165527	3540.710449	65.650650
734.345520	1083.147949	4719.430176	3563.465576	68.210258
734.665527	1069.494751	4817.277344	3654.486328	68.973892
734.985596	1069.494751	4601.103027	3538.434814	69.909790
735.305542	1071.770264	4592.000977	3533.883789	69.941826
735.625549	1146.862427	4596.552246	3461.067139	67.084419
735.945435	1108.178589	4416.785645	3408.730225	69.532341
736.265259	1014.882263	4428.163574	3365.495361	68.866669
736.585083	1064.943726	4487.327148	3399.628174	68.218094
736.904785	1119.556274	4373.550781	3345.015625	68.391617
737.224426	1096.801025	4369.000000	3294.954102	67.176636
737.544128	1128.658325	4400.857422	3274.474365	65.577179
737.863708	1076.321289	4257.499512	3404.179199	73.175964
738.183289	1051.290649	4462.296387	3304.056152	66.044029
738.502808	1062.668213	4462.296387	3345.015625	67.135208
738.822205	1021.708862	4419.061523	3269.923340	66.175484
739.141541	1062.668213	4384.928711	3304.056152	67.465752
739.460938	1033.086426	4621.582520	3324.535889	63.855427
739.780212	1089.974487	4548.766113	3420.107666	67.368423
740.099426	1115.005249	4578.347656	3329.086914	63.929043
740.418640	1069.494751	4562.419434	3426.934326	67.491844
740.737793	989.851563	4494.153809	3449.689453	70.194801
741.056885	1021.708862	4380.377441	3372.321777	69.986450
741.375977	1035.361938	4444.092285	3306.331787	66.622154
741.694946	1030.810913	4330.315918	3372.321777	70.965515
742.013855	1115.005249	4357.622559	3367.770752	69.473686
742.332703	1087.698975	4259.774902	3119.739014	64.060257
742.651550	1023.984375	4200.611328	3242.617188	69.842407
742.970398	1049.015137	4123.243652	3194.831299	69.800148
743.289124	1085.423462	4291.632324	3142.494141	64.158974
743.607788	1067.219238	4268.876953	3199.382324	66.595596
743.926453	1062.668213	4173.305176	3119.739014	66.130211
744.245056	1051.290649	4018.569824	3056.024414	67.561340
744.563599	1021.708862	3963.957275	3096.983887	70.533638
744.882141	1074.045776	3959.406250	3067.402100	69.085175
745.200500	1028.535400	3954.855225	3033.269287	68.506996
745.518860	1083.147949	4027.671875	2967.279053	63.987633
745.837219	1115.005249	3897.967041	2930.870850	65.249390
746.155518	1133.209351	4009.467773	3069.677490	67.325951
746.473755	1058.117188	3850.181152	2955.901611	67.970665
746.791992	1005.780212	3929.824463	3051.473389	69.961090
747.110107	1019.433350	3913.895752	3040.095703	69.811317
747.428162	1078.596802	3979.885986	2969.554688	65.176476
747.746216	1039.912964	3761.435791	2987.758789	71.571907
748.064148	1126.382813	3825.150391	3062.851074	71.753799
748.382080	1076.321289	3816.048340	2965.003662	68.936882
748.700073	1028.535400	3902.518066	2996.860840	68.487732
749.017822	1151.413574	3975.334961	3005.962891	65.672836
749.335632	1069.494751	4004.916504	3003.687500	65.891472
749.653320	1055.841675	4009.467773	3069.677490	68.181816
749.971008	1083.147949	3943.477539	3015.064941	67.541763
750.288696	1064.943726	4032.222900	3005.962891	65.414101
750.606262	1010.331238	3859.283203	3040.095703	71.246002
750.923828	1033.086426	3938.926514	2939.972900	65.622551
751.241272	1064.943726	3925.273438	2819.370361	61.336521
751.558716	1037.637451	3902.518066	2937.697266	66.322479
751.876038	1053.566162	3750.058350	2905.840088	68.691978
752.193481	1087.698975	3813.772949	3074.228516	72.871445
752.510681	1112.729614	3854.732178	2965.003662	67.551872
752.827942	1060.392700	3779.640137	2812.543701	64.435143
753.145081	1039.912964	3813.772949	2908.115479	67.350288
753.462219	1046.739624	3763.711426	2864.880615	66.917923
753.779297	1042.188477	3877.487549	2990.034424	68.699844
754.096375	1078.596802	3904.793701	2930.870850	65.539459
754.413330	1046.739624	3822.875000	2912.666504	67.213112
754.730286	1108.178589	3684.068115	2732.900391	63.074200
755.047119	1010.331238	3791.017578	2848.952148	66.121117
755.363892	1058.117188	3768.262451	2949.074951	69.773300
755.680725	989.851563	3791.017578	2767.033203	63.444351
755.997498	1135.484863	3704.547852	2842.125488	66.430473
756.314148	1112.729614	3734.129639	2814.819336	64.930565
756.630737	1026.259888	3690.894775	2746.553711	64.560211
756.947327	1062.668213	3595.322754	2842.125488	70.260559
757.263855	1074.045776	3727.302979	2844.401123	66.723846
757.580261	1089.974487	3565.741211	2848.952148	71.047798
757.896729	1101.352051	3674.966064	2769.308838	64.809906
758.213074	1017.157776	3661.312988	2821.645752	68.244408
758.529419	1069.494751	3702.272461	2728.349365	63.007771
758.845642	1069.494751	3784.191162	2930.870850	68.566643
759.161865	1051.290649	3850.181152	2892.187012	65.772362
759.478149	1126.382813	3922.997803	2965.003662	65.744514
759.794189	1083.147949	3795.568604	2912.666504	67.449661
760.110229	1069.494751	3793.293213	2930.870850	68.337517
760.426270	1094.525513	3838.803711	2844.401123	63.764511
760.742249	1078.596802	3788.742188	2976.381104	70.025185
761.058105	1042.188477	3763.711426	2894.462402	68.060196
761.374023	1096.801025	3834.252441	2949.074951	67.664177
761.689819	1019.433350	3791.017578	3035.544678	72.742203
762.005554	1094.525513	3861.558838	2992.309814	68.585526
762.321289	1003.504700	3822.875000	2937.697266	68.603706
762.636902	1155.964600	3913.895752	3040.095703	68.316826
762.952515	1117.280762	3973.059326	2990.034424	65.577690
763.268127	1101.352051	3963.957275	3065.126465	68.600952
763.583618	1087.698975	4057.253662	3244.892578	72.643677
763.899048	1044.463989	4655.715332	3345.015625	63.705112
764.214478	937.514587	5035.727539	3791.017578	69.627983
764.529785	1030.810913	5395.259766	3802.395264	63.503654
764.845093	1071.770264	5493.107422	4025.396240	66.803909
765.160400	1064.943726	5463.525391	3950.304199	65.597519
765.475586	1110.454102	5367.953613	3870.660889	64.831642
765.790771	1092.250000	5167.707520	3863.834229	68.006699
766.105835	1087.698975	4969.737305	3784.191162	69.460732
766.420837	1099.076538	4692.124023	3513.404053	67.194427
766.735840	1078.596802	4642.062500	3404.179199	65.261818
767.050842	1046.739624	4359.897949	3215.310791	65.453300
767.365662	989.851563	4339.417969	3324.535889	69.701088
767.680542	1085.423462	4066.355713	3178.902588	70.229004
767.995300	1124.107300	4086.835449	3078.779541	65.975418
768.309998	1135.484863	4000.365479	3106.085938	68.784752
768.624817	1083.147949	3922.997803	3026.442627	68.429489
768.939392	1046.739624	3784.191162	3003.687500	71.487946
769.254028	1112.729614	3795.568604	2842.125488	64.461411
769.568481	1062.668213	3795.568604	2939.972900	68.692757
769.882935	1023.984375	3659.037354	2805.717041	67.616577
770.197388	1064.943726	3779.640137	2728.349365	61.274097
770.511841	1058.117188	3517.955078	2603.195801	62.812214
770.826172	1053.566162	3618.078125	2721.522949	65.039932
771.140442	1067.219238	3383.699463	2707.869873	70.825150
771.454651	1101.352051	3545.261475	2694.216553	65.176903
771.768860	1167.342163	3360.944336	2735.176025	71.473030
772.082886	1039.912964	3354.117676	2696.492188	71.583092
772.397034	1087.698975	3529.332764	2644.155273	63.746510
772.711060	1119.556274	3372.321777	2676.012451	69.090904
773.025024	1042.188477	3306.331787	2584.991699	68.140709
773.338928	1055.841675	3390.525879	2573.614014	65.009750
773.652771	1103.627563	3449.689453	2562.236328	62.172642
773.966614	1092.250000	3240.341553	2523.552490	66.631355
774.280457	1008.055725	3374.597412	2471.215576	61.826923
774.594116	1035.361938	3283.576416	2616.848877	70.344131
774.907776	1053.566162	3306.331787	2514.450439	64.848480
775.221375	1085.423462	3222.137451	2578.165039	69.861557
775.534912	1039.912964	3281.301025	2555.409912	67.614212
775.848450	1101.352051	3281.301025	2591.818115	68.371605
776.161926	1089.974487	3244.892578	2384.745850	60.084484
776.475342	1023.984375	3092.432861	2457.562500	69.306931
776.788696	1115.005249	3137.943115	2480.317627	67.491562
777.101990	1055.841675	3169.800537	2430.256104	65.016136
777.415283	1076.321289	3235.790527	2459.837891	64.067436
777.728516	1103.627563	2987.758789	2443.909424	71.135269
778.041626	1126.382813	3078.779541	2402.949951	65.384621
778.354736	1010.331238	3078.779541	2377.919189	66.116615
778.667725	1028.535400	3106.085938	2453.011475	68.565170
778.980774	1042.188477	3065.126465	2434.807373	68.841400
779.293640	1030.810913	3069.677490	2407.500977	67.522324
779.606567	1021.708862	2999.136475	2327.857666	66.052925
779.919434	1101.352051	3149.320801	2352.888428	61.111107
780.232239	1089.974487	3085.606201	2425.705078	66.932716
780.544983	1135.484863	3081.055176	2391.572266	64.561401
780.857666	1080.872437	3101.534912	2371.092773	63.851353
781.170227	1003.504700	3101.534912	2398.398926	66.485901
781.482849	1017.157776	3046.922363	2364.266113	66.367714
781.795410	1058.117188	3060.575439	2327.857666	63.409084
782.107910	1019.433350	2976.381104	2355.164063	68.255821
782.420288	1060.392700	2967.279053	2400.674561	70.286407
782.732666	1099.076538	2844.401123	2298.276123	68.709259
783.044983	1121.831787	2924.044189	2300.551514	65.404037
783.357300	1119.556274	2837.574463	2366.541748	72.582787
783.669495	1096.801025	2899.013428	2273.245361	65.277786
783.981689	1023.984375	2899.013428	2277.796387	66.868935
784.293762	1078.596802	2942.248291	2275.520752	64.224663
784.605835	1069.494751	2837.574463	2309.653564	70.141563
784.917908	1155.964600	2871.707275	2214.081787	61.671089
785.229858	1067.219238	2930.870850	2193.602051	60.439560
785.541748	1087.698975	2823.921387	2334.684326	71.821754
785.853577	1071.770264	2796.614990	2198.153076	65.303436
786.165405	1085.423462	2798.890625	2227.734863	66.666664
786.477173	1037.637451	2860.329590	2236.836914	65.792763
786.788879	1044.463989	2771.584229	2236.836914	69.038208
787.100525	1023.984375	2762.482178	2204.979736	67.931946
787.412109	1055.841675	2746.553711	2264.143311	71.467026
787.723694	1083.147949	2778.410889	2123.060791	61.342274
788.035156	1151.413574	2798.890625	2202.704102	63.812149
788.346558	1012.606750	2737.451416	2286.898438	73.878639
788.658081	1030.810913	2801.166016	2259.592041	69.408737
788.969360	1103.627563	2949.074951	2289.173828	64.241669
789.280640	1092.250000	3028.718262	2355.164063	65.217392
789.591919	1083.147949	3101.534912	2377.919189	64.148811
789.903076	1028.535400	3053.749023	2400.674561	67.752808
790.214172	1012.606750	3010.513916	2341.510986	66.514816
790.525269	1094.525513	2926.319824	2330.133301	67.453415
790.836365	1087.698975	2937.697266	2302.827148	65.682663
791.147339	1096.801025	3037.820313	2314.204590	62.719807
791.458191	971.647400	2887.635986	2202.704102	64.251778
791.769104	1055.841675	2844.401123	2104.856689	58.651394
792.079895	1051.290649	2855.778564	2234.561523	65.573776
792.390686	1069.494751	2821.645752	2173.122314	62.987011
792.701416	1080.872437	2714.696289	2218.632813	69.637886
793.012085	1085.423462	2691.941162	2129.887451	65.014160
793.322693	1026.259888	2655.532715	2054.795166	63.128487
793.633240	1058.117188	2591.818115	2057.070801	65.133537
793.943787	1046.739624	2616.848877	2102.581299	67.246384
794.254272	1080.872437	2616.848877	2059.346436	63.703712
794.564636	1083.147949	2519.001465	2082.101563	69.572113
794.875000	1064.943726	2519.001465	2072.999512	69.327080
795.185303	1101.352051	2582.716064	2084.376953	66.359444
795.495544	953.443237	2610.022461	2063.897461	67.032967
795.805786	1049.015137	2582.716064	2068.448486	66.468849
796.115906	1042.188477	2685.114502	1991.080688	57.756233
796.426025	1096.801025	2548.583252	2057.070801	66.144203
796.736023	1112.729614	2721.522949	2173.122314	65.912300
797.045959	1046.739624	2748.829102	2150.367188	64.839577
797.355896	1101.352051	2801.166016	2255.041016	67.871483
797.665833	1060.392700	2757.931152	2170.846924	65.415558
797.975708	1074.045776	2728.349365	2198.153076	67.950485
798.285461	1060.392700	2664.634766	2145.816162	67.659584
798.595154	1058.117188	2767.033203	2150.367188	63.914783
798.904846	1069.494751	2696.492188	2070.723877	61.538456
799.214478	1069.494751	2714.696289	2227.734863	70.401108
799.524109	1133.209351	2607.746826	2120.785400	66.975311
799.833557	1023.984375	2503.072998	2125.336426	74.461533
800.143005	1080.872437	2541.756836	2000.182739	62.928341
800.452393	1026.259888	2646.430664	2011.560425	60.814610
800.761780	1071.770264	2468.940186	2050.244141	70.032562
801.071106	1092.250000	2487.144287	1988.805176	64.274055
801.380371	1121.831787	2534.930176	2050.244141	65.700478
801.689575	1058.117188	2523.552490	2032.040039	66.459625
801.998718	1062.668213	2380.194824	2002.458252	71.329872
802.307800	1105.903076	2539.481201	1945.570313	58.571430
802.616882	1071.770264	2475.766602	1963.774414	63.533226
802.925903	1071.770264	2505.348389	2045.693237	67.936508
803.234863	1092.250000	2471.215576	1986.529663	64.851486
803.543701	1064.943726	2475.766602	2066.172852	70.967743
803.852539	1074.045776	2557.685303	1966.049927	60.122700
804.161316	1076.321289	2427.980713	1931.917114	63.299660
804.470032	1046.739624	2459.837891	1900.059814	60.386471
804.778809	1053.566162	2425.705078	1922.815063	63.349918
805.087341	1069.494751	2455.286865	1972.876587	65.188843
805.395935	1117.280762	2459.837891	2022.937988	67.457634
805.704468	1151.413574	2400.674561	1929.641602	62.295071
806.012939	1046.739624	2473.491211	1977.427612	65.231255
806.321350	1099.076538	2441.633789	1979.703125	65.593224
806.629761	1037.637451	2475.766602	1906.886475	60.443043
806.938049	1019.433350	2430.256104	1977.427612	67.903236
807.246277	1069.494751	2553.134277	2057.070801	66.564423
807.554504	1023.984375	2466.664551	2013.835938	68.611992
807.862671	1014.882263	2491.695313	1970.601074	64.714951
808.170715	1080.872437	2516.726074	2009.284912	64.659271
808.478821	1092.250000	2557.685303	1986.529663	61.024849
808.786804	1042.188477	2448.460449	1979.703125	66.666664
809.094727	1035.361938	2430.256104	1947.845825	65.415993
809.402649	1128.658325	2316.480225	1956.947876	69.731796
809.710510	1005.780212	2412.052002	1941.019287	66.504860
810.018311	1069.494751	2382.470215	1890.957764	62.564995
810.326050	1112.729614	2339.235352	1986.529663	71.243050
810.633667	1023.984375	2446.184814	1840.896362	57.440002
810.941345	1119.556274	2330.133301	1884.131226	63.157894
811.248901	1105.903076	2336.959961	1920.539551	66.173744
811.556396	1096.801025	2334.684326	1943.294800	68.382355
811.863892	1128.658325	2339.235352	1875.029175	61.654140
812.171326	1080.872437	2293.724854	1911.437500	68.480309
812.478699	1023.984375	2321.031250	1843.171875	63.157894
812.786011	1078.596802	2223.183838	1834.069824	66.003983
813.093262	1137.760376	2225.459229	1897.784302	69.874481
813.400391	1101.352051	2307.378174	1909.161987	66.981133
813.707642	1044.463989	2259.592041	1772.630737	59.925102
814.014709	1055.841675	2289.173828	1777.181763	58.487091
814.321716	1026.259888	2220.908203	1852.273926	69.142860
814.628723	1060.392700	2211.806152	1856.824951	69.169960
814.935669	994.402588	2232.285889	1856.824951	69.669113
815.242554	1083.147949	2259.592041	1752.151001	56.866539
815.549438	1010.331238	2234.561523	1909.161987	73.420074
815.856201	1058.117188	2275.520752	1840.896362	64.299072
816.162964	1067.219238	2377.919189	1861.375977	60.590279
816.469604	1030.810913	2214.081787	1788.559326	64.038460
816.776184	1101.352051	2243.663574	1745.324463	56.374500
817.082825	1074.045776	2261.867676	1843.171875	64.750961
817.389343	1130.933838	2282.347412	1854.549438	62.845844
817.695801	1062.668213	2318.755615	1736.222412	53.623196
818.002197	1076.321289	2239.112549	1911.437500	71.819962
818.308533	987.576050	2377.919189	1863.651489	63.011456
818.614868	1074.045776	2275.520752	1861.375977	65.530304
818.921143	1051.290649	2318.755615	1920.539551	68.581688
819.227356	1044.463989	2339.235352	1836.345337	61.159935
819.533447	1014.882263	2309.653564	1922.815063	70.123032
819.839539	1003.504700	2462.113525	1772.630737	52.730106
820.145569	1035.361938	2402.949951	1941.019287	66.222969
820.451538	1062.668213	2598.644775	2066.172852	65.333328
820.757568	1046.739624	2732.900391	2166.295898	66.396767
821.063416	1049.015137	2833.023438	2164.020264	62.499996
821.369263	1096.801025	3003.687500	2314.204590	63.842476
821.675049	1037.637451	3124.290039	2418.878662	66.194115
821.980713	1094.525513	3274.474365	2512.175049	65.031326
822.286438	1103.627563	3547.536865	2771.584229	68.249535
822.592102	1060.392700	4412.234863	3269.923340	65.919891
822.897583	1010.331238	6583.081543	4678.470703	65.822784
823.203125	1064.943726	9411.553711	6462.479004	64.667389
823.508545	1071.770264	11343.471680	7725.393066	64.776253
823.813965	1062.668213	12048.882813	8244.211914	65.368683
824.119263	1128.658325	10826.927734	7450.055176	65.180672
824.424622	1087.698975	9454.789063	6369.182617	63.122108
824.729858	1060.392700	7984.802734	5604.607910	65.626030
825.035095	1105.903076	6967.644531	4874.165527	64.285721
825.340149	1080.872437	6102.946777	4419.061523	66.470322
825.645264	1103.627563	5431.667969	3820.599365	62.776024
825.950256	1087.698975	5017.523438	3622.629150	64.504921
826.255310	1026.259888	4739.909668	3401.903564	63.970585
826.560242	1010.331238	4357.622559	3235.790527	66.485374
826.865112	1060.392700	4171.029785	3110.636963	65.910744
827.169922	1017.157776	4109.590332	3083.330566	66.813835
827.474670	1087.698975	4189.233887	3042.371338	63.022743
827.779419	1060.392700	4703.501465	3429.209961	65.021866
828.084045	1051.290649	5311.065430	3900.242676	66.880348
828.388672	1055.841675	5854.915039	4134.621094	64.153625
828.693176	1096.801025	5679.699707	3982.161377	62.959290
828.997681	1092.250000	5154.054688	3688.619141	63.921566
829.302124	1055.841675	4539.664063	3347.291016	65.774002
829.606567	1039.912964	4093.661865	3076.504150	66.691505
829.910828	1085.423462	3706.823486	2682.839111	60.937504
830.215149	1124.107300	3365.495361	2457.562500	59.492382
830.519348	1053.566162	3238.066162	2384.745850	60.937500
830.823547	1080.872437	2958.177002	2318.755615	65.939392
831.127686	1060.392700	2883.084961	2234.561523	64.419479
831.431763	1130.933838	2664.634766	2134.438477	65.430267
831.735779	1033.086426	2580.440674	2022.937988	63.970585
832.039734	1119.556274	2443.909424	2022.937988	68.213051
832.343628	1037.637451	2302.827148	1854.549438	64.568336
832.647461	1030.810913	2423.429688	1870.478149	60.294121
832.951233	1078.596802	2377.919189	1884.131226	61.996502
833.255127	1094.525513	2339.235352	1970.601074	70.383919
833.558777	1099.076538	2530.379150	2011.560425	63.751987
833.862366	1028.535400	2680.563477	1966.049927	56.749310
834.165955	1023.984375	2776.135498	2286.898438	72.077919
834.469482	1115.005249	3315.433838	2596.369141	67.321602
834.773010	1115.005249	3825.150391	2828.472412	63.224186
835.076416	1110.454102	3936.650879	2930.870850	64.412247
835.379822	1117.280762	4118.692871	3015.064941	63.229710
835.683105	1092.250000	3761.435791	2748.829102	62.063087
835.986389	1119.556274	3413.281250	2559.960938	62.797615
836.289612	1060.392700	3244.892578	2505.348389	66.145828
836.592773	1092.250000	2949.074951	2191.326416	59.191170
836.895874	1115.005249	2817.094727	2266.418701	67.647057
837.198914	1187.821899	2650.981689	2179.948975	67.807159
837.501892	1094.525513	2555.409912	2057.070801	65.887848
837.804871	1101.352051	2496.246338	1890.957764	56.606850
838.107666	1033.086426	2402.949951	1902.335449	63.455154
838.410583	1044.463989	2202.704102	1900.059814	73.870331
838.713379	1042.188477	2195.877686	1774.906250	63.510845
839.016052	1035.361938	2093.479248	1697.538574	62.580647
839.318787	960.269775	2066.172852	1658.854614	63.168720
839.621338	1069.494751	1991.080688	1613.344238	59.012348
839.923889	1023.984375	1913.713013	1624.721802	67.519173
840.226440	1087.698975	2038.866699	1652.028076	59.330135
840.528931	1035.361938	2059.346436	1711.191650	65.999992
840.831299	1069.494751	2168.571289	1774.906250	64.182198
841.133606	1069.494751	2214.081787	1784.008301	62.425446
841.435913	1074.045776	2289.173828	1870.478149	65.543083
841.738220	1083.147949	2198.153076	1749.875488	59.795918
842.040405	1026.259888	2209.530762	1843.171875	69.038460
842.342529	1053.566162	2025.213501	1727.120239	69.320839
842.644592	1080.872437	2007.009399	1688.436401	65.601959
842.946594	1008.055725	2013.835938	1665.681274	65.384621
843.248596	1012.606750	2027.489014	1656.579102	63.452911
843.550598	1028.535400	1947.845825	1642.926025	66.831680
843.852478	1064.943726	1979.703125	1549.629639	52.985069
844.154236	1092.250000	1854.549438	1572.384888	62.985077
844.455994	1028.535400	1799.937012	1547.354126	67.256630
844.757690	1115.005249	1795.385864	1460.884399	50.836128
845.059326	1096.801025	1836.345337	1549.629639	61.230762
845.360962	1080.872437	1722.569214	1472.261963	60.992908
845.662476	1083.147949	1738.497925	1406.271851	49.305550
845.963989	1130.933838	1681.609863	1419.924927	52.479328
846.265381	1119.556274	1722.569214	1458.608887	56.226425
846.566772	1060.392700	1640.650513	1492.741699	74.509811
846.868042	1012.606750	1622.446289	1526.874512	84.328377
847.169373	1039.912964	1695.262939	1397.169800	54.513901
847.470581	1074.045776	1613.344238	1490.466064	77.215179
847.771729	1096.801025	1711.191650	1390.343262	47.777786
848.072815	1115.005249	1690.711914	1426.751587	54.150204
848.373901	1058.117188	1601.966675	1360.761475	55.648537
848.674866	1126.382813	1604.242188	1406.271851	58.571423
848.975891	1058.117188	1672.507813	1353.934937	48.148155
849.276794	1074.045776	1654.303589	1358.485962	49.019623
849.577637	1046.739624	1570.109375	1283.393677	45.217373
849.878357	1060.392700	1617.895264	1399.445313	60.816334
850.179077	1080.872437	1611.068726	1438.129150	67.381973
850.479736	989.851563	1574.660400	1469.986450	82.101166
850.780396	1074.045776	1658.854614	1381.241089	52.529182
851.080994	983.024963	1515.496826	1422.200562	82.478645
851.381470	989.851563	1492.741699	1419.924927	85.520340
851.681946	1046.739624	1649.752563	1358.485962	51.698116
851.982361	987.576050	1601.966675	1347.108276	58.518509
852.282715	1080.872437	1626.997314	1410.822876	60.416664
852.583008	1053.566162	1654.303589	1403.996338	58.333336
852.883240	1069.494751	1631.548462	1469.986450	71.255058
853.183411	1051.290649	1508.670288	1401.720825	76.616913
853.483521	1051.290649	1551.905151	1356.210449	60.909103
853.783630	1076.321289	1554.180664	1447.231201	77.619049
854.083679	1080.872437	1522.323364	1356.210449	62.371147
854.383667	1078.596802	1504.119263	1424.476074	81.283432
854.683533	1089.974487	1604.242188	1383.516602	57.079632
854.983337	1096.801025	1565.558350	1369.863525	58.252422
855.283203	1049.015137	1590.588989	1403.996338	65.546219
855.582886	1062.668213	1556.456177	1372.139038	62.672817
855.882629	1089.974487	1481.364014	1335.730713	62.790699
856.182312	1094.525513	1506.394775	1335.730713	58.563534
856.481873	1046.739624	1576.935913	1403.996338	67.381973
856.781372	1105.903076	1661.130127	1342.557251	42.622955
857.080872	971.647400	1538.252075	1308.424438	59.437744
857.380310	1058.117188	1595.140137	1424.476074	68.220345
857.679688	1099.076538	1567.833862	1390.343262	62.135929
857.979004	1074.045776	1551.905151	1376.690063	63.333336
858.278259	989.851563	1492.741699	1422.200562	85.972855
858.577454	1035.361938	1479.088501	1433.578125	89.743599
858.876648	1080.872437	1576.935913	1390.343262	62.385326
859.175720	1064.943726	1517.772339	1429.027100	80.402023
859.474792	1019.433350	1535.976563	1376.690063	69.162987
859.773743	1042.188477	1540.527588	1308.424438	53.424656
860.072693	1055.841675	1458.608887	1353.934937	74.011307
860.371521	1105.903076	1549.629639	1385.792114	63.076916
860.670349	1080.872437	1574.660400	1344.832764	53.456211
860.969116	1046.739624	1572.384888	1253.812012	39.393940
861.267883	1094.525513	1510.945801	1306.148926	50.819668
861.566589	1074.045776	1526.874512	1303.873413	50.753765
861.865112	1105.903076	1415.373901	1397.169800	94.117668
862.163635	1092.250000	1510.945801	1353.934937	62.500015
862.462158	1030.810913	1522.323364	1331.179688	61.111122
862.760620	1042.188477	1606.517700	1367.588013	57.661293
863.059021	1035.361938	1526.874512	1372.139038	68.518509
863.357361	1110.454102	1463.159912	1349.383789	67.741920
863.655640	1039.912964	1581.486938	1381.241089	63.025208
863.953857	1124.107300	1469.986450	1276.567139	44.078934
864.251953	1067.219238	1631.548462	1333.455200	47.177418
864.550110	1092.250000	1467.710938	1376.690063	75.757568
864.848206	1067.219238	1488.190552	1372.139038	72.432442
865.146179	1108.178589	1574.660400	1290.220337	39.024403
865.444092	1044.463989	1542.803101	1342.557251	59.817352
865.741943	1042.188477	1451.782227	1335.730713	71.666679
866.039795	1014.882263	1426.751587	1324.353149	75.138123
866.337646	1064.943726	1522.323364	1349.383789	62.189053
866.635376	1083.147949	1515.496826	1294.771362	48.947372
866.933044	1019.433350	1535.976563	1315.250977	57.268707
867.230652	1140.035889	1510.945801	1308.424438	45.398773
867.528198	1067.219238	1531.425537	1290.220337	48.039223
867.825745	1089.974487	1495.017212	1369.863525	69.101112
868.123230	1087.698975	1522.323364	1376.690063	66.492149
868.420593	1089.974487	1513.221313	1262.914063	40.860218
868.717896	1003.504700	1554.180664	1415.373901	74.793388
869.015198	1010.331238	1538.252075	1374.414551	68.965515
869.312439	1069.494751	1529.150024	1360.761475	63.366341
869.609619	1105.903076	1474.537476	1372.139038	72.222221
869.906738	1099.076538	1565.558350	1342.557251	52.195114
870.203796	1099.076538	1554.180664	1394.894287	65.000015
870.500854	1078.596802	1588.313477	1340.281738	51.339294
870.797791	1089.974487	1563.282837	1340.281738	52.884605
871.094666	1128.658325	1531.425537	1274.291626	36.158180
871.391602	1051.290649	1458.608887	1299.322388	60.893845
871.688293	1094.525513	1538.252075	1306.148926	47.692303
871.985107	1108.178589	1454.057739	1342.557251	67.763168
872.281738	1140.035889	1472.261963	1351.659302	63.698616
872.578369	1014.882263	1485.915039	1272.016113	54.589375
872.874939	1083.147949	1456.333252	1394.894287	83.536606
873.171509	1085.423462	1545.078613	1358.485962	59.405949
873.467957	1051.290649	1497.292725	1342.557251	65.306107
873.764343	1103.627563	1495.017212	1326.628662	56.976749
874.060669	1037.637451	1538.252075	1328.904175	58.181824
874.356995	1049.015137	1522.323364	1340.281738	61.538460
874.653198	992.127075	1501.843750	1369.863525	74.107140
874.949463	1128.658325	1526.874512	1276.567139	37.142841
875.245544	1103.627563	1520.047852	1349.383789	59.016392
875.541626	1035.361938	1517.772339	1331.179688	61.320766
875.837646	1094.525513	1490.466064	1322.077637	57.471287
876.133606	1089.974487	1599.691162	1303.873413	41.964279
876.429565	1080.872437	1533.701050	1310.699951	50.753754
876.725403	1101.352051	1515.496826	1358.485962	62.087929
877.021179	1049.015137	1520.047852	1326.628662	58.937206
877.316956	1062.668213	1485.915039	1312.975464	59.139782
877.612610	1069.494751	1529.150024	1381.241089	67.821770
877.908203	1151.413574	1483.639526	1219.679199	20.547951
878.203857	1037.637451	1535.976563	1317.526489	56.164371
878.499390	1060.392700	1481.364014	1335.730713	65.405411
878.794800	1042.188477	1513.221313	1429.027100	82.125618
879.090271	1026.259888	1561.007324	1374.414551	65.106377
879.385559	1037.637451	1626.997314	1367.588013	55.984566
879.680847	1046.739624	1595.140137	1456.333252	74.688774
879.976196	1076.321289	1636.099487	1442.680176	65.447151
880.271301	1094.525513	1608.793213	1433.578125	65.929207
880.566467	1080.872437	1736.222412	1490.466064	62.499985
880.861572	1062.668213	1849.998413	1561.007324	63.294804
881.156555	1067.219238	1954.672363	1690.711914	70.256409
881.451477	1017.157776	2236.836914	1875.029175	70.335823
881.746460	1078.596802	2978.656738	2257.316650	62.035931
882.041321	1080.872437	3652.210938	2814.819336	67.433632
882.336121	1083.147949	4519.184082	3235.790527	62.649010
882.630798	1067.219238	5158.605469	3763.711426	65.906563
882.925537	1039.912964	5361.126953	3699.996826	61.558720
883.220215	1103.627563	5151.779297	3474.720215	58.572227
883.514771	1060.392700	4464.571777	3235.790527	63.903744
883.809326	1105.903076	4189.233887	2978.656738	60.738007
884.103760	1049.015137	3866.109863	2814.819336	62.681747
884.398132	1044.463989	3572.567627	2628.226563	62.646271
884.692505	1055.841675	3401.903564	2352.888428	55.286125
884.986816	1092.250000	3206.208740	2391.572266	61.463936
885.281067	1051.290649	3065.126465	2255.041016	59.774006
885.575256	1158.240112	2814.819336	2145.816162	59.615383
885.869385	1019.433350	2662.359375	1975.152100	58.171745
886.163452	1062.668213	2434.807373	1870.478149	58.872303
886.457458	1076.321289	2200.428711	1806.763550	64.979759
886.751465	1069.494751	2082.101563	1763.528564	68.539322
887.045410	1142.311401	2002.458252	1697.538574	64.550278
887.339233	1155.964600	1870.478149	1551.905151	55.414001
887.632996	1062.668213	1872.753662	1526.874512	57.303375
887.926758	1089.974487	1765.804199	1510.945801	62.289555
888.220398	1130.933838	1731.671387	1419.924927	48.106049
888.514099	1080.872437	1670.232300	1485.915039	68.725853
888.807678	1105.903076	1595.140137	1442.680176	68.837204
889.101196	1055.841675	1606.517700	1456.333252	72.727257
889.394653	1078.596802	1606.517700	1385.792114	58.189648
889.688049	1087.698975	1563.282837	1324.353149	49.760765
889.981384	1039.912964	1531.425537	1381.241089	69.444435
890.274719	1119.556274	1504.119263	1381.241089	68.047325
890.567932	1085.423462	1545.078613	1312.975464	49.504940
>>>>>End Processed Spectral Data<<<<<
