Jaz Data File
++++++++++++++++++++++++++++++++++++
Date: Wed Feb 07 06:52:13 2024
User: jaz
Dark Spectrum Present: Yes
Reference Spectrum Present: Yes
Processed Spectrum Present: Yes
Spectrometers: JAZA3692
Integration Time (usec): 42900 (JAZA3692)
Spectra Averaged: 1 (JAZA3692)
Boxcar Smoothing: 0 (JAZA3692)
Correct for Electrical Dark: No (JAZA3692)
Strobe/Lamp Enabled: Yes (JAZA3692)
Correct for Detector Non-linearity: No (JAZA3692)
Correct for Stray Light: No (JAZA3692)
Number of Pixels in Processed Spectrum: 2048
>>>>>Begin Processed Spectral Data<<<<<
W	D	R	S	P
190.244385	0.000000	0.000000	0.000000	0.000000
190.627136	0.000000	0.000000	0.000000	0.000000
191.009842	907.932800	948.892151	910.208313	5.555539
191.392532	985.300537	1028.535400	907.932800	-178.947571
191.775177	917.034912	967.096313	905.657288	-22.727339
192.157791	989.851563	903.381775	907.932800	94.736862
192.540390	992.127075	917.034912	976.198425	21.212133
192.922943	905.657288	1001.229126	942.065613	38.095245
193.305481	1003.504700	1035.361938	957.994263	-142.857437
193.687958	1010.331238	1023.984375	962.545288	-349.999786
194.070419	948.892151	1019.433350	917.034912	-45.161182
194.452866	1064.943726	928.412476	919.310425	106.666641
194.835251	1030.810913	1012.606750	951.167725	437.499878
195.217621	1008.055725	976.198425	951.167725	178.571320
195.599960	1039.912964	1003.504700	953.443237	237.500275
195.982254	1080.872437	976.198425	960.269775	115.217384
196.364517	1033.086426	971.647400	983.024963	81.481537
196.746750	962.545288	1003.504700	1001.229126	94.444321
197.128952	1014.882263	994.402588	1012.606750	11.111078
197.511139	1067.219238	1001.229126	973.922913	141.379257
197.893280	992.127075	1010.331238	985.300537	-37.499874
198.275391	998.953613	935.239075	1005.780212	-10.714351
198.657471	1001.229126	1003.504700	955.718750	-1999.951660
199.039520	1049.015137	967.096313	919.310425	158.333221
199.421539	948.892151	1037.637451	946.616638	-2.564094
199.803513	967.096313	973.922913	992.127075	366.665192
200.185471	1001.229126	948.892151	1023.984375	-43.478340
200.567383	1010.331238	1010.331238	969.371887	0.000000
200.949265	989.851563	989.851563	951.167725	0.000000
201.331131	930.687988	1044.463989	946.616638	14.000009
201.712967	946.616638	1037.637451	985.300537	42.500057
202.094742	976.198425	1030.810913	928.412476	-87.500038
202.476517	980.749451	1026.259888	953.443237	-59.999893
202.858231	957.994263	1055.841675	955.718750	-2.325573
203.239944	969.371887	994.402588	939.790100	-118.182014
203.621582	955.718750	935.239075	919.310425	177.777847
204.003235	937.514587	969.371887	967.096313	92.856979
204.384827	935.239075	1019.433350	969.371887	40.540539
204.766388	937.514587	1017.157776	912.483826	-31.428629
205.147934	985.300537	1039.912964	985.300537	0.000000
205.529449	1021.708862	953.443237	914.759338	156.666733
205.910904	976.198425	1044.463989	969.371887	-9.999973
206.292343	948.892151	1019.433350	973.922913	35.483891
206.673767	930.687988	992.127075	994.402588	103.703690
207.055115	998.953613	980.749451	960.269775	212.499954
207.436462	1010.331238	1012.606750	1003.504700	-300.000000
207.817780	1014.882263	1069.494751	969.371887	-83.333275
208.199051	967.096313	976.198425	973.922913	75.000168
208.580307	994.402588	983.024963	910.208313	739.998718
208.961517	928.412476	971.647400	907.932800	-47.368362
209.342712	983.024963	987.576050	892.004150	-1999.979858
209.723846	976.198425	989.851563	973.922913	-16.666592
210.104965	1096.801025	1069.494751	878.351013	799.999329
210.486069	955.718750	1074.045776	996.678101	34.615379
210.867111	985.300537	1044.463989	1044.463989	100.000000
211.248123	962.545288	1046.739624	903.381775	-70.270180
211.629120	962.545288	998.953613	953.443237	-24.999916
212.010071	994.402588	1044.463989	910.208313	-168.182022
212.390991	951.167725	1026.259888	917.034912	-45.454559
212.771881	983.024963	923.861450	944.341125	65.384621
213.152756	962.545288	992.127075	983.024963	69.230690
213.533569	962.545288	944.341125	960.269775	12.499958
213.914368	930.687988	960.269775	989.851563	200.000000
214.295135	989.851563	985.300537	937.514587	1150.004028
214.675858	989.851563	928.412476	983.024963	11.111166
215.056549	978.473938	992.127075	1017.157776	283.332947
215.437225	1019.433350	978.473938	994.402588	61.111137
215.817841	978.473938	1071.770264	951.167725	-29.268263
216.198441	1010.331238	985.300537	1001.229126	36.363792
216.579025	928.412476	1028.535400	1014.882263	86.363625
216.959549	1053.566162	1017.157776	983.024963	193.749863
217.340057	973.922913	1012.606750	935.239075	-100.000000
217.720535	1003.504700	1008.055725	1030.810913	600.001343
218.100967	1003.504700	1001.229126	1030.810913	-1199.970459
218.481369	994.402588	987.576050	978.473938	233.334229
218.861740	1003.504700	1067.219238	910.208313	-146.428726
219.242065	955.718750	978.473938	983.024963	119.999947
219.622391	969.371887	1019.433350	948.892151	-40.909184
220.002670	994.402588	1012.606750	976.198425	-100.000000
220.382919	976.198425	962.545288	928.412476	349.999786
220.763123	932.963501	996.678101	951.167725	28.571510
221.143295	937.514587	1014.882263	892.004150	-58.823582
221.523453	992.127075	1005.780212	905.657288	-633.332764
221.903549	957.994263	1003.504700	971.647400	30.000013
222.283630	1046.739624	1023.984375	1028.535400	80.000107
222.663696	976.198425	1035.361938	1003.504700	46.153908
223.043701	923.861450	978.473938	992.127075	125.000031
223.423676	978.473938	1033.086426	987.576050	16.666723
223.803635	967.096313	1012.606750	939.790100	-59.999893
224.183548	928.412476	996.678101	969.371887	60.000053
224.563431	962.545288	1014.882263	944.341125	-34.782604
224.943283	946.616638	1008.055725	944.341125	-3.703689
225.323105	937.514587	1058.117188	960.269775	18.867908
225.702881	1008.055725	1033.086426	948.892151	-236.364029
226.082642	919.310425	1026.259888	1053.566162	125.531944
226.462357	1017.157776	1035.361938	976.198425	-224.999924
226.842041	998.953613	967.096313	964.820801	107.142830
227.221695	926.136963	1019.433350	948.892151	24.390213
227.601318	937.514587	1021.708862	1026.259888	105.405388
227.980911	989.851563	996.678101	1001.229126	166.666672
228.360474	976.198425	1021.708862	1012.606750	79.999947
228.739990	1028.535400	1135.484863	955.718750	-68.085098
229.119476	971.647400	1124.107300	962.545288	-5.970168
229.498932	1005.780212	1130.933838	944.341125	-49.090935
229.878372	996.678101	1187.821899	1042.188477	23.809496
230.257736	1008.055725	1212.852539	1005.780212	-1.111107
230.637115	980.749451	1203.750488	885.177612	-42.857128
231.016449	992.127075	1128.658325	912.483826	-58.333347
231.395737	903.381775	1121.831787	987.576050	38.541668
231.774994	937.514587	1014.882263	973.922913	47.058834
232.154221	964.820801	1146.862427	944.341125	-11.249996
232.533417	937.514587	1146.862427	1062.668213	59.782619
232.912582	917.034912	1167.342163	896.555176	-8.181839
233.291702	928.412476	1115.005249	917.034912	-6.097537
233.670792	996.678101	1119.556274	976.198425	-16.666651
234.049866	907.932800	1133.209351	1030.810913	54.545452
234.428894	957.994263	1176.444214	921.585938	-16.666666
234.807892	973.922913	1183.270874	955.718750	-8.695648
235.186874	985.300537	1133.209351	1005.780212	13.846149
235.565781	967.096313	1212.852539	905.657288	-24.999987
235.944687	1028.535400	1185.546387	1035.361938	4.347809
236.323547	948.892151	1256.087524	989.851563	13.333343
236.702377	926.136963	1201.474976	980.749451	19.834707
237.081177	980.749451	1174.168701	1003.504700	11.764729
237.459946	980.749451	1190.097412	1014.882263	16.304344
237.838669	942.065613	1165.066650	942.065613	0.000000
238.217361	928.412476	1256.087524	1001.229126	22.222214
238.596039	994.402588	1208.301514	896.555176	-45.744694
238.974670	942.065613	1208.301514	939.790100	-0.854698
239.353271	957.994263	1224.230225	948.892151	-3.418814
239.731842	980.749451	1240.158813	989.851563	3.508783
240.110367	919.310425	1158.240112	985.300537	27.619051
240.488876	928.412476	1237.883301	996.678101	22.058825
240.867340	964.820801	1253.812012	944.341125	-7.086608
241.245789	1019.433350	1258.363037	901.106262	-49.523811
241.624176	969.371887	1228.781250	939.790100	-11.403516
242.002548	957.994263	1467.710938	939.790100	-3.571428
242.380890	1023.984375	1495.017212	946.616638	-16.425125
242.759186	1019.433350	1533.701050	919.310425	-19.469028
243.137451	932.963501	1592.864502	994.402588	9.310349
243.515686	971.647400	1658.854614	985.300537	1.986757
243.893890	964.820801	1658.854614	944.341125	-2.950818
244.272049	967.096313	1517.772339	992.127075	4.545461
244.650192	889.728638	1606.517700	1005.780212	16.190477
245.028290	905.657288	1506.394775	1037.637451	21.969690
245.406357	960.269775	1492.741699	1012.606750	9.829058
245.784393	955.718750	1447.231201	914.759338	-8.333342
246.162384	907.932800	1501.843750	957.994263	8.429119
246.540359	948.892151	1592.864502	985.300537	5.653719
246.918289	955.718750	1615.619751	980.749451	3.793099
247.296204	989.851563	1756.702026	1042.188477	6.824918
247.674057	973.922913	2066.172852	914.759338	-5.416670
248.051895	976.198425	2243.663574	1010.331238	2.692998
248.429703	948.892151	2352.888428	1023.984375	5.348463
248.807465	1010.331238	2336.959961	1044.463989	2.572894
249.185196	1019.433350	2095.754639	955.718750	-5.919663
249.562897	964.820801	1893.233276	957.994263	-0.735291
249.940567	1001.229126	1840.896362	964.820801	-4.336042
250.318192	1021.708862	1779.457275	901.106262	-15.915915
250.695801	994.402588	1649.752563	978.473938	-2.430556
251.073349	980.749451	1579.211426	996.678101	2.661598
251.450882	955.718750	1501.843750	921.585938	-6.250000
251.828400	1053.566162	1524.598877	980.749451	-15.458950
252.205872	987.576050	1565.558350	937.514587	-8.661418
252.583313	926.136963	1636.099487	1023.984375	13.782053
252.960693	980.749451	1722.569214	964.820801	-2.147240
253.338074	955.718750	1913.713013	901.106262	-5.700711
253.715408	1019.433350	1845.447388	917.034912	-12.396694
254.092682	923.861450	1665.681274	980.749451	7.668709
254.469955	989.851563	1654.303589	1005.780212	2.397261
254.847198	937.514587	1574.660400	1005.780212	10.714286
255.224365	1017.157776	1508.670288	976.198425	-8.333328
255.601563	910.208313	1506.394775	939.790100	4.961835
255.978683	973.922913	1547.354126	987.576050	2.380955
256.355743	976.198425	1499.568237	1014.882263	7.391301
256.732819	930.687988	1570.109375	1003.504700	11.387907
257.109894	944.341125	1549.629639	1046.739624	16.917305
257.486877	1005.780212	1576.935913	1064.943726	10.358562
257.863831	1028.535400	1683.885376	983.024963	-6.944448
258.240753	1008.055725	1672.507813	978.473938	-4.452057
258.617645	1017.157776	1692.987427	980.749451	-5.387205
258.994507	1003.504700	1799.937012	1001.229126	-0.285721
259.371307	980.749451	1836.345337	1023.984375	5.053195
259.748108	985.300537	2125.336426	960.269775	-2.195612
260.124878	998.953613	2314.204590	944.341125	-4.152248
260.501617	898.830688	2500.797363	964.820801	4.119318
260.878296	919.310425	2803.441650	969.371887	2.657005
261.254944	951.167725	2889.911377	994.402588	2.230045
261.631561	989.851563	2864.880615	1060.392700	3.762136
262.008179	946.616638	2521.277100	1055.841675	6.936419
262.384735	960.269775	2168.571289	964.820801	0.376646
262.761261	973.922913	2018.386963	1010.331238	3.485838
263.137695	926.136963	2027.489014	994.402588	6.198347
263.514191	928.412476	1934.192627	1028.535400	9.954753
263.890594	996.678101	1970.601074	980.749451	-1.635514
264.267029	944.341125	1909.161987	978.473938	3.537736
264.643341	978.473938	1875.029175	996.678101	2.030456
265.019653	942.065613	1845.447388	992.127075	5.541562
265.395935	992.127075	1831.794189	980.749451	-1.355016
265.772217	1017.157776	1863.651489	932.963501	-9.946238
266.148407	953.443237	1829.518677	1019.433350	7.532469
266.524597	992.127075	1970.601074	1037.637451	4.651158
266.900726	926.136963	2029.764526	998.953613	6.597937
267.276855	967.096313	2004.733887	983.024963	1.535088
267.652924	967.096313	2241.387939	946.616638	-1.607142
268.028992	953.443237	2168.571289	942.065613	-0.936331
268.404999	955.718750	2118.509766	944.341125	-0.978475
268.781006	894.279663	2111.683350	1019.433350	10.280376
269.156921	980.749451	2125.336426	983.024963	0.198806
269.532837	973.922913	2170.846924	1001.229126	2.281366
269.908661	953.443237	2086.652588	1001.229126	4.216863
270.284546	892.004150	2143.540527	973.922913	6.545456
270.660339	1023.984375	2148.091553	960.269775	-5.668018
271.036133	937.514587	2141.265137	971.647400	2.835539
271.411835	944.341125	2364.266113	1026.259888	5.769231
271.787537	969.371887	2448.460449	1021.708862	3.538461
272.163239	967.096313	2616.848877	1033.086426	4.000000
272.538849	1035.361938	2780.686523	1039.912964	0.260755
272.914459	987.576050	2812.543701	1044.463989	3.117203
273.290070	980.749451	2632.777588	978.473938	-0.137741
273.665588	944.341125	2491.695313	989.851563	2.941178
274.041046	996.678101	2537.205811	1064.943726	4.431314
274.416565	1010.331238	2441.633789	953.443237	-3.974562
274.791962	1005.780212	2389.296875	1030.810913	1.809209
275.167389	971.647400	2316.480225	1012.606750	3.045684
275.542755	983.024963	2402.949951	953.443237	-2.083330
275.918060	989.851563	2245.938965	953.443237	-2.898550
276.293365	1005.780212	2336.959961	998.953613	-0.512823
276.668640	976.198425	2475.766602	1030.810913	3.641881
277.043854	1023.984375	2489.419678	1028.535400	0.310558
277.419037	937.514587	2514.450439	994.402588	3.607503
277.794189	964.820801	2439.358398	996.678101	2.160494
278.169312	971.647400	2491.695313	1092.250000	7.934132
278.544373	976.198425	2514.450439	932.963501	-2.810653
278.919464	930.687988	2509.899414	1014.882263	5.331412
279.294464	935.239075	2330.133301	971.647400	2.610114
279.669464	985.300537	2459.837891	976.198425	-0.617286
280.044403	1012.606750	2380.194824	978.473938	-2.495840
280.419312	944.341125	2437.082764	1019.433350	5.030490
280.794189	1019.433350	2430.256104	1001.229126	-1.290327
281.169037	1037.637451	2559.960938	1055.841675	1.195818
281.543854	998.953613	2553.134277	983.024963	-1.024891
281.918671	980.749451	2589.542725	989.851563	0.565773
282.293365	987.576050	2869.431641	992.127075	0.241837
282.668091	926.136963	2878.533936	944.341125	0.932401
283.042786	978.473938	3003.687500	976.198425	-0.112359
283.417419	967.096313	3005.962891	1017.157776	2.455358
283.792053	980.749451	2889.911377	964.820801	-0.834327
284.166595	973.922913	2937.697266	1010.331238	1.853997
284.541138	960.269775	2785.237549	1046.739624	4.738158
284.915619	998.953613	2939.972900	1014.882263	0.820633
285.290100	1055.841675	2921.768799	1028.535400	-1.463416
285.664520	996.678101	2894.462402	983.024963	-0.719425
286.038940	930.687988	2935.421875	1001.229126	3.518728
286.413300	987.576050	3140.218750	1033.086426	2.114163
286.787628	896.555176	3165.249512	985.300537	3.911737
287.161896	955.718750	3219.861816	1008.055725	2.311558
287.536194	1001.229126	3304.056152	994.402588	-0.296442
287.910400	987.576050	3137.943115	1033.086426	2.116400
288.284607	937.514587	3074.228516	957.994263	0.958466
288.658752	955.718750	2935.421875	1053.566162	4.942530
289.032867	971.647400	2814.819336	1010.331238	2.098765
289.406921	1005.780212	2851.227539	1005.780212	0.000000
289.781006	912.483826	2853.503174	1089.974487	9.144198
290.154999	1008.055725	2878.533936	1021.708862	0.729928
290.529022	1003.504700	3169.800537	944.341125	-2.731094
290.902954	910.208313	3112.912354	1010.331238	4.545455
291.276825	1026.259888	3253.994629	1099.076538	3.268641
291.650757	985.300537	3331.362549	992.127075	0.290979
292.024597	960.269775	3297.229736	957.994263	-0.097371
292.398407	962.545288	3265.372314	1074.045776	4.841896
292.772156	969.371887	3119.739014	1071.770264	4.761902
293.145905	978.473938	3115.187988	1037.637451	2.768902
293.519592	989.851563	2969.554688	1026.259888	1.839080
293.893280	1037.637451	3053.749023	996.678101	-2.031601
294.266907	917.034912	3110.636963	1001.229126	3.838172
294.640533	980.749451	3294.954102	948.892151	-1.376598
295.014069	978.473938	3249.443604	926.136963	-2.304609
295.387604	1001.229126	3547.536865	1074.045776	2.859696
295.761078	1019.433350	3588.496338	1030.810913	0.442868
296.134552	967.096313	3465.618164	1001.229126	1.366120
296.507996	967.096313	3547.536865	989.851563	0.881836
296.881378	923.861450	3549.812500	1014.882263	3.466203
297.254730	939.790100	3729.578613	1092.250000	5.464927
297.628021	1028.535400	3988.988037	996.678101	-1.076096
298.001282	953.443237	4034.498291	953.443237	0.000000
298.374573	1019.433350	4091.386475	976.198425	-1.407408
298.747803	1001.229126	3909.344727	1026.259888	0.860721
299.121002	998.953613	3747.782715	1005.780212	0.248346
299.494141	885.177612	3602.149414	1010.331238	4.606365
299.867188	1001.229126	3565.741211	998.953613	-0.088731
300.240265	1001.229126	3388.250488	1035.361938	1.429933
300.613312	969.371887	3367.770752	1023.984375	2.277039
300.986328	1026.259888	3345.015625	1003.504700	-0.981353
301.359314	987.576050	3203.933350	1012.606750	1.129362
301.732239	951.167725	3140.218750	1087.698975	6.237006
302.105103	921.585938	3265.372314	1005.780212	3.592233
302.477997	953.443237	3188.004639	998.953613	2.036658
302.850830	1003.504700	3367.770752	1023.984375	0.866217
303.223602	1008.055725	3135.667725	1049.015137	1.925135
303.596375	1051.290649	3208.484375	1092.250000	1.898733
303.969116	973.922913	3071.953125	1071.770264	4.663772
304.341766	987.576050	3076.504150	1110.454102	5.882349
304.714478	980.749451	3156.147461	1069.494751	4.079497
305.087067	944.341125	3162.973877	1062.668213	5.333333
305.459656	989.851563	3144.769775	1135.484863	6.758182
305.832214	1003.504700	3172.075928	1149.138062	6.715636
306.204681	971.647400	3040.095703	1053.566162	3.960397
306.577148	907.932800	3056.024414	1130.933838	10.381356
306.949646	998.953613	3140.218750	1140.035889	6.588735
307.322021	921.585938	3167.524902	1256.087524	14.893619
307.694397	935.239075	3126.565674	1180.995239	11.214949
308.066742	1019.433350	3053.749023	1215.128052	9.619682
308.439026	980.749451	3324.535889	1267.465088	12.233010
308.811279	1001.229126	3217.586426	1326.628662	14.681726
309.183502	998.953613	3417.832275	1287.944824	11.947322
309.555695	946.616638	3481.546875	1338.006226	15.439857
309.927887	951.167725	3415.556641	1397.169800	18.097878
310.299988	1023.984375	3556.638916	1381.241089	14.106018
310.672058	942.065613	3499.750977	1399.445313	17.882563
311.044128	946.616638	3558.914551	1444.955688	19.076654
311.416168	914.759338	3654.486328	1415.373901	18.272425
311.788147	942.065613	3636.282227	1549.629639	22.550674
312.160065	967.096313	3615.802490	1483.639526	19.501719
312.531982	944.341125	3549.812500	1485.915039	20.786024
312.903870	992.127075	3433.760986	1551.905151	22.926373
313.275696	948.892151	3417.832275	1535.976563	23.778803
313.647491	1014.882263	3319.984863	1586.037964	24.777887
314.019318	1001.229126	3404.179199	1495.017212	20.549244
314.391022	1017.157776	3415.556641	1506.394775	20.398483
314.762726	1003.504700	3445.138428	1426.751587	17.334578
315.134369	989.851563	3563.465576	1533.701050	21.131742
315.505981	937.514587	3699.996826	1513.221313	20.840197
315.877594	976.198425	3759.160400	1572.384888	21.422731
316.249146	1049.015137	3593.047363	1601.966675	21.735241
316.620636	928.412476	3467.893799	1583.762451	25.806448
316.992157	973.922913	3276.750000	1508.670288	23.221342
317.363586	896.555176	3290.403076	1551.905151	27.376425
317.735016	985.300537	3256.270264	1547.354126	24.749496
318.106354	960.269775	3304.056152	1422.200562	19.708740
318.477722	1026.259888	3347.291016	1440.404663	17.843136
318.849060	919.310425	3253.994629	1499.568237	24.853804
319.220306	910.208313	3244.892578	1440.404663	22.709553
319.591522	1014.882263	3442.863037	1499.568237	19.962513
319.962738	985.300537	3454.240479	1520.047852	21.658985
320.333923	944.341125	3304.056152	1538.252075	25.168756
320.705017	1042.188477	3310.882813	1429.027100	17.051157
321.076111	998.953613	3329.086914	1469.986450	20.214846
321.447144	978.473938	3283.576416	1506.394775	22.902271
321.818176	914.759338	3222.137451	1413.098389	21.597631
322.189178	967.096313	3201.657715	1435.853638	20.977598
322.560120	1005.780212	3326.811523	1490.466064	20.882349
322.931030	962.545288	3299.505127	1488.190552	22.492695
323.301910	985.300537	3411.005615	1476.812988	20.262663
323.672729	1030.810913	3679.517090	1449.506714	15.807560
324.043549	980.749451	3795.568604	1463.159912	17.138241
324.414337	983.024963	3918.446777	1567.833862	19.922482
324.785095	976.198425	4132.345703	1638.375000	20.980536
325.155792	985.300537	4089.110840	1520.047852	17.228737
325.526428	910.208313	4109.590332	1547.354126	19.914652
325.897034	987.576050	3968.508301	1542.803101	18.625954
326.267670	946.616638	3893.416016	1469.986450	17.760620
326.638184	889.728638	4009.467773	1588.313477	22.392410
327.008728	1028.535400	4068.631104	1520.047852	16.167664
327.379211	1014.882263	4048.151611	1545.078613	17.479370
327.749634	937.514587	3927.548828	1401.720825	15.525115
328.120026	978.473938	3891.140625	1531.425537	18.984375
328.490417	937.514587	3811.497314	1365.312500	14.885195
328.860748	987.576050	3659.037354	1410.822876	15.843269
329.231079	946.616638	3654.486328	1403.996338	16.890759
329.601318	973.922913	3834.252441	1415.373901	15.433571
329.971558	942.065613	3786.466553	1483.639526	19.039999
330.341736	969.371887	3754.609375	1551.905151	20.915030
330.711914	971.647400	3690.894775	1417.649414	16.401672
331.082062	957.994263	3756.884766	1535.976563	20.650406
331.452148	973.922913	3709.098877	1417.649414	16.222960
331.822174	1021.708862	3634.006836	1476.812988	17.421602
332.192200	926.136963	3877.487549	1592.864502	22.590591
332.562134	989.851563	3872.936523	1447.231201	15.864244
332.932129	996.678101	4009.467773	1483.639526	16.163141
333.302063	894.279663	4077.733398	1424.476074	16.654755
333.671906	953.443237	4145.999023	1529.150024	18.032787
334.041718	930.687988	4152.825684	1561.007324	19.562147
334.411499	967.096313	4216.540039	1524.598877	17.156860
334.781281	992.127075	4307.561035	1617.895264	18.874397
335.151001	1008.055725	4230.193359	1538.252075	16.454802
335.520721	1010.331238	3986.712402	1469.986450	15.443426
335.890350	944.341125	4216.540039	1522.323364	17.663420
336.259979	926.136963	4221.091309	1531.425537	18.370165
336.629547	930.687988	4266.601563	1485.915039	16.643929
336.999084	948.892151	4328.040527	1499.568237	16.296297
337.368622	912.483826	4150.549805	1490.466064	17.849613
337.738098	878.351013	4303.009766	1561.007324	19.933558
338.107513	951.167725	4243.846191	1472.261963	15.825847
338.476898	944.341125	4252.948242	1513.221313	17.193947
338.846252	967.096313	4419.061523	1554.180664	17.007250
339.215576	1055.841675	4425.888184	1497.292725	13.099257
339.584869	971.647400	4189.233887	1533.701050	17.468176
339.954132	944.341125	4186.958496	1522.323364	17.824558
340.323334	1028.535400	4155.101074	1513.221313	15.502182
340.692505	926.136963	3950.304199	1497.292725	18.886381
341.061646	960.269775	3977.610352	1510.945801	18.250378
341.430786	967.096313	4173.305176	1513.221313	17.033356
341.799896	926.136963	4127.794922	1654.303589	22.743423
342.168915	876.075500	4373.550781	1510.945801	18.152245
342.537903	937.514587	4428.163574	1572.384888	18.187744
342.906830	1026.259888	4478.225098	1622.446289	17.270927
343.275757	1001.229126	4496.429199	1538.252075	15.364583
343.644684	1042.188477	4460.020996	1549.629639	14.846870
344.013550	1017.157776	4587.449707	1595.140137	16.188658
344.382355	1001.229126	4828.655273	1574.660400	14.982163
344.751129	983.024963	4849.134766	1642.926025	17.068865
345.119873	1092.250000	5015.248047	1606.517700	13.109048
345.488586	1008.055725	5311.065430	1656.579102	15.071390
345.857269	1001.229126	5301.963379	1674.783325	15.661376
346.225891	1008.055725	5531.791016	1749.875488	16.398390
346.594482	1035.361938	5570.475098	1724.844727	15.203210
346.963043	1046.739624	5622.812012	1715.742676	14.619591
347.331543	1010.331238	5042.554199	1647.477051	15.801354
347.700043	948.892151	4976.563965	1670.232300	17.909605
348.068512	887.453125	4933.329102	1638.375000	18.560181
348.436951	994.402588	4985.666016	1642.926025	16.248575
348.805328	951.167725	4769.491699	1617.895264	17.461262
349.173645	1021.708862	4776.318359	1604.242188	15.515151
349.541931	983.024963	4760.389648	1531.425537	14.518073
349.910217	978.473938	4865.063477	1608.793213	16.217798
350.278473	923.861450	4944.706543	1665.681274	18.449350
350.646667	1021.708862	4999.319336	1720.293701	17.562927
351.014801	914.759338	5085.789063	1722.569214	19.367157
351.382935	980.749451	5024.350098	1647.477051	16.488462
351.751007	1035.361938	5010.696777	1661.130127	15.741269
352.119049	1071.770264	5188.187500	1765.804199	16.860146
352.487091	1028.535400	5126.748535	1661.130127	15.435868
352.855072	917.034912	5185.912109	1702.089600	18.390192
353.222992	985.300537	5092.615723	1699.814087	17.396120
353.590881	1010.331238	5427.117188	1815.865601	18.238020
353.958740	987.576050	5620.536621	1765.804199	16.797644
354.326599	987.576050	5697.904297	1790.834839	17.053139
354.694397	985.300537	5889.047852	1799.937012	16.612530
355.062134	898.830688	5964.140137	1811.314575	18.014376
355.429840	994.402588	5925.456055	1897.784302	18.320257
355.797516	992.127075	6159.834961	1922.815063	18.009686
356.165192	1014.882263	6259.957520	1970.601074	18.221260
356.532776	912.483826	6401.040039	1915.988525	18.283583
356.900360	978.473938	6583.081543	1997.907227	18.189201
357.267883	992.127075	6528.469238	1938.743774	17.098232
357.635376	1051.290649	6803.807129	2209.530762	20.134495
358.002808	1008.055725	7493.290039	2232.285889	18.877193
358.370270	948.892151	7682.158203	2223.183838	18.925314
358.737640	955.718750	7552.453613	2305.102539	20.455328
359.105011	1005.780212	7322.625977	2245.938965	19.632563
359.472321	1044.463989	7111.002441	2218.632813	19.354839
359.839569	1067.219238	7090.522949	2195.877686	18.738195
360.206787	962.545288	7024.532715	2077.550537	18.393394
360.574005	873.799988	7136.033203	2225.459229	21.584299
360.941193	962.545288	7754.975098	2400.674561	21.172531
361.308319	926.136963	8021.210938	2391.572266	20.654263
361.675415	1017.157776	8676.560547	2562.236328	20.172312
362.042450	926.136963	9129.389648	2648.706299	20.998613
362.409424	928.412476	9871.208984	2610.022461	18.804071
362.776428	1014.882263	9916.719727	2794.339600	19.989775
363.143402	1033.086426	9432.034180	2812.543701	21.186670
363.510284	946.616638	8792.612305	2553.134277	20.475637
363.877136	989.851563	7898.332520	2443.909424	21.047432
364.243988	955.718750	7388.616211	2266.418701	20.374954
364.610779	964.820801	7172.441406	2352.888428	22.360703
364.977539	951.167725	6967.644531	2275.520752	22.012104
365.344269	1044.463989	6658.173828	2225.459229	21.037697
365.710938	985.300537	6737.816895	2177.673340	20.727846
366.077576	905.657288	6637.694336	2159.469238	21.873760
366.444183	976.198425	6587.632813	2239.112549	22.506083
366.810760	983.024963	6471.581055	2286.898438	23.756222
367.177277	944.341125	6583.081543	2168.571289	21.711060
367.543823	976.198425	6660.449219	2259.592041	22.578060
367.910248	1051.290649	6583.081543	2266.418701	21.966269
368.276642	948.892151	6517.091797	2268.694336	23.702496
368.643036	935.239075	6476.132324	2316.480225	24.928133
369.009399	980.749451	6303.192383	2195.877686	22.830273
369.375671	932.963501	6253.131348	2243.663574	24.636442
369.741974	987.576050	6253.131348	2209.530762	23.206570
370.108215	948.892151	6216.722656	2291.449463	25.485964
370.474396	921.585938	6091.569336	2325.582275	27.156689
370.840546	892.004150	6125.702148	2252.765625	25.999998
371.206665	973.922913	6401.040039	2375.643799	25.828094
371.572784	964.820801	6644.520508	2311.929199	23.717951
371.938843	1008.055725	6601.285645	2352.888428	24.043938
372.304840	935.239075	6705.959961	2496.246338	27.050474
372.670807	932.963501	6649.071777	2296.000488	23.845541
373.036713	962.545288	6712.786133	2384.745850	24.732887
373.402649	964.820801	6503.438477	2389.296875	25.718983
373.768524	985.300537	6594.459473	2544.032227	27.789043
374.134308	960.269775	6494.336426	2473.491211	27.343752
374.500122	894.279663	6412.417480	2448.460449	28.164951
374.865875	971.647400	6692.306641	2644.155273	29.236279
375.231567	996.678101	6708.235352	2530.379150	26.852591
375.597260	1019.433350	6730.990723	2525.828125	26.374500
375.962891	996.678101	6951.715820	2641.879639	27.627056
376.328461	1008.055725	7156.512695	2680.563477	27.202074
376.694031	1019.433350	7215.676270	2787.512939	28.534702
377.059540	985.300537	7659.402832	2858.054199	28.060007
377.425049	1005.780212	7932.465332	3005.962891	28.876476
377.790497	1001.229126	8314.752930	3096.983887	28.655884
378.155945	935.239075	8612.846680	3156.147461	28.927090
378.521301	962.545288	8301.099609	3190.280273	30.356590
378.886597	894.279663	8121.333984	3110.636963	30.667507
379.251892	935.239075	7802.760742	3069.677490	31.080187
379.617157	1010.331238	7584.311035	2999.136475	30.252680
379.982422	944.341125	7286.217773	2908.115479	30.965195
380.347595	942.065613	7167.890625	2919.493164	31.761694
380.712738	998.953613	7240.707031	2946.799316	31.206707
381.077820	992.127075	7288.493164	3074.228516	33.068306
381.442902	960.269775	7463.708008	3012.789551	31.560532
381.807953	983.024963	7163.339355	3044.646729	33.357880
382.172974	980.749451	7161.063965	3133.392090	34.830631
382.537933	951.167725	7097.349609	3233.515137	37.134396
382.902832	987.576050	7151.961914	3103.810303	34.330013
383.267700	998.953613	7593.413086	3249.443604	34.126984
383.632538	932.963501	7566.106445	3253.994629	34.991425
383.997345	976.198425	7805.036133	3447.414063	36.187939
384.362152	912.483826	7741.321777	3502.026611	37.920692
384.726898	971.647400	7761.801270	3420.107666	36.058979
385.091553	942.065613	7939.291992	3740.956299	40.000000
385.456238	985.300537	8114.507324	3613.527100	36.865623
385.820862	980.749451	7962.047363	3556.638916	36.896999
386.185425	980.749451	7925.639160	3624.904541	38.073391
386.549988	946.616638	8157.742188	3720.476563	38.466393
386.914490	960.269775	8109.956055	3861.558838	40.579250
387.278961	983.024963	8166.844238	3913.895752	40.798225
387.643372	1012.606750	8319.303711	4007.192139	40.984119
388.007782	996.678101	8542.304688	4168.753906	42.038601
388.372101	957.994263	8749.377930	4182.407227	41.384346
388.736450	930.687988	8401.222656	4289.356934	44.958881
389.100739	942.065613	8348.885742	4171.029785	43.594471
389.464966	969.371887	8285.170898	4300.734375	45.536552
389.829163	983.024963	8166.844238	4193.784668	44.694328
390.193329	989.851563	8043.965820	4380.377441	48.064514
390.557495	926.136963	8305.651367	4384.928711	46.870178
390.921570	882.902100	8469.488281	4737.634277	50.809841
391.285614	948.892151	8642.427734	4733.083496	49.186638
391.649597	1012.606750	9017.888672	5078.962402	50.795910
392.013550	978.473938	9504.850586	5438.494629	52.308506
392.377502	964.820801	9752.881836	5370.229004	50.129471
392.741455	1019.433350	9507.125977	5509.035645	52.895443
393.105316	1014.882263	9536.708008	5556.821777	53.297726
393.469086	973.922913	9534.432617	5643.291504	54.545452
393.832886	1026.259888	9279.574219	5499.933594	54.204571
394.196655	973.922913	9454.789063	5595.505859	54.494232
394.560333	973.922913	9666.412109	5618.260742	53.429321
394.924042	983.024963	9593.595703	6114.324219	59.593025
395.287659	987.576050	9623.177734	6050.609863	58.629776
395.651245	928.412476	9520.779297	6153.008301	60.805080
396.014771	939.790100	9131.665039	5923.180664	60.833332
396.378296	1035.361938	8854.051758	6002.823730	63.533173
396.741791	928.412476	8776.683594	5716.108398	61.003193
397.105255	953.443237	8453.559570	5909.527344	66.080093
397.468628	1001.229126	8351.161133	5720.659180	64.210526
397.832001	935.239075	8260.140625	5998.272949	69.120842
398.195313	948.892151	8656.081055	5902.701172	64.275177
398.558624	935.239075	8540.029297	6153.008301	68.611610
398.921844	898.830688	8565.060547	6294.090332	70.376961
399.285095	946.616638	8669.734375	6200.793945	68.031815
399.648254	942.065613	8701.591797	6253.131348	68.445747
400.011383	932.963501	8574.162109	6350.978516	70.905304
400.374451	953.443237	8501.345703	6380.560547	71.902321
400.737549	992.127075	8608.294922	6421.519531	71.287720
401.100586	973.922913	8469.488281	6533.020020	74.165146
401.463562	983.024963	8553.682617	6580.806152	73.940491
401.826508	994.402588	8844.949219	6815.184570	74.144928
402.189392	1014.882263	8626.499023	6558.050781	72.825111
402.552246	960.269775	8694.764648	7038.186035	78.581940
402.915070	996.678101	8685.663086	6990.399902	77.952057
403.277893	996.678101	8872.255859	7199.748047	78.763367
403.640656	955.718750	9131.665039	7258.911133	77.094345
404.003326	953.443237	9568.565430	7554.729004	76.624397
404.366028	962.545288	9454.789063	7618.443848	78.376205
404.728699	969.371887	9896.240234	8032.588379	79.123116
405.091248	939.790100	10103.312500	8289.722656	80.208595
405.453857	994.402588	10301.282227	8219.180664	77.628365
405.816345	971.647400	9934.923828	8219.180664	80.858078
406.178833	1030.810913	10176.128906	8474.039063	81.388397
406.541260	1008.055725	10112.414063	8346.610352	80.604851
406.903687	944.341125	9775.637695	8219.180664	82.375664
407.266052	962.545288	9707.372070	7971.149414	80.145714
407.628387	967.096313	9552.636719	7930.189941	81.102570
407.990662	1001.229126	9552.636719	7984.802734	81.665787
408.352905	1008.055725	9463.890625	8214.629883	85.226051
408.715118	989.851563	9336.461914	8039.415039	84.460197
409.077332	998.953613	9236.338867	7848.271484	83.149178
409.439484	1037.637451	9409.278320	8189.599121	85.430832
409.801575	1021.708862	9648.208008	8383.018555	85.333687
410.163605	951.167725	9853.004883	8401.222656	83.691208
410.525635	1055.841675	9971.332031	8642.427734	85.094437
410.887604	971.647400	10112.414063	8747.101563	85.063477
411.249573	978.473938	10148.823242	8895.010742	86.327530
411.611481	994.402588	10219.364258	8708.417969	83.621109
411.973328	976.198425	9937.199219	8753.928711	86.795334
412.335144	926.136963	10064.628906	8808.541016	86.254974
412.696930	1008.055725	9752.881836	8633.326172	87.197510
413.058685	946.616638	9923.545898	8528.652344	84.461349
413.420410	953.443237	9707.372070	8480.866211	85.989082
413.782104	980.749451	9837.076172	8631.050781	86.382324
414.143707	978.473938	9900.791016	8585.540039	85.258858
414.505310	989.851563	9907.617188	8806.265625	87.649918
414.866852	987.576050	9932.648438	8733.449219	86.593742
415.228394	1003.504700	10360.446289	9161.247070	87.183853
415.589874	932.963501	10294.456055	9220.410156	88.526978
415.951324	978.473938	10346.792969	9263.645508	88.438187
416.312683	973.922913	10663.090820	9543.534180	88.445274
416.674072	955.718750	11029.449219	9666.412109	86.469391
417.035370	967.096313	11393.532227	9864.382813	85.333923
417.396667	1033.086426	11527.788086	10267.149414	87.987854
417.757935	1021.708862	11725.758789	10178.404297	85.544212
418.119141	1026.259888	12174.036133	10638.059570	86.221680
418.480286	985.300537	12328.771484	10881.540039	87.241722
418.841400	887.453125	13157.061523	11443.593750	86.034859
419.202484	869.248962	13216.224609	11878.218750	89.163292
419.563568	953.443237	13830.615234	12149.005859	86.941162
419.924591	973.922913	14813.640625	13273.113281	88.868797
420.285553	917.034912	14708.966797	13314.072266	89.886154
420.646484	987.576050	16024.217773	13894.330078	85.835350
421.007355	960.269775	15990.084961	14422.250977	89.568504
421.368225	976.198425	17257.548828	15073.049805	86.582817
421.729065	998.953613	17457.794922	15407.551758	87.543205
422.089874	955.718750	17962.960938	16078.830078	88.921600
422.450592	935.239075	17699.000000	15498.572266	86.873894
422.811279	987.576050	17787.746094	15689.715820	87.511848
423.171936	962.545288	17689.898438	15403.000000	86.328392
423.532593	1005.780212	17282.580078	15573.664063	89.500908
423.893127	955.718750	17614.806641	15689.715820	88.444199
424.253723	985.300537	18033.501953	15808.042969	86.946075
424.614197	1042.188477	18001.644531	15744.328125	86.689919
424.974670	1012.606750	18290.636719	16442.914063	89.305946
425.335052	1026.259888	18879.996094	16438.361328	86.324234
425.695496	1014.882263	17787.746094	15971.880859	89.173798
426.055817	932.963501	17960.685547	16137.993164	89.295731
426.416168	1003.504700	17792.296875	15651.032227	87.245865
426.776398	1023.984375	16720.527344	14797.711914	87.750069
427.136627	955.718750	16126.616211	14160.566406	87.040649
427.496826	930.687988	16160.749023	14162.841797	86.881821
427.856995	935.239075	15562.287109	13659.951172	86.994392
428.217102	971.647400	14902.385742	13013.703125	86.442337
428.577179	1010.331238	14731.721680	12906.753906	86.699837
428.937195	1003.504700	14381.291016	12608.661133	86.749451
429.297180	969.371887	13807.860352	12046.607422	86.281464
429.657135	996.678101	13587.134766	12292.363281	89.716248
430.017059	971.647400	13707.737305	12117.148438	87.511169
430.376984	978.473938	13878.401367	12014.750000	85.553009
430.736786	939.790100	13414.195313	11611.982422	85.552711
431.096588	964.820801	13471.083008	11844.085938	86.990547
431.456360	896.555176	13584.859375	11864.565430	86.441887
431.816071	983.024963	13234.428711	11662.043945	87.165680
432.175781	964.820801	13400.541992	11773.544922	86.916756
432.535400	937.514587	13352.755859	11850.912109	87.903229
432.895020	942.065613	13359.583008	11844.085938	87.795494
433.254578	976.198425	13687.257813	11939.657227	86.251335
433.614105	985.300537	13764.625000	12199.067383	87.749290
433.973602	953.443237	14190.147461	12394.761719	86.436310
434.333038	871.524475	13967.146484	12615.487305	89.678543
434.692444	969.371887	14356.260742	12399.312500	85.381607
435.051819	957.994263	14233.382813	12417.516602	86.321556
435.411133	1021.708862	14285.719727	12626.865234	87.493568
435.770416	932.963501	13939.840820	12096.668945	85.829254
436.129669	989.851563	14267.515625	12690.579102	88.123390
436.488861	992.127075	13946.666992	12271.883789	87.071846
436.848083	992.127075	14051.340820	12142.178711	85.380730
437.207184	998.953613	13930.738281	12258.230469	87.066689
437.566254	969.371887	14433.628906	12756.569336	87.544357
437.925293	1010.331238	14308.474609	12529.017578	86.618759
438.284363	967.096313	14374.464844	12742.916016	87.830956
438.643311	1046.739624	14572.435547	12811.181641	86.978462
439.002258	932.963501	14449.556641	13075.142578	89.831650
439.361145	1021.708862	15478.092773	13373.235352	85.439941
439.719971	948.892151	15614.624023	13728.216797	87.137314
440.078827	971.647400	15842.175781	13823.789063	86.426933
440.437592	1037.637451	16379.198242	14645.251953	88.697716
440.796295	1042.188477	16545.312500	14670.282227	87.905472
441.155029	1017.157776	17614.806641	15575.939453	87.715927
441.513672	898.830688	18336.146484	15787.563477	85.384308
441.872253	969.371887	17960.685547	15589.592773	86.045258
442.230865	923.861450	17544.265625	15257.367188	86.240417
442.589386	1085.423462	17341.744141	15127.662109	86.380180
442.947876	960.269775	17068.681641	15132.212891	87.978523
443.306335	967.096313	16820.650391	14581.537109	85.876266
443.664764	957.994263	16074.279297	14299.373047	88.258316
444.023102	919.310425	16688.669922	14319.852539	84.978355
444.381500	973.922913	16586.271484	14206.076172	84.754402
444.739777	957.994263	16424.708984	14408.597656	86.964836
445.098022	851.044800	16467.943359	14845.498047	89.610962
445.456238	978.473938	16631.781250	14759.028320	88.036057
445.814423	917.034912	17150.599609	15123.111328	87.510513
446.172577	996.678101	18217.820313	15789.838867	85.901161
446.530701	932.963501	18365.728516	15871.757813	85.693771
446.888733	910.208313	18727.537109	16399.677734	86.934860
447.246765	944.341125	19808.408203	17496.478516	87.744270
447.604736	962.545288	18905.027344	16852.507813	88.560562
447.962677	930.687988	19376.060547	16857.058594	86.343445
448.320587	967.096313	19637.744141	17107.365234	86.447281
448.678436	1005.780212	18859.515625	16536.208984	86.986992
449.036255	971.647400	18907.302734	16558.964844	86.906868
449.394043	971.647400	17696.724609	15498.572266	86.857140
449.751770	971.647400	17869.664063	15639.654297	86.803123
450.109467	939.790100	17398.632813	15318.805664	87.363472
450.467163	935.239075	17325.814453	15398.449219	88.241013
450.824768	980.749451	16959.457031	15038.916992	87.980629
451.182343	953.443237	17166.529297	15038.916992	86.877190
451.539886	923.861450	16097.034180	14392.668945	88.767242
451.897369	951.167725	16388.300781	14613.394531	88.502357
452.254822	985.300537	16392.851563	14383.567383	86.959091
452.612274	962.545288	16438.361328	14526.924805	87.648880
452.969635	996.678101	16624.955078	14565.608398	86.822945
453.326965	957.994263	16647.710938	14394.944336	85.641762
453.684326	953.443237	16165.299805	13971.697266	85.579651
454.041534	967.096313	15971.880859	14019.483398	86.988167
454.398773	978.473938	15532.705078	13728.216797	87.601624
454.755951	880.626526	15305.153320	13191.194336	85.344688
455.113098	1021.708862	14902.385742	12990.948242	86.229507
455.470215	969.371887	14747.650391	13070.591797	87.828239
455.827240	932.963501	15018.437500	13043.285156	85.977379
456.184265	960.269775	14704.415039	12615.487305	84.801331
456.541260	962.545288	14565.608398	13056.938477	88.909340
456.898193	1008.055725	14834.120117	12899.927734	86.010536
457.255096	1010.331238	14972.926758	13254.908203	87.695564
457.611969	964.820801	14649.802734	12674.650391	85.567009
457.968781	1003.504700	15009.334961	12806.630859	84.272949
458.325531	1010.331238	15321.082031	13432.399414	86.802353
458.682312	973.922913	15762.532227	13832.890625	86.951836
459.039001	953.443237	16816.099609	14490.516602	85.339256
459.395630	969.371887	17287.130859	15325.632813	87.979362
459.752289	971.647400	18870.894531	16568.066406	87.134491
460.108856	951.167725	20306.748047	17883.318359	87.479424
460.465363	930.687988	20816.464844	18217.820313	86.932144
460.821899	921.585938	20930.240234	18083.564453	85.772774
461.178345	928.412476	20238.482422	17760.439453	87.167091
461.534760	942.065613	19869.847656	17357.671875	86.727577
461.891144	976.198425	18597.832031	16688.669922	89.165810
462.247467	1023.984375	18158.656250	15949.125000	87.104912
462.603760	937.514587	17769.541016	15337.009766	85.548195
462.960052	987.576050	16793.343750	14640.701172	86.380653
463.316254	1049.015137	16317.759766	14438.179688	87.690018
463.672424	967.096313	16001.461914	14058.167969	87.074318
464.028564	962.545288	15616.899414	13496.114258	85.527954
464.384644	1008.055725	15585.041992	13400.541992	85.014046
464.740723	992.127075	15990.084961	13766.900391	85.176750
465.096741	921.585938	15614.624023	13518.869141	85.736412
465.452698	932.963501	15703.369141	13327.725586	83.916191
465.808655	901.106262	15849.001953	13798.757813	86.284065
466.164520	889.728638	15439.408203	13521.144531	86.815765
466.520355	971.647400	16347.341797	14092.300781	85.333733
466.876190	973.922913	16413.332031	14319.852539	86.440674
467.231964	978.473938	16331.413086	14333.505859	86.986809
467.587677	983.024963	17155.150391	14754.476563	85.155479
467.943390	948.892151	17246.171875	14759.028320	84.738907
468.299011	998.953613	16404.228516	14301.648438	86.351555
468.654633	939.790100	16467.943359	14433.628906	86.899185
469.010223	1039.912964	16565.791016	14301.648438	85.416977
469.365723	1005.780212	15673.787109	13935.289063	88.147690
469.721191	1030.810913	16015.115234	13964.871094	86.317390
470.076660	1005.780212	15589.592773	13252.632813	83.975655
470.432068	973.922913	15928.645508	13769.176758	85.559952
470.787445	996.678101	15318.805664	13598.512695	87.988564
471.142792	987.576050	15703.369141	13264.010742	83.423531
471.498016	951.167725	15748.879883	13739.594727	86.421646
471.853271	996.678101	15539.531250	13823.789063	88.202164
472.208496	994.402588	15753.430664	13810.135742	86.833176
472.563660	951.167725	15739.777344	13992.177734	88.182800
472.918762	935.239075	16310.933594	14001.279297	84.978539
473.273865	987.576050	16649.986328	14433.628906	85.849190
473.628876	980.749451	17055.029297	14608.843750	84.781990
473.983917	969.371887	16995.865234	14615.669922	85.148369
474.338837	978.473938	17004.966797	14520.098633	84.495247
474.693787	978.473938	16938.976563	14879.630859	87.097237
475.048645	939.790100	16695.496094	14465.485352	85.846329
475.403503	946.616638	16784.242188	14988.855469	88.663788
475.758270	1023.984375	17027.722656	14931.967773	86.904594
476.113037	946.616638	16768.312500	14795.436523	87.530563
476.467773	994.402588	17419.111328	15079.875977	85.757828
476.822418	1026.259888	18315.666016	16288.177734	88.273232
477.177063	917.034912	18183.687500	15949.125000	87.058510
477.531647	976.198425	18700.230469	16290.453125	86.403900
477.886200	928.412476	19109.824219	16720.527344	86.858574
478.240723	919.310425	19703.734375	16945.802734	85.317986
478.595184	964.820801	19690.082031	17410.009766	87.823547
478.949585	951.167725	20377.289063	17601.154297	85.709267
479.303986	907.932800	20322.675781	17421.386719	85.056259
479.658325	1023.984375	20322.675781	17744.511719	86.640732
480.012634	962.545288	20349.982422	17612.531250	85.880287
480.366913	955.718750	21021.261719	18515.912109	87.514168
480.721130	901.106262	21558.283203	18736.638672	86.340607
481.075317	946.616638	22486.697266	19305.517578	85.231346
481.429474	962.545288	23492.476563	20174.767578	85.274216
481.783569	996.678101	24436.818359	21353.486328	86.845932
482.137604	962.545288	25881.773438	22443.460938	86.202171
482.491669	964.820801	28155.019531	24184.234375	85.396263
482.845612	1019.433350	31054.033203	26873.900391	86.082275
483.199554	939.790100	35204.582031	30344.070313	85.814842
483.553436	1019.433350	41039.019531	35830.351563	86.984703
483.907318	980.749451	47870.132813	42022.042969	87.527901
484.261139	937.514587	53791.035156	47742.703125	88.556427
484.614899	892.004150	56366.925781	49920.375000	88.379341
484.968628	1014.882263	55886.789063	50006.843750	89.284233
485.322357	989.851563	53520.250000	47253.464844	88.070175
485.675964	964.820801	49763.363281	43532.988281	87.232460
486.029572	989.851563	45565.027344	39794.308594	87.053963
486.383148	976.198425	43346.394531	37068.234375	85.182602
486.736694	1026.259888	40661.281250	35043.019531	85.825005
487.090149	1001.229126	40847.875000	35432.132813	86.408539
487.443604	944.341125	41958.328125	36007.839844	85.491562
487.796997	932.963501	44281.636719	37673.523438	84.755905
488.150360	987.576050	45189.566406	39141.234375	86.316605
488.503693	962.545288	45797.132813	39862.574219	86.763435
488.856964	835.116150	45071.242188	38966.019531	86.198563
489.210175	953.443237	42074.378906	36544.863281	86.553040
489.563416	917.034912	40065.093750	34744.925781	86.410133
489.916565	996.678101	37700.828125	32503.539063	85.840057
490.269653	948.892151	35341.113281	30337.244141	85.450577
490.622772	967.096313	34267.066406	29452.066406	85.540535
490.975769	960.269775	34125.984375	29427.035156	85.831909
491.328735	957.994263	35564.113281	31174.634766	87.315895
491.681732	980.749451	37780.472656	32583.181641	85.876823
492.034607	1005.780212	40306.300781	35036.195313	86.590240
492.387482	1005.780212	40998.058594	35118.113281	85.297295
492.740326	946.616638	39530.347656	34533.304688	87.048836
493.093079	1008.055725	37689.449219	32660.550781	86.290321
493.445862	1026.259888	34558.335938	29850.281250	85.959557
493.798523	960.269775	31911.904297	27517.873047	85.803558
494.151215	937.514587	29486.199219	25645.119141	86.545509
494.503815	942.065613	27454.158203	23481.099609	85.014168
494.856384	951.167725	25943.212891	22218.185547	85.095146
495.208923	1035.361938	24632.511719	21287.498047	85.824501
495.561432	923.861450	23874.763672	20504.718750	85.316284
495.913879	969.371887	24197.888672	20429.625000	83.777428
496.266296	926.136963	24345.796875	20570.708984	83.880692
496.618683	1021.708862	24015.845703	20500.166016	84.710541
496.970978	969.371887	24914.677734	21267.017578	84.766701
497.323273	985.300537	25158.158203	21301.150391	84.044052
497.675507	1019.433350	25296.964844	21781.285156	85.518791
498.027710	1028.535400	25349.300781	21305.701172	83.373878
498.379852	923.861450	24955.636719	21110.005859	83.997726
498.731995	971.647400	24409.511719	21260.191406	86.563110
499.084076	1051.290649	24320.765625	20557.054688	83.825546
499.436096	1080.872437	23981.712891	20365.912109	84.211060
499.788086	1049.015137	23340.017578	19983.623047	84.942825
500.140106	989.851563	22666.462891	19351.029297	84.705017
500.491943	1033.086426	22322.859375	19077.966797	84.758446
500.843842	1044.463989	22081.654297	18709.332031	83.969711
501.195679	1001.229126	21544.630859	18707.056641	86.187416
501.547455	1001.229126	21237.435547	18352.076172	85.741600
501.899231	987.576050	21189.650391	18379.380859	86.089203
502.250885	932.963501	21080.423828	17799.123047	83.713577
502.602600	957.994263	20941.617188	17894.695313	84.752907
502.954193	930.687988	20843.771484	17853.736328	84.984573
503.305786	1026.259888	20861.974609	17976.615234	85.453712
503.657379	932.963501	20909.759766	17762.714844	84.246498
504.008820	971.647400	20918.863281	18145.001953	86.093994
504.360291	994.402588	21096.353516	18113.146484	85.159615
504.711700	994.402588	21253.365234	18172.308594	84.791634
505.063080	946.616638	21226.058594	18213.267578	85.143616
505.414368	951.167725	21146.414063	18017.574219	84.507050
505.765656	1037.637451	21053.119141	18236.023438	85.925415
506.116943	932.963501	21353.486328	18199.615234	84.555389
506.468109	960.269775	20693.585938	18058.533203	86.646683
506.819305	989.851563	20880.179688	17974.337891	85.390678
507.170410	1023.984375	20930.240234	17762.714844	84.087791
507.521484	978.473938	20877.904297	18079.013672	85.934822
507.872559	1021.708862	21073.597656	18135.900391	85.349525
508.223480	967.096313	21073.597656	17978.890625	84.608429
508.574493	885.177612	21262.466797	18433.994141	86.119484
508.925385	994.402588	21788.111328	18411.238281	83.760124
509.276245	946.616638	21926.917969	18788.974609	85.043381
509.627045	939.790100	22284.175781	19071.140625	84.946693
509.977814	926.136963	22739.279297	19394.263672	84.665138
510.328613	1014.882263	22832.576172	19571.753906	85.054230
510.679260	1010.331238	22991.861328	19312.345703	83.260872
511.029999	987.576050	23171.628906	19601.335938	83.906036
511.380585	1017.157776	23201.210938	19913.082031	85.177963
511.731140	960.269775	23362.771484	20035.960938	85.149826
512.081726	1008.055725	23556.191406	20297.646484	85.548492
512.432129	1039.912964	23692.722656	20356.808594	85.273727
512.782654	978.473938	24061.357422	20224.828125	83.379333
513.133057	955.718750	23738.232422	20356.808594	85.157814
513.483398	989.851563	23968.060547	19976.796875	82.630226
513.833801	983.024963	24152.376953	20243.033203	83.127090
514.183960	1026.259888	23189.832031	19981.347656	85.523613
514.534302	983.024963	23406.007813	20040.511719	84.990860
514.884460	946.616638	23410.558594	19783.376953	83.853317
515.234619	953.443237	23091.984375	19831.164063	85.270844
515.584717	996.678101	23228.515625	19453.427734	83.019455
515.934753	898.830688	23228.515625	19935.837891	85.254257
516.284851	932.963501	23522.058594	19965.419922	84.255066
516.634766	948.892151	23239.894531	20324.951172	86.923225
516.984741	964.820801	24375.378906	20199.798828	82.163689
517.334595	1028.535400	24841.861328	20993.955078	83.841377
517.684448	994.402588	25497.210938	21756.253906	84.732536
518.034363	1014.882263	26805.634766	22937.250000	85.000885
518.384094	937.514587	27913.814453	23326.363281	82.994514
518.733826	969.371887	29092.533203	24257.050781	82.806053
519.083496	978.473938	29463.443359	24957.912109	84.182777
519.433167	962.545288	29993.640625	25378.882813	84.104088
519.782776	937.514587	29716.025391	25205.943359	84.328300
520.132324	944.341125	29001.511719	24425.439453	83.690186
520.481873	944.341125	28471.316406	24425.439453	85.302139
520.831299	1049.015137	27925.191406	23485.650391	83.481499
521.180786	930.687988	26867.074219	22816.646484	84.383224
521.530151	998.953613	26491.613281	22700.595703	85.128983
521.879517	1019.433350	26300.468750	22159.021484	83.618362
522.228882	953.443237	26352.806641	22077.103516	83.166100
522.578064	987.576050	25906.804688	21858.652344	83.754906
522.927307	930.687988	26020.580078	21885.958984	83.520767
523.276489	935.239075	25786.201172	21717.570313	83.627876
523.625610	976.198425	26459.755859	22602.748047	84.864716
523.974792	992.127075	27005.880859	22454.839844	82.505249
524.323792	889.728638	27486.015625	23260.373047	84.111908
524.672852	1012.606750	27542.904297	23512.957031	84.810020
525.021790	992.127075	28767.134766	24582.451172	84.933640
525.370728	1003.504700	30485.152344	25533.619141	83.204697
525.719604	973.922913	31427.218750	26771.501953	84.711945
526.068420	919.310425	33479.738281	28364.367188	84.289604
526.417297	932.963501	35088.531250	29256.371094	82.924721
526.765991	951.167725	35894.066406	30237.121094	83.810890
527.114746	964.820801	37357.226563	31063.134766	82.704933
527.463379	1019.433350	38074.015625	32148.558594	84.008842
527.812012	976.198425	40579.363281	34371.742188	84.325439
528.160706	996.678101	44131.449219	37270.753906	84.094742
528.509155	1012.606750	49189.933594	42194.980469	85.480820
528.857727	1062.668213	53458.808594	46523.023438	86.762794
529.206177	951.167725	56300.937500	49351.496094	87.444496
529.554565	1003.504700	56191.710938	48787.164063	86.583099
529.902893	994.402588	54935.625000	47817.792969	86.804466
530.251221	957.994263	52339.253906	44682.125000	85.097427
530.599548	1008.055725	48313.859375	40629.425781	83.755836
530.947876	951.167725	44802.730469	37778.195313	83.981110
531.296021	914.759338	41305.253906	34626.601563	83.464790
531.644165	1017.157776	38961.468750	32549.048828	83.100441
531.992249	980.749451	37025.000000	31167.808594	83.750000
532.340454	962.545288	36335.515625	30464.671875	83.403030
532.688354	983.024963	36740.558594	30585.275391	82.786049
533.036438	951.167725	37864.667969	31704.832031	83.312782
533.384338	967.096313	39432.500000	33768.730469	85.275681
533.732239	1012.606750	41605.621094	35063.500000	83.883629
534.080139	932.963501	42103.960938	36039.699219	85.270546
534.427917	946.616638	41940.125000	34908.765625	82.847626
534.775757	932.963501	39448.429688	33149.785156	83.646461
535.123474	1033.086426	38074.015625	31773.097656	82.989311
535.471191	896.555176	35598.246094	29918.546875	83.632790
535.818848	1019.433350	34287.546875	28940.074219	83.926132
536.166382	989.851563	33807.414063	28478.142578	83.760918
536.513977	921.585938	33406.921875	27957.048828	83.223587
536.861511	946.616638	34207.902344	28644.255859	83.272903
537.208984	1030.810913	33928.015625	28646.531250	83.945496
537.556396	939.790100	33862.023438	28268.794922	83.010780
537.903809	976.198425	32872.171875	27636.199219	83.584221
538.251160	935.239075	32066.638672	27008.156250	83.751190
538.598389	1001.229126	30960.736328	25665.599609	82.325691
538.945740	1046.739624	29486.199219	25046.658203	84.389503
539.292969	969.371887	29192.656250	24505.083984	83.391121
539.640137	898.830688	29256.371094	24612.033203	83.622215
539.987244	946.616638	29422.484375	24507.359375	82.739334
540.334351	951.167725	30228.017578	25401.638672	83.514694
540.681458	994.402588	32282.814453	27028.636719	83.207275
541.028442	978.473938	35184.101563	29745.607422	84.100578
541.375366	971.647400	38706.609375	32787.980469	84.315269
541.722290	960.269775	41466.816406	35306.980469	84.792984
542.069153	978.473938	43143.875000	36745.109375	84.824608
542.416016	1012.606750	43473.824219	36522.109375	83.628082
542.762756	989.851563	42204.085938	35650.585938	84.098938
543.109558	944.341125	40850.148438	33579.859375	81.781372
543.456299	894.279663	38672.476563	32776.601563	84.393448
543.802917	951.167725	37111.468750	30742.285156	82.386253
544.149536	962.545288	35668.789063	29759.261719	82.972733
544.496094	985.300537	33263.562500	28002.558594	83.701096
544.842651	1014.882263	31766.269531	26664.552734	83.409798
545.189148	912.483826	29968.609375	25428.945313	84.376221
545.535583	917.034912	29158.523438	24830.482422	84.674881
545.882019	960.269775	28459.939453	23958.958984	83.632599
546.228333	962.545288	27904.710938	23842.906250	84.923988
546.574707	967.096313	28334.785156	23970.335938	84.052551
546.920898	948.892151	28414.427734	23599.425781	82.468933
547.267212	1010.331238	28339.335938	23692.722656	82.997505
547.613342	1001.229126	27868.302734	23515.232422	83.797752
547.959473	1021.708862	27856.925781	23062.404297	82.133469
548.305664	914.759338	27094.626953	22397.951172	82.059975
548.651611	1033.086426	25761.171875	21783.560547	83.914604
548.997742	992.127075	24564.246094	20818.740234	84.110443
549.343689	946.616638	23660.865234	19608.162109	82.157883
549.689575	951.167725	22741.554688	19011.976563	82.884293
550.035522	896.555176	21897.335938	18297.462891	82.858383
550.381287	1001.229126	21128.210938	17739.960938	83.165634
550.727173	1017.157776	21094.078125	17507.857422	82.137596
551.072876	983.024963	20452.380859	17171.080078	83.146332
551.418640	987.576050	20293.093750	17027.722656	83.085815
551.764282	923.861450	20463.757813	16995.865234	82.252251
552.109863	967.096313	20309.023438	17075.507813	83.282349
552.455505	994.402588	20861.974609	17330.367188	82.224266
552.801025	1008.055725	20846.046875	17205.212891	81.647171
553.146545	969.371887	21210.128906	17874.216797	83.518837
553.491943	953.443237	21075.873047	17817.328125	83.806404
553.837341	992.127075	21464.988281	17476.000000	80.515724
554.182800	996.678101	21221.507813	17421.386719	81.210617
554.528015	1010.331238	20670.830078	17039.099609	81.527786
554.873352	964.820801	19983.623047	16904.843750	83.811920
555.218628	978.473938	20179.318359	16761.486328	82.199577
555.563721	935.239075	19756.072266	16431.535156	82.335861
555.908875	987.576050	19323.722656	16058.350586	82.191612
556.254028	930.687988	19057.486328	15705.644531	81.508911
556.599121	942.065613	18859.515625	15880.859375	83.375671
556.944031	903.381775	18745.740234	15605.521484	82.400200
557.289063	996.678101	18666.097656	15555.459961	82.395363
557.633972	960.269775	18704.781250	15314.254883	80.892532
557.978882	969.371887	18593.281250	15582.766602	82.918007
558.323792	994.402588	18352.076172	14934.243164	80.309380
558.668518	998.953613	17846.910156	14991.130859	83.049698
559.013306	1003.504700	18176.859375	15164.070313	82.456604
559.358032	987.576050	17931.103516	15032.090820	82.890144
559.702637	1014.882263	18049.431641	14947.896484	81.792686
560.047363	994.402588	18272.431641	14831.844727	80.086922
560.391846	1019.433350	18047.156250	14986.580078	82.025925
560.736450	964.820801	17926.552734	14891.007813	82.103569
561.080933	948.892151	18256.503906	15282.397461	82.816193
561.425354	939.790100	18092.666016	15088.978516	82.488731
561.769775	957.994263	18461.300781	15143.590820	81.045242
562.114136	1012.606750	18368.003906	15261.917969	82.103058
562.458496	1001.229126	18374.830078	15330.183594	82.475441
562.802673	951.167725	18456.750000	15227.785156	81.554657
563.146912	980.749451	18149.554688	14972.926758	81.497681
563.491150	946.616638	18003.919922	14977.477539	82.257210
563.835266	980.749451	18181.412109	14943.344727	81.174759
564.179443	948.892151	18167.757813	14768.129883	80.256378
564.523438	894.279663	18333.871094	14963.825195	80.675888
564.867493	973.922913	18072.185547	15127.662109	82.778816
565.211426	1003.504700	18170.033203	15234.611328	82.900314
565.555359	928.412476	18882.271484	15400.724609	80.608368
565.899231	987.576050	19184.916016	15901.339844	81.955734
566.243042	1008.055725	19794.755859	15839.900391	78.948647
566.586914	973.922913	20065.542969	16467.943359	81.156136
566.930603	998.953613	20318.125000	16961.732422	82.626625
567.274292	989.851563	20243.033203	16793.343750	82.082497
567.617981	978.473938	20281.716797	16752.384766	81.716385
567.961609	996.678101	20126.982422	16442.914063	80.742241
568.305237	951.167725	19726.490234	16392.851563	82.244576
568.648682	1021.708862	19574.029297	15605.521484	78.609100
568.992188	955.718750	19182.640625	15801.216797	81.448189
569.335632	969.371887	18859.515625	15696.542969	82.320023
569.679016	1026.259888	18820.832031	15557.735352	81.662407
570.022461	919.310425	18934.609375	15332.458984	80.005051
570.365662	939.790100	18818.556641	15416.653320	80.972389
570.708984	969.371887	18775.322266	15111.733398	79.424911
571.052185	942.065613	19280.488281	15430.306641	79.004845
571.395386	989.851563	19175.814453	15849.001953	81.706703
571.738525	1010.331238	19815.234375	16031.043945	79.876579
572.081604	1001.229126	20229.380859	16561.240234	80.923065
572.424683	978.473938	20372.738281	16613.578125	80.617157
572.767578	1039.912964	20791.433594	16900.292969	80.299538
573.110596	1062.668213	20513.820313	16731.904297	80.556854
573.453552	962.545288	20450.105469	16854.783203	81.550682
573.796387	1033.086426	20202.074219	16581.720703	81.113487
574.139282	948.892151	20154.287109	16483.873047	80.888626
574.481995	962.545288	19899.429688	15969.605469	79.247780
574.824768	1008.055725	19742.417969	16281.351563	81.525574
575.167480	992.127075	19840.265625	16106.136719	80.188339
575.510132	980.749451	19314.621094	16176.677734	82.884453
575.852722	894.279663	19410.193359	15901.339844	81.049522
576.195251	967.096313	19118.925781	15905.890625	82.299103
576.537842	1014.882263	19159.884766	15416.653320	79.370461
576.880188	948.892151	19023.353516	15341.561523	79.629868
577.222717	998.953613	18404.412109	15139.040039	81.239372
577.565063	1021.708862	17997.093750	14843.222656	81.420914
577.907410	1012.606750	17999.369141	14365.363281	78.606842
578.249756	953.443237	17130.121094	13794.207031	79.378250
578.591919	964.820801	16936.701172	14017.208008	81.721039
578.934204	955.718750	16602.199219	13439.225586	79.784760
579.276306	1005.780212	16279.076172	13243.531250	80.125145
579.618469	937.514587	15960.502930	13339.102539	82.550743
579.960571	928.412476	15962.778320	13225.327148	81.792038
580.302551	1014.882263	15250.540039	12806.630859	82.832481
580.644531	994.402588	15227.785156	12724.711914	82.414070
580.986511	1044.463989	15332.458984	12854.416992	82.656479
581.328369	901.106262	15218.683594	12378.833008	80.165283
581.670227	983.024963	15364.316406	12403.864258	79.414558
582.012024	985.300537	15104.907227	12463.027344	81.289284
582.353821	942.065613	14995.681641	12037.504883	78.950775
582.695496	1005.780212	15050.294922	12155.832031	79.390793
583.037231	1026.259888	14809.089844	12073.913086	80.155190
583.378845	957.994263	14868.252930	12296.914063	81.514801
583.720398	901.106262	14608.843750	12035.229492	81.225098
584.062012	948.892151	14415.423828	11800.850586	80.584656
584.403442	946.616638	14595.190430	11866.840820	80.010002
584.744934	1028.535400	14542.853516	12032.954102	81.427849
585.086365	953.443237	14447.281250	12010.199219	81.939293
585.427734	957.994263	14344.882813	12005.647461	82.525925
585.768982	948.892151	14183.321289	11862.290039	82.462173
586.110291	973.922913	14297.097656	11812.228516	81.349274
586.451599	896.555176	14103.677734	11789.473633	82.477600
586.792725	971.647400	14470.037109	11782.646484	80.091026
587.133850	1010.331238	13987.625977	11543.716797	81.167809
587.474915	971.647400	14376.740234	11905.524414	81.565094
587.815979	989.851563	14358.536133	11807.677734	80.919151
588.157043	939.790100	14549.679688	11798.575195	79.785988
588.497925	926.136963	14408.597656	11691.625977	79.848106
588.838867	1028.535400	14549.679688	11966.963867	80.898689
589.179749	1074.045776	14492.791992	11900.973633	80.685089
589.520569	955.718750	14941.069336	12372.006836	81.630333
589.861450	1023.984375	14979.753906	12221.822266	80.238052
590.202087	951.167725	14902.385742	12258.230469	81.047134
590.542847	964.820801	15148.141602	12590.457031	81.966965
590.883484	969.371887	14909.211914	12233.200195	80.803139
591.224121	930.687988	14781.783203	12096.668945	80.614418
591.564636	901.106262	14888.732422	12062.536133	79.795029
591.905151	962.545288	14827.293945	12083.015625	80.206795
592.245667	976.198425	14563.333008	11860.014648	80.103836
592.585999	1001.229126	14495.067383	12064.811523	81.989883
592.926453	987.576050	14278.892578	11691.625977	80.534157
593.266724	971.647400	14520.098633	11725.758789	79.375206
593.607056	1005.780212	14235.658203	11750.789063	81.217751
593.947388	1028.535400	14319.852539	11916.902344	81.920906
594.287476	1049.015137	14483.689453	11887.320313	80.674118
594.627686	989.851563	14633.874023	12253.679688	82.555038
594.967773	948.892151	15000.233398	12478.956055	82.056679
595.307861	1010.331238	15293.775391	12260.505859	78.763741
595.647888	946.616638	15063.947266	12376.557617	80.963898
595.987854	1001.229126	15334.734375	12524.466797	80.393715
596.327820	998.953613	15628.277344	12883.999023	81.241241
596.667725	853.320313	16201.708008	13100.172852	79.792435
597.007568	939.790100	16556.689453	13439.225586	80.037880
597.347351	1008.055725	17216.589844	14087.749023	80.696335
597.687073	1023.984375	17466.898438	14376.740234	81.206749
598.026794	962.545288	17407.734375	13921.636719	78.801720
598.366455	951.167725	16975.384766	13616.716797	79.040047
598.706116	937.514587	16424.708984	13384.613281	80.370262
599.045654	980.749451	15976.431641	12795.253906	78.786041
599.385193	989.851563	15025.263672	12299.189453	80.577171
599.724731	978.473938	14802.262695	11998.821289	79.720169
600.064087	912.483826	14770.405273	11721.208008	77.996719
600.403564	971.647400	14037.687500	11659.768555	81.800766
600.742920	921.585938	13980.799805	11368.501953	79.996513
601.082153	955.718750	13789.656250	11295.685547	80.567375
601.421387	926.136963	13996.728516	11136.398438	78.116295
601.760620	973.922913	13527.970703	11293.410156	82.200478
602.099854	946.616638	13871.575195	11077.235352	78.380280
602.438843	973.922913	13762.349609	11163.705078	79.679718
602.778015	937.514587	13960.320313	11586.952148	81.775291
603.117065	1042.188477	14617.945313	11766.717773	78.997650
603.456055	873.799988	14827.293945	12337.874023	82.159164
603.794983	983.024963	15059.396484	12303.741211	80.423538
604.133850	969.371887	15737.501953	12838.488281	80.369797
604.472778	996.678101	16229.014648	13111.550781	79.533913
604.811584	953.443237	16706.873047	13507.491211	79.690887
605.150330	948.892151	17339.468750	13794.207031	78.370125
605.489075	948.892151	17318.988281	13880.676758	78.996384
605.827698	948.892151	17328.091797	14039.962891	79.924973
606.166382	971.647400	16806.996094	13457.429688	78.847534
606.504883	985.300537	16376.922852	13061.489258	78.459496
606.843445	985.300537	16031.043945	12774.773438	78.357529
607.181946	876.075500	15546.358398	12333.322266	78.098335
607.520386	951.167725	14961.548828	11976.066406	78.690926
607.858826	942.065613	15004.784180	11834.983398	77.459541
608.197083	1012.606750	14456.383789	11566.472656	78.503723
608.535461	971.647400	14429.077148	11470.900391	78.018265
608.873718	989.851563	14265.240234	11618.809570	80.065140
609.211914	935.239075	14479.138672	12003.372070	81.720428
609.550171	1014.882263	14834.120117	12244.577148	81.261322
609.888245	971.647400	15468.990234	12497.160156	79.500862
610.226318	935.239075	15637.378906	12797.529297	80.684105
610.564392	1023.984375	15905.890625	12724.711914	78.623848
610.902344	1019.433350	15432.582031	12922.682617	82.586044
611.240295	955.718750	15268.744141	12663.273438	81.796509
611.578247	1017.157776	14916.039063	12296.914063	81.155853
611.916138	1008.055725	14595.190430	12089.841797	81.560875
612.253845	964.820801	14128.708984	11803.125977	82.333611
612.591675	953.443237	13939.840820	11657.493164	82.425087
612.929382	955.718750	13598.512695	11418.563477	82.757378
613.267090	989.851563	13236.704102	11111.368164	82.645859
613.604736	985.300537	13170.714844	10597.100586	78.879547
613.942261	955.718750	12959.090820	10556.140625	79.981041
614.279785	971.647400	12804.355469	10542.488281	80.884621
614.617310	955.718750	12508.538086	10221.639648	80.204849
614.954712	921.585938	12353.802734	10164.750977	80.851906
615.292175	973.922913	12262.781250	10214.812500	81.858498
615.629517	944.341125	12397.037109	10103.312500	79.972183
615.966797	1014.882263	12265.056641	10030.496094	80.137550
616.304138	1012.606750	12312.842773	9914.444336	78.775681
616.641296	967.096313	12255.955078	9898.515625	79.117111
616.978516	1014.882263	11978.341797	9814.321289	80.261520
617.315552	971.647400	12001.096680	9841.627930	80.420883
617.652771	923.861450	12342.424805	9996.363281	79.453972
617.989685	998.953613	12296.914063	10000.914063	79.677750
618.326721	994.402588	12331.046875	9928.097656	78.803703
618.663696	987.576050	12121.699219	10160.200195	82.382996
619.000549	1033.086426	12169.485352	9702.820313	77.850433
619.337463	1001.229126	12246.852539	9868.933594	78.854713
619.674194	1008.055725	11966.963867	9766.535156	79.921097
620.010986	964.820801	12244.577148	9452.513672	75.247139
620.347778	971.647400	12044.332031	9609.524414	78.010681
620.684387	942.065613	11561.920898	9743.780273	82.879799
621.020996	951.167725	11787.197266	9584.493164	79.672409
621.357605	910.208313	11871.391602	9559.462891	78.908035
621.694214	967.096313	11607.431641	9432.034180	79.555176
622.030579	935.239075	11571.023438	9577.666992	81.258018
622.367065	1014.882263	11691.625977	9534.432617	79.795403
622.703430	969.371887	11611.982422	9293.226563	78.212524
623.039795	944.341125	11659.768555	9334.186523	78.296883
623.376160	896.555176	11596.053711	9263.645508	78.200768
623.712402	935.239075	11530.063477	9598.146484	81.765465
624.048645	1008.055725	11493.655273	9331.911133	79.383682
624.384766	994.402588	11434.492188	9231.788086	78.901482
624.720886	939.790100	11370.777344	9272.747070	79.886559
625.057007	1019.433350	11778.095703	9434.309570	78.214890
625.392944	944.341125	11748.513672	9281.849609	77.169342
625.729004	923.861450	11625.635742	9593.595703	81.012123
626.064941	1023.984375	11935.106445	9604.973633	78.644424
626.400818	935.239075	12192.240234	9627.728516	77.218521
626.736633	932.963501	12531.292969	10162.475586	79.576218
627.072449	932.963501	12590.457031	10212.537109	79.601791
627.408264	1003.504700	12597.283203	10251.221680	79.764481
627.743896	957.994263	12758.844727	10335.415039	79.463943
628.079590	998.953613	12790.702148	10276.251953	78.676193
628.415161	992.127075	12765.671875	10330.864258	79.319672
628.750793	1014.882263	12262.781250	9996.363281	79.850304
629.086365	955.718750	12228.648438	9791.566406	78.381111
629.421753	942.065613	12071.637695	9541.258789	77.264366
629.757263	919.310425	11805.402344	9566.289063	79.431435
630.092651	960.269775	11928.280273	9341.012695	76.410782
630.427917	960.269775	11348.022461	9145.318359	78.795181
630.763184	976.198425	11402.634766	9234.063477	79.201225
631.098511	942.065613	11309.338867	8965.551758	77.392441
631.433716	1019.433350	11099.990234	8842.673828	77.607224
631.768799	992.127075	11061.306641	8908.664063	78.621468
632.103943	985.300537	10747.285156	8781.234375	79.860130
632.438965	1026.259888	10865.612305	8753.928711	78.538391
632.773987	985.300537	10799.622070	8549.131836	77.069321
633.109070	983.024963	10578.896484	8585.540039	79.226944
633.443848	994.402588	10308.109375	8526.375977	80.869774
633.778870	1021.708862	10647.162109	8567.335938	78.392433
634.113708	1005.780212	10603.926758	8626.499023	79.397820
634.448425	926.136963	10788.244141	8701.591797	78.841721
634.783264	994.402588	10917.949219	8738.000000	78.032562
635.117859	1003.504700	10549.314453	8692.489258	80.548271
635.452576	951.167725	10804.172852	8530.927734	76.928406
635.787170	953.443237	10628.958008	8401.222656	76.975540
636.121704	964.820801	10376.375000	8478.590820	79.835587
636.456177	957.994263	10394.579102	8216.905273	76.923073
636.790588	987.576050	10280.802734	8321.579102	78.917725
637.125122	978.473938	10116.965820	7975.700195	76.568718
637.459412	971.647400	10062.352539	8034.863770	77.697121
637.793762	957.994263	9825.699219	7964.322754	79.009491
638.128052	944.341125	9802.943359	7891.506348	78.422813
638.462280	957.994263	9695.994141	7777.729980	78.046875
638.796509	892.004150	9673.239258	7666.229492	77.144333
639.130615	985.300537	9468.442383	7775.454590	80.042923
639.464722	998.953613	9620.902344	7502.392090	75.428864
639.798767	955.718750	9500.299805	7552.453613	77.203728
640.132751	1035.361938	9240.889648	7516.045410	78.979492
640.466736	1033.086426	9331.911133	7461.432617	77.460930
640.800598	957.994263	9229.512695	7504.667480	79.147179
641.134521	980.749451	8958.725586	7354.483398	79.891617
641.468262	989.851563	9045.195313	7395.442383	79.519768
641.802063	978.473938	9195.379883	7354.483398	77.596230
642.135803	917.034912	8910.939453	7188.370117	78.451462
642.469421	942.065613	8888.184570	7233.880859	79.180984
642.803101	971.647400	8976.929688	7320.350586	79.306427
643.136658	971.647400	8669.734375	6990.399902	78.185043
643.470215	969.371887	8742.550781	6926.685547	76.639351
643.803711	969.371887	8712.968750	7013.155273	78.048782
644.137085	939.790100	8847.224609	7056.390137	77.352524
644.470581	964.820801	8726.622070	7008.604004	77.865730
644.803833	985.300537	8772.132813	6833.389160	75.102287
645.137207	1001.229126	8642.427734	6919.858887	77.456825
645.470459	985.300537	8672.009766	7092.798340	79.455307
645.803589	996.678101	8560.508789	6949.440430	78.700363
646.136780	1039.912964	8772.132813	6919.858887	76.044731
646.469849	1012.606750	8519.549805	7099.625000	81.085182
646.802979	998.953613	8656.081055	6767.398926	75.334328
647.135986	946.616638	8826.745117	6974.471191	76.494370
647.468994	969.371887	8799.438477	7060.940918	77.797157
647.801941	989.851563	8628.774414	6967.644531	78.254395
648.134766	939.790100	8703.867188	7133.757813	79.777260
648.467651	1019.433350	8990.583008	7176.992676	77.248077
648.800354	992.127075	8685.663086	6935.787598	77.255249
649.133179	937.514587	8667.458984	7076.869629	79.423019
649.465881	1060.392700	8790.336914	6963.093750	76.361496
649.798462	917.034912	8699.316406	7040.461426	78.684212
650.131104	976.198425	8533.203125	7019.981445	79.975906
650.463623	992.127075	8815.367188	7035.910156	77.254219
650.796143	973.922913	8724.346680	6894.828125	76.394600
651.128662	1008.055725	8681.112305	6956.267090	77.520752
651.461060	989.851563	8763.030273	6997.226563	77.283379
651.793396	907.932800	8986.031250	7058.665527	76.140846
652.125732	951.167725	8865.428711	6990.399902	76.308235
652.458008	976.198425	8790.336914	6928.960938	76.179382
652.790222	1005.780212	8724.346680	6915.307617	76.562500
653.122437	921.585938	8772.132813	7079.145020	78.434776
653.454529	914.759338	8774.408203	7035.910156	77.880714
653.786621	935.239075	8460.386719	6853.868652	78.651344
654.118713	957.994263	8533.203125	6803.807129	77.170319
654.450623	1017.157776	8544.581055	7004.053223	79.534462
654.782654	946.616638	8489.967773	6953.991699	79.638016
655.114502	989.851563	8453.559570	6753.745605	77.225609
655.446350	1026.259888	8235.109375	6753.745605	79.450760
655.778198	973.922913	8526.375977	6644.520508	75.082855
656.109863	1001.229126	8405.773438	6612.663574	75.783661
656.441650	985.300537	8310.202148	6767.398926	78.937561
656.773254	1023.984375	8273.793945	6610.387695	77.055862
657.104919	962.545288	8291.998047	6730.990723	78.702263
657.436462	998.953613	8255.589844	6501.163086	75.823143
657.767944	957.994263	8357.988281	6776.500977	78.628532
658.099548	983.024963	8451.284180	6801.531738	77.909813
658.430908	1058.117188	8535.478516	6897.103516	78.088860
658.762268	919.310425	8840.398438	7060.940918	77.535187
659.093628	1014.882263	9081.603516	7286.217773	77.743301
659.424927	944.341125	9284.125000	7538.800293	79.072296
659.756226	989.851563	9589.044922	7866.475586	79.968246
660.087341	953.443237	9805.218750	7905.159180	78.534706
660.418518	983.024963	9766.535156	7795.934082	77.564774
660.749573	937.514587	9650.483398	7809.587402	78.871773
661.080627	964.820801	9541.258789	7650.300781	77.951714
661.411621	971.647400	9347.839844	7431.851074	77.125778
661.742554	971.647400	9270.471680	7434.126465	77.872223
662.073547	994.402588	9024.715820	7054.114258	75.460464
662.404297	937.514587	8872.255859	7126.931152	78.004013
662.735229	1030.810913	8378.467773	6956.267090	80.644157
663.065979	953.443237	8606.019531	6760.572266	75.884628
663.396667	937.514587	8419.426758	6610.387695	75.821167
663.727417	1028.535400	8153.190918	6410.142090	75.534973
664.057922	998.953613	7993.904785	6441.999512	77.813919
664.388611	939.790100	8037.139648	6332.774414	75.985893
664.719116	992.127075	7868.750977	6312.294922	77.365982
665.049622	978.473938	7720.842285	6039.232422	75.059059
665.380005	953.443237	7732.219727	6287.264160	78.684120
665.710388	994.402588	7682.158203	6077.916016	76.012253
666.040771	946.616638	7764.077148	6011.925781	74.299057
666.371033	1001.229126	7679.882813	6146.181641	77.035774
666.701294	992.127075	7459.157227	6150.732910	79.767769
667.031555	967.096313	7568.382324	6153.008301	78.559120
667.361633	964.820801	7711.740234	6084.742676	75.885330
667.691772	1019.433350	7561.555664	6139.354980	78.260872
668.021790	980.749451	7399.993652	6014.201660	78.411911
668.351807	932.963501	7816.414063	5948.211426	72.859505
668.681763	962.545288	7463.708008	6143.906250	79.698990
669.011719	951.167725	7563.831055	5973.242188	75.946320
669.341614	942.065613	7561.555664	6123.426270	78.274315
669.671387	960.269775	7700.362305	6048.334473	75.489532
670.001221	930.687988	7638.923340	6139.354980	77.645859
670.330933	944.341125	7645.750000	6250.855469	79.185059
670.660583	946.616638	7643.474609	5857.190430	73.326530
670.990173	944.341125	7677.607422	5984.619629	74.856369
671.319763	994.402588	7420.473145	6002.823730	77.939095
671.649292	960.269775	7495.565430	5861.741699	75.000000
671.978821	960.269775	7327.176758	5930.007324	78.055756
672.308289	973.922913	7313.523926	5829.884277	76.597275
672.637695	980.749451	7390.891602	5811.680176	75.363861
672.966980	1026.259888	7281.666504	5875.394531	77.519096
673.296326	1012.606750	7390.891602	5747.965332	74.241882
673.625610	967.096313	7277.115723	5898.149902	78.146408
673.954773	994.402588	7161.063965	5829.884277	78.413284
674.283936	1042.188477	7283.941895	5757.067871	75.537743
674.613037	971.647400	6972.195801	5672.873535	78.346611
674.942078	1014.882263	7085.971680	5593.229980	75.412292
675.271118	926.136963	7136.033203	5561.373047	74.642731
675.600098	1021.708862	7060.940918	5579.577148	75.470993
675.928955	957.994263	7045.012207	5600.056641	76.261681
676.257813	960.269775	7099.625000	5427.117188	72.757599
676.586670	948.892151	7008.604004	5600.056641	76.755539
676.915466	1008.055725	7124.655762	5606.883301	75.186012
677.244141	992.127075	7056.390137	5515.862305	74.596619
677.572876	962.545288	7017.706055	5638.740723	77.226608
677.901489	964.820801	6940.338379	5636.464844	78.179741
678.230042	1028.535400	6935.787598	5595.505859	77.311256
678.558594	1019.433350	7029.083984	5590.954590	76.069672
678.887085	937.514587	7042.736816	5629.638672	76.854271
679.215515	942.065613	6994.951172	5677.424316	78.233078
679.543945	992.127075	7279.391113	5695.628418	74.809990
679.872253	1019.433350	7113.277832	5670.597656	76.325607
680.200562	1008.055725	7343.105469	5800.302734	75.646561
680.528809	962.545288	7418.197754	5973.242188	77.617203
680.856995	930.687988	7618.443848	6023.303711	76.148346
681.185120	939.790100	7864.199707	6218.998535	76.240555
681.513306	957.994263	7850.546875	6018.752441	73.423569
681.841309	1046.739624	7707.188965	6048.334473	75.093956
682.169373	919.310425	7607.065918	5989.170898	75.808098
682.497314	1019.433350	7632.096680	5982.344238	75.051628
682.825134	887.453125	7557.004395	5993.721680	76.560898
683.153076	987.576050	7657.127441	6064.262695	76.117363
683.480896	978.473938	7379.514160	5907.251953	76.999641
683.808655	1008.055725	7454.605957	5791.200684	74.196968
684.136414	1028.535400	7099.625000	5634.189453	75.862068
684.464050	987.576050	7051.838867	5559.097168	75.384613
684.791626	962.545288	6812.909180	5597.781250	79.229874
685.119263	1001.229126	6810.633789	5584.127930	78.887581
685.446838	1085.423462	6724.164063	5242.799805	73.728813
685.774292	944.341125	6646.796387	5363.402344	77.494011
686.101685	935.239075	6769.674316	5342.922852	75.546021
686.429077	942.065613	6585.357422	5231.422363	76.008064
686.756348	907.932800	6553.500000	5283.759277	77.509071
687.083679	921.585938	6553.500000	5135.850586	74.828285
687.410950	989.851563	6546.673340	5213.218262	76.003281
687.738159	953.443237	6478.407715	5245.075684	77.677101
688.065308	964.820801	6696.857910	5317.892090	75.942833
688.392395	980.749451	6692.306641	5381.606934	77.051796
688.719421	978.473938	6592.183594	5404.361816	78.840698
689.046448	1003.504700	6635.418457	5427.117188	78.545456
689.373413	973.922913	6496.611816	5308.790039	78.491966
689.700317	939.790100	6512.540527	5290.585938	78.072685
690.027100	1028.535400	6726.439453	5131.299316	72.004784
690.353943	932.963501	6426.070801	5249.626465	78.583267
690.680725	953.443237	6305.468262	4962.910645	74.914963
691.007446	1012.606750	6284.988281	4869.614746	73.154953
691.334106	1026.259888	6002.823730	4842.308105	76.680382
691.660645	983.024963	6107.498047	4817.277344	74.822372
691.987244	1026.259888	6061.987305	4906.022949	77.044739
692.313721	1008.055725	5964.140137	4673.919922	73.966942
692.640259	996.678101	5895.874512	4769.491699	77.008827
692.966675	1074.045776	5838.986328	4596.552246	73.925507
693.293030	971.647400	5916.354004	4728.532227	75.977913
693.619324	1044.463989	5791.200684	4598.827637	74.880150
693.945618	969.371887	5925.456055	4605.654297	73.370071
694.271851	939.790100	5838.986328	4464.571777	71.946121
694.598083	973.922913	5609.158691	4573.796875	77.663231
694.924194	932.963501	5775.271973	4496.429199	73.590225
695.250244	967.096313	5593.229980	4505.531250	76.487953
695.576294	1003.504700	5732.037109	4617.031738	76.419632
695.902283	964.820801	5584.127930	4555.592773	77.733994
696.228210	928.412476	5625.087402	4576.072266	77.664726
696.554138	996.678101	5768.445313	4592.000977	75.345734
696.879944	939.790100	5852.639648	4644.337891	75.405273
697.205750	969.371887	5877.670410	4619.307129	74.362541
697.531433	951.167725	5952.762207	4696.674805	74.886253
697.857178	921.585938	6021.027832	4871.890137	77.465424
698.182739	987.576050	6155.283691	4906.022949	75.825630
698.508423	944.341125	6628.592285	5015.248047	71.617302
698.833984	971.647400	6787.878418	5192.738281	72.574333
699.159485	971.647400	6833.389160	5556.821777	78.222046
699.484924	973.922913	7113.277832	5602.332031	75.389175
699.810303	921.585938	7393.166992	5761.618652	74.789032
700.135681	939.790100	7190.645508	5750.241211	76.956688
700.460999	889.728638	7129.206543	5581.852539	75.200584
700.786255	973.922913	6958.542480	5554.546387	76.539925
701.111450	866.973450	6787.878418	5297.412598	74.827057
701.436646	969.371887	6494.336426	5220.044922	76.935753
701.761719	1060.392700	6360.080566	4924.227051	72.906830
702.086792	973.922913	6362.355957	4794.522461	70.903725
702.411865	987.576050	5970.966797	4801.349121	76.529678
702.736816	1001.229126	5791.200684	4573.796875	74.584320
703.061646	937.514587	5763.894043	4566.970215	75.200378
703.386536	1010.331238	5656.944824	4384.928711	72.624878
703.711365	1033.086426	5326.994141	4339.417969	77.000526
704.036194	1044.463989	5306.514648	4193.784668	73.892143
704.360901	1019.433350	5342.922852	4289.356934	75.631592
704.685547	1023.984375	5199.564941	4218.815430	76.512260
705.010132	994.402588	5279.208496	4070.906738	71.800316
705.334717	964.820801	5067.584961	4125.519043	77.038261
705.659302	973.922913	5163.156738	4023.120850	72.786530
705.983765	973.922913	4965.186523	4084.559814	77.936142
706.308228	980.749451	5119.921875	3966.232666	72.127541
706.632568	967.096313	5156.330078	4041.324951	73.384026
706.956909	953.443237	5042.554199	4075.457764	76.349472
707.281189	951.167725	5076.687012	3954.855225	72.807495
707.605408	939.790100	5067.584961	4186.958496	78.665932
707.929626	967.096313	4874.165527	3998.090088	77.577164
708.253784	892.004150	5144.952637	4057.253662	74.424828
708.577820	989.851563	5008.421387	4027.671875	75.594566
708.901855	964.820801	4999.319336	3982.161377	74.788490
709.225830	960.269775	5076.687012	4057.253662	75.234940
709.549805	1003.504700	5067.584961	4139.172363	77.155655
709.873718	971.647400	4937.880371	4134.621094	79.747551
710.197510	1005.780212	5188.187500	4070.906738	73.286179
710.521362	962.545288	5069.860352	4116.416992	76.786697
710.845093	1001.229126	5190.462891	4061.804688	73.058121
711.168701	989.851563	5320.167480	4325.765137	77.036263
711.492432	953.443237	5349.749512	4275.703613	75.569359
711.816040	1021.708862	5370.229004	4323.489746	75.928841
712.139587	923.861450	5486.280762	4337.142578	74.812965
712.463074	994.402588	5342.922852	4371.275391	77.655670
712.786499	946.616638	5361.126953	4312.111816	76.237114
713.109924	944.341125	5317.892090	4316.663086	77.107185
713.433350	948.892151	5358.851563	4303.009766	76.057793
713.756592	1055.841675	5122.197266	4209.713379	77.560158
714.079834	955.718750	5169.983398	4207.437988	77.159828
714.403015	1014.882263	5158.605469	4061.804688	73.531029
714.726196	996.678101	5188.187500	4186.958496	76.112923
715.049255	1012.606750	4992.492676	4066.355713	76.729561
715.372375	939.790100	4997.043457	4191.509277	80.145828
715.695435	960.269775	5049.380859	4059.529053	75.792984
716.018311	967.096313	5081.237793	3979.885986	73.230087
716.341248	923.861450	5044.829590	3950.304199	73.440094
716.664063	1026.259888	4994.768066	4002.641113	75.000000
716.987000	939.790100	5051.656250	4130.070313	77.587158
717.309692	989.851563	4906.022949	4020.845215	77.396858
717.632385	951.167725	4919.675781	3886.589600	73.967896
717.955078	948.892151	4667.093262	3868.385254	78.518967
718.277649	1005.780212	4710.328125	3877.487549	77.518425
718.600220	957.994263	4819.553223	3725.027588	71.655853
718.922791	1008.055725	4573.796875	3668.139648	74.601151
719.245300	985.300537	4587.449707	3672.690674	74.605186
719.567688	996.678101	4475.949219	3631.731201	75.735786
719.890015	976.198425	4548.766113	3554.363525	72.165604
720.212341	967.096313	4423.612305	3465.618164	72.284401
720.534607	937.514587	4428.163574	3463.342773	72.359848
720.856873	937.514587	4296.183105	3476.995850	75.609764
721.179016	937.514587	4232.468750	3335.913574	72.790054
721.501160	894.279663	4118.692871	3356.393066	76.358498
721.823242	953.443237	4184.682617	3329.086914	73.521126
722.145264	1064.943726	4068.631104	3313.158203	74.848480
722.467224	1003.504700	4109.590332	3342.739990	75.311356
722.789185	951.167725	4089.110840	3178.902588	70.993477
723.111023	951.167725	4102.764160	3151.596191	69.819489
723.432861	960.269775	4100.488281	3329.086914	75.434784
723.754578	948.892151	4089.110840	3274.474365	74.057968
724.076294	967.096313	3979.885986	3299.505127	77.416916
724.397949	946.616638	3925.273438	3153.871826	74.102364
724.719666	976.198425	3941.202148	3392.801514	81.504219
725.041260	985.300537	4109.590332	3167.524902	69.847054
725.362732	973.922913	3948.028564	3238.066162	76.128540
725.684265	914.759338	3988.988037	3308.607178	77.868240
726.005676	930.687988	4048.151611	3131.116699	70.583939
726.327087	928.412476	3988.988037	3272.198975	76.579926
726.648438	885.177612	4020.845215	3370.046387	79.245285
726.969666	976.198425	4200.611328	3351.842041	73.676781
727.290894	948.892151	4182.407227	3269.923340	71.780434
727.612061	1001.229126	4139.172363	3317.709229	73.821602
727.933228	964.820801	4277.979004	3281.301025	69.917587
728.254395	951.167725	4284.805664	3447.414063	74.880547
728.575378	987.576050	4248.397461	3397.352539	73.900902
728.896301	953.443237	4182.407227	3415.556641	76.250877
729.217285	1058.117188	4293.907715	3392.801514	72.151901
729.538147	1042.188477	4332.591797	3399.628174	71.645920
729.858948	992.127075	4237.019531	3408.730225	74.474052
730.179810	980.749451	4396.306152	3399.628174	70.819458
730.500549	957.994263	4268.876953	3486.097900	76.357384
730.821228	996.678101	4232.468750	3413.281250	74.683540
731.141846	998.953613	4293.907715	3436.036377	73.964088
731.462402	967.096313	4330.315918	3420.107666	72.936394
731.782898	1005.780212	4480.500488	3472.444824	70.988869
732.103455	942.065613	4555.592773	3474.720215	70.088158
732.423889	971.647400	4530.562012	3415.556641	68.670074
732.744263	983.024963	4359.897949	3340.464600	69.811325
733.064636	973.922913	4364.448730	3431.485352	72.483223
733.384888	901.106262	4473.673828	3449.689453	71.337578
733.705200	998.953613	4343.969238	3486.097900	74.353745
734.025330	978.473938	4353.071289	3451.965088	73.297371
734.345520	1033.086426	4439.541016	3527.057129	73.213089
734.665527	969.371887	4341.693848	3424.658691	72.807014
734.985596	932.963501	4218.815430	3388.250488	74.723000
735.305542	998.953613	4200.611328	3370.046387	74.058281
735.625549	994.402588	4000.365479	3274.474365	75.851631
735.945435	1010.331238	4114.141602	3224.413086	71.334312
736.265259	896.555176	4057.253662	3228.964111	73.794098
736.585083	905.657288	4036.773926	3183.453613	72.747093
736.904785	987.576050	3836.528076	3208.484375	77.955269
737.224426	962.545288	3932.099854	3294.954102	78.544052
737.544128	969.371887	3936.650879	3090.157227	71.472397
737.863708	978.473938	3891.140625	3213.035400	76.718750
738.183289	939.790100	3922.997803	3083.330566	71.853546
738.502808	951.167725	3984.437012	3169.800537	73.143288
738.822205	1005.780212	3954.855225	3176.626953	73.611107
739.141541	946.616638	3954.855225	3265.372314	77.080177
739.460938	1049.015137	3970.783691	3274.474365	76.168228
739.780212	994.402588	4123.243652	3224.413086	71.272728
740.099426	932.963501	3934.375488	3247.168213	77.103859
740.418640	987.576050	3979.885986	3310.882813	77.642578
740.737793	935.239075	4070.906738	3256.270264	74.020317
741.056885	957.994263	4050.427002	3176.626953	71.743935
741.375977	983.024963	4054.978027	3213.035400	72.592598
741.694946	953.443237	3888.864990	3156.147461	75.038757
742.013855	926.136963	3872.936523	3078.779541	73.050186
742.332703	976.198425	3877.487549	3140.218750	74.588234
742.651550	969.371887	3893.416016	2983.207764	68.871597
742.970398	878.351013	3672.690674	3035.544678	77.198692
743.289124	939.790100	3638.557861	2978.656738	75.548058
743.607788	971.647400	3800.119629	3026.442627	72.646820
743.926453	978.473938	3770.538086	2987.758789	71.964134
744.245056	994.402588	3704.547852	2980.932129	73.299744
744.563599	955.718750	3661.312988	2853.503174	70.142982
744.882141	944.341125	3718.200928	2889.911377	70.139458
745.200500	942.065613	3574.843262	2819.370361	71.305099
745.518860	983.024963	3659.037354	2935.421875	72.959190
745.837219	939.790100	3583.945313	2912.666504	74.612732
746.155518	951.167725	3542.985840	2864.880615	73.836700
746.473755	946.616638	3486.097900	2796.614990	72.849457
746.791992	998.953613	3681.792725	2869.431641	69.720100
747.110107	955.718750	3461.067139	2887.635986	77.111717
747.428162	985.300537	3618.078125	2814.819336	69.490067
747.746216	983.024963	3465.618164	2814.819336	73.785522
748.064148	1010.331238	3536.159424	2814.819336	71.441444
748.382080	1028.535400	3433.760986	2798.890625	73.604538
748.700073	987.576050	3383.699463	2701.043213	71.509964
749.017822	1014.882263	3531.608398	2794.339600	70.705246
749.335632	985.300537	3461.067139	2864.880615	75.919113
749.653320	1021.708862	3540.710449	2976.381104	77.597107
749.971008	921.585938	3583.945313	2867.156250	73.076920
750.288696	994.402588	3504.302002	2814.819336	72.529472
750.606262	921.585938	3561.189941	2946.799316	76.724136
750.923828	935.239075	3579.394287	2828.472412	71.600693
751.241272	946.616638	3545.261475	2899.013428	75.131340
751.558716	957.994263	3522.506104	2942.248291	77.373558
751.876038	983.024963	3508.853027	2782.961914	71.261261
752.193481	1001.229126	3497.475586	2737.451416	69.553314
752.510681	889.728638	3467.893799	2805.717041	74.315971
752.827942	957.994263	3431.485352	2794.339600	74.241028
753.145081	939.790100	3440.587402	2830.747803	75.614197
753.462219	955.718750	3495.199951	2862.605225	75.089607
753.779297	980.749451	3385.974854	2789.788574	75.212875
754.096375	951.167725	3404.179199	2780.686523	74.582565
754.413330	1012.606750	3431.485352	2769.308838	72.624649
754.730286	989.851563	3360.944336	2833.023438	77.735123
755.047119	1003.504700	3379.148438	2698.767578	71.360146
755.363892	1008.055725	3349.566650	2726.073975	73.372208
755.680725	919.310425	3370.046387	2742.002686	74.373268
755.997498	985.300537	3317.709229	2764.757813	76.292686
756.314148	978.473938	3308.607178	2680.563477	73.046875
756.630737	976.198425	3390.525879	2714.696289	72.007538
756.947327	998.953613	3356.393066	2660.083740	70.463318
757.263855	980.749451	3194.831299	2625.950928	74.306259
757.580261	1010.331238	3322.260254	2764.757813	75.885834
757.896729	996.678101	3324.535889	2732.900391	74.584549
758.213074	971.647400	3502.026611	2687.390137	67.805756
758.529419	1017.157776	3440.587402	2685.114502	68.826294
758.845642	971.647400	3436.036377	2739.727051	71.745155
759.161865	1046.739624	3547.536865	2730.625000	67.333939
759.478149	1010.331238	3445.138428	2830.747803	74.766350
759.794189	957.994263	3542.985840	2767.033203	69.982391
760.110229	987.576050	3529.332764	2776.135498	70.367058
760.426270	960.269775	3504.302002	2871.707275	75.134171
760.742249	978.473938	3413.281250	2764.757813	73.364487
761.058105	992.127075	3556.638916	2869.431641	73.203194
761.374023	971.647400	3568.016602	2776.135498	69.500443
761.689819	976.198425	3524.781738	2728.349365	68.749992
762.005554	1037.637451	3558.914551	2880.809326	73.104691
762.321289	932.963501	3561.189941	2855.778564	73.160172
762.636902	967.096313	3549.812500	2892.187012	74.537445
762.952515	1021.708862	3634.006836	2871.707275	70.818817
763.268127	937.514587	3686.343750	2846.676514	69.453636
763.583618	983.024963	3761.435791	3067.402100	75.020477
763.899048	992.127075	4152.825684	3317.709229	73.578102
764.214478	1019.433350	4612.480469	3693.170166	74.414185
764.529785	919.310425	4778.593750	3781.915527	74.174522
764.845093	964.820801	5006.145996	3825.150391	70.777023
765.160400	978.473938	4874.165527	3847.905762	73.656548
765.475586	964.820801	4874.165527	3861.558838	74.097794
765.790771	980.749451	4612.480469	3645.384277	73.370926
766.105835	973.922913	4434.990234	3367.770752	69.165016
766.420837	951.167725	4116.416992	3338.188965	75.413376
766.735840	935.239075	4082.284424	3294.954102	74.981918
767.050842	969.371887	3822.875000	3201.657715	78.229660
767.365662	1023.984375	3852.456787	3108.361328	73.692673
767.680542	992.127075	3643.108887	2899.013428	71.931320
767.995300	926.136963	3483.822266	2917.217773	77.846985
768.309998	969.371887	3520.230713	2896.738037	75.557541
768.624817	987.576050	3467.893799	2794.339600	72.844032
768.939392	951.167725	3506.577637	2810.268311	72.751564
769.254028	996.678101	3272.198975	2703.318604	74.999992
769.568481	969.371887	3281.301025	2782.961914	78.444878
769.882935	921.585938	3360.944336	2714.696289	73.507462
770.197388	992.127075	3274.474365	2662.359375	73.180466
770.511841	871.524475	3183.453613	2612.297852	75.295273
770.826172	923.861450	3183.453613	2596.369141	74.018120
771.140442	980.749451	3188.004639	2473.491211	67.628868
771.454651	989.851563	3185.729004	2605.471436	73.575142
771.768860	937.514587	3035.544678	2673.737061	82.754890
772.082886	992.127075	3172.075928	2493.970703	68.893532
772.397034	994.402588	3046.922363	2468.940186	71.840363
772.711060	935.239075	2994.585449	2496.246338	75.801102
773.025024	996.678101	3028.718262	2507.624023	74.356102
773.338928	919.310425	3062.851074	2584.991699	77.707008
773.652771	973.922913	3081.055176	2484.868652	71.706261
773.966614	1001.229126	2942.248291	2484.868652	76.436111
774.280457	971.647400	2962.728027	2519.001465	77.714287
774.594116	976.198425	2914.942139	2453.011475	76.173714
774.907776	978.473938	2928.595215	2405.225586	73.162201
775.221375	889.728638	2917.217773	2373.368164	73.176201
775.534912	960.269775	2965.003662	2307.378174	67.196373
775.848450	939.790100	2962.728027	2423.429688	73.340836
776.161926	1023.984375	2889.911377	2373.368164	72.317070
776.475342	939.790100	2871.707275	2528.103516	82.214363
776.788696	998.953613	2896.738037	2343.786377	70.863304
777.101990	937.514587	2860.329590	2409.776611	76.568054
777.415283	989.851563	2798.890625	2284.622803	71.572319
777.728516	926.136963	2812.543701	2364.266113	76.236427
778.041626	951.167725	2883.084961	2352.888428	72.555939
778.354736	910.208313	2794.339600	2375.643799	77.777779
778.667725	914.759338	2807.992676	2302.827148	73.317314
778.980774	971.647400	2773.859863	2236.836914	70.202019
779.293640	994.402588	2767.033203	2220.908203	69.191269
779.606567	967.096313	2803.441650	2357.439453	75.712509
779.919434	935.239075	2771.584229	2255.041016	71.871124
780.232239	914.759338	2714.696289	2327.857666	78.508217
780.544983	923.861450	2835.298828	2268.694336	70.357155
780.857666	953.443237	2817.094727	2286.898438	71.550674
781.170227	932.963501	2653.257324	2243.663574	76.190475
781.482849	901.106262	2771.584229	2309.653564	75.304138
781.795410	964.820801	2807.992676	2198.153076	66.913582
782.107910	957.994263	2676.012451	2282.347412	77.086098
782.420288	914.759338	2628.226563	2225.459229	76.494019
782.732666	1005.780212	2694.216553	2261.867676	74.393532
783.044983	1026.259888	2612.297852	2159.469238	71.449066
783.357300	1017.157776	2605.471436	2143.540527	70.916901
783.669495	1083.147949	2678.288086	2207.255127	70.470749
783.981689	942.065613	2707.869873	2082.101563	64.561852
784.293762	1001.229126	2632.777588	2093.479248	66.945610
784.605835	1046.739624	2569.062988	2186.775391	74.887886
784.917908	1035.361938	2666.910400	2170.846924	69.595543
785.229858	978.473938	2532.654541	2129.887451	74.084923
785.541748	935.239075	2459.837891	2102.581299	76.567177
785.853577	942.065613	2582.716064	2107.132324	71.012489
786.165405	1030.810913	2523.552490	2093.479248	71.189034
786.477173	1021.708862	2537.205811	2075.274902	69.519508
786.788879	989.851563	2521.277100	2091.203613	71.916786
787.100525	971.647400	2530.379150	2070.723877	70.510941
787.412109	928.412476	2478.042236	1979.703125	67.841408
787.723694	898.830688	2450.735840	2120.785400	78.739006
788.035156	948.892151	2478.042236	2093.479248	74.851196
788.346558	951.167725	2612.297852	2150.367188	72.191780
788.658081	960.269775	2807.992676	2154.918213	64.655174
788.969360	944.341125	2685.114502	2104.856689	66.666664
789.280640	1014.882263	2707.869873	2259.592041	73.521492
789.591919	946.616638	2748.829102	2259.592041	72.853531
789.903076	953.443237	2814.819336	2250.489990	69.682144
790.214172	973.922913	2753.380127	2234.561523	70.843994
790.525269	964.820801	2662.359375	2164.020264	70.643433
790.836365	973.922913	2682.839111	2173.122314	70.173096
791.147339	948.892151	2557.685303	2209.530762	78.359276
791.458191	1014.882263	2537.205811	2152.642578	74.738403
791.769104	994.402588	2516.726074	2009.284912	66.666664
792.079895	1026.259888	2455.286865	2038.866699	70.859879
792.390686	1035.361938	2380.194824	2093.479248	78.680206
792.701416	1028.535400	2334.684326	2054.795166	78.571419
793.012085	939.790100	2402.949951	1963.774414	69.984444
793.322693	937.514587	2443.909424	2007.009399	70.996986
793.633240	967.096313	2453.011475	1959.223389	66.768753
793.943787	980.749451	2400.674561	1952.396851	68.429482
794.254272	953.443237	2357.439453	1902.335449	67.585098
794.564636	1012.606750	2375.643799	1986.529663	71.452415
794.875000	939.790100	2357.439453	1931.917114	69.983948
795.185303	1026.259888	2414.327637	1988.805176	69.344261
795.495544	1037.637451	2325.582275	1966.049927	72.084801
795.805786	985.300537	2466.664551	1936.468262	64.208916
796.115906	998.953613	2418.878662	1927.366089	65.384613
796.426025	928.412476	2327.857666	1970.601074	74.471558
796.736023	987.576050	2421.154053	2079.825928	76.190475
797.045959	935.239075	2434.807373	2022.937988	72.534134
797.355896	985.300537	2596.369141	2104.856689	69.491524
797.665833	944.341125	2437.082764	1977.427612	69.207314
797.975708	967.096313	2514.450439	2120.785400	74.558830
798.285461	1003.504700	2491.695313	1981.978638	65.749229
798.595154	921.585938	2503.072998	2047.968750	71.223015
798.904846	955.718750	2487.144287	1997.907227	68.053490
799.214478	1026.259888	2352.888428	1950.121338	69.639801
799.524109	953.443237	2471.215576	1936.468262	64.767624
799.833557	887.453125	2414.327637	1947.845825	69.448586
800.143005	998.953613	2396.123291	1913.713013	65.472321
800.452393	992.127075	2368.817139	1954.672363	69.917358
800.761780	976.198425	2359.715088	1956.947876	70.888161
801.071106	1023.984375	2366.541748	1922.815063	66.949142
801.380371	923.861450	2261.867676	1918.264038	74.319725
801.689575	957.994263	2230.010498	2041.142212	85.152054
801.998718	951.167725	2243.663574	1952.396851	77.464783
802.307800	946.616638	2323.306641	1936.468262	71.900841
802.616882	987.576050	2261.867676	1884.131226	70.357140
802.925903	1021.708862	2250.489990	1900.059814	71.481483
803.234863	932.963501	2141.265137	1872.753662	77.777779
803.543701	1023.984375	2268.694336	1847.722900	66.179153
803.852539	955.718750	2159.469238	1884.131226	77.126656
804.161316	967.096313	2141.265137	1877.304688	77.519379
804.470032	957.994263	2202.704102	1884.131226	74.405853
804.778809	1008.055725	2280.071777	1722.569214	56.171734
805.087341	923.861450	2175.397949	1893.233276	77.454536
805.395935	1012.606750	2195.877686	1838.620850	69.807686
805.704468	964.820801	2173.122314	1870.478149	74.952927
806.012939	964.820801	2293.724854	1859.100464	67.294525
806.321350	962.545288	2261.867676	1847.722900	68.126099
806.629761	964.820801	2273.245361	1781.732788	62.434780
806.938049	889.728638	2341.510986	1906.886475	70.062698
807.246277	1014.882263	2227.734863	1893.233276	72.420265
807.554504	992.127075	2204.979736	1761.253052	63.414627
807.862671	971.647400	2234.561523	1827.243164	67.747742
808.170715	894.279663	2314.204590	1868.202637	68.589752
808.478821	944.341125	2113.958740	1941.019287	85.214012
808.786804	1008.055725	2157.193604	1897.784302	77.425743
809.094727	989.851563	2184.500000	1963.774414	81.523804
809.402649	1003.504700	2259.592041	1847.722900	67.210152
809.710510	1037.637451	2095.754639	1843.171875	76.129036
810.018311	983.024963	2095.754639	1827.243164	75.869118
810.326050	1008.055725	2027.489014	1761.253052	73.883926
810.633667	1012.606750	2143.540527	1802.212524	69.818916
810.941345	1021.708862	2111.683350	1886.406738	79.331940
811.248901	960.269775	2029.764526	1781.732788	76.808510
811.556396	960.269775	2034.315552	1763.528564	74.788132
811.863892	935.239075	2054.795166	1802.212524	77.439034
812.171326	944.341125	2043.417725	1745.324463	72.877838
812.478699	967.096313	2036.591064	1765.804199	74.680862
812.786011	953.443237	2036.591064	1729.395752	71.638657
813.093262	921.585938	2027.489014	1692.987427	69.753082
813.400391	921.585938	2123.060791	1686.160889	63.636368
813.707642	939.790100	2018.386963	1642.926025	65.189873
814.014709	944.341125	2059.346436	1843.171875	80.612236
814.321716	1026.259888	2077.550537	1729.395752	66.883110
814.628723	955.718750	2154.918213	1667.956787	59.392792
814.935669	1037.637451	2011.560425	1647.477051	62.616821
815.242554	1010.331238	1970.601074	1624.721802	63.981033
815.549438	978.473938	2041.142212	1711.191650	68.950752
815.856201	948.892151	1991.080688	1708.916138	72.925774
816.162964	1012.606750	2022.937988	1745.324463	72.522522
816.469604	1001.229126	2084.376953	1743.048950	68.487404
816.776184	878.351013	2020.662476	1804.488037	81.075699
817.082825	964.820801	2127.612061	1658.854614	59.686878
817.389343	955.718750	2041.142212	1713.467163	69.811317
817.695801	866.973450	2059.346436	1681.609863	68.320602
818.002197	1037.637451	2075.274902	1631.548462	57.236851
818.308533	1033.086426	2070.723877	1697.538574	64.035095
818.614868	1023.984375	2166.295898	1745.324463	63.147404
818.921143	935.239075	2116.234375	1815.865601	74.566467
819.227356	960.269775	2061.621826	1811.314575	77.272728
819.533447	919.310425	2054.795166	1672.507813	66.332672
819.839539	948.892151	2152.642578	1806.763550	71.266548
820.145569	917.034912	2164.020264	1820.416626	72.445251
820.451538	969.371887	2318.755615	1906.886475	69.477242
820.757568	1026.259888	2496.246338	2072.999512	71.207436
821.063416	957.994263	2650.981689	2136.714111	69.623665
821.369263	969.371887	2721.522949	2166.295898	68.311691
821.675049	946.616638	2860.329590	2193.602051	65.160522
821.980713	946.616638	3001.411865	2343.786377	67.995567
822.286438	894.279663	3342.739990	2612.297852	70.167282
822.592102	951.167725	4150.549805	3297.229736	73.328598
822.897583	971.647400	6237.202637	4601.103027	68.928261
823.203125	976.198425	8794.887695	6451.101563	70.023285
823.508545	946.616638	10378.650391	7682.158203	71.411331
823.813965	894.279663	10824.652344	7896.057129	70.508705
824.119263	996.678101	9841.627930	7240.707031	70.594276
824.424622	976.198425	8301.099609	6105.222168	70.021744
824.729858	985.300537	6979.022461	5254.177734	71.222473
825.035095	989.851563	6162.110352	4623.858398	70.259567
825.340149	937.514587	5295.136719	4098.212891	72.532639
825.645264	994.402588	4894.645020	3770.538086	71.178535
825.950256	928.412476	4541.939453	3583.945313	73.488670
826.255310	980.749451	4271.152344	3208.484375	67.704018
826.560242	1055.841675	4016.294189	3115.187988	69.561867
826.865112	973.922913	3743.231689	2835.298828	67.214462
827.169922	1026.259888	3681.792725	2899.013428	70.522705
827.474670	960.269775	3734.129639	2987.758789	73.092697
827.779419	983.024963	4289.356934	3251.719238	68.616653
828.084045	987.576050	4744.460938	3649.935303	70.866142
828.388672	969.371887	5288.310547	4007.192139	70.337196
828.693176	955.718750	5019.798828	3838.803711	70.940651
828.997681	971.647400	4548.766113	3440.587402	69.020355
829.302124	1042.188477	4050.427002	3206.208740	71.936462
829.606567	973.922913	3538.434814	2776.135498	70.275070
829.910828	953.443237	3306.331787	2548.583252	67.794960
830.215149	1071.770264	3017.340576	2402.949951	68.421051
830.519348	983.024963	2883.084961	2243.663574	66.347305
830.823547	901.106262	2826.196777	2145.816162	64.657219
831.127686	957.994263	2573.614014	2022.937988	65.915497
831.431763	998.953613	2512.175049	2002.458252	66.315781
831.735779	1033.086426	2261.867676	1890.957764	69.814812
832.039734	1012.606750	2266.418701	1906.886475	71.324867
832.343628	1003.504700	2125.336426	1863.651489	76.673416
832.647461	1012.606750	2157.193604	1859.100464	73.956261
832.951233	1014.882263	2239.112549	1904.610962	72.676582
833.255127	1046.739624	2143.540527	1768.079712	65.767639
833.558777	973.922913	2239.112549	1911.437500	74.100716
833.862366	1019.433350	2437.082764	1895.508789	61.797749
834.165955	957.994263	2637.328613	2095.754639	67.750679
834.469482	998.953613	2946.799316	2528.103516	78.504677
834.773010	980.749451	3397.352539	2748.829102	73.163841
835.076416	948.892151	3606.700439	2830.747803	70.804794
835.379822	957.994263	3549.812500	2760.206787	69.534676
835.683105	939.790100	3297.229736	2596.369141	70.270264
835.986389	1042.188477	2992.309814	2475.766602	73.512253
836.289612	976.198425	2771.584229	2305.102539	74.017746
836.592773	987.576050	2621.399902	2261.867676	77.994431
836.895874	957.994263	2519.001465	1968.325439	64.723030
837.198914	1001.229126	2407.500977	2047.968750	74.433662
837.501892	996.678101	2350.613037	1920.539551	68.235291
837.804871	866.973450	2275.520752	1806.763550	66.720520
838.107666	962.545288	2148.091553	1829.518677	73.128601
838.410583	1042.188477	2018.386963	1747.599976	72.261070
838.713379	969.371887	1929.641602	1631.548462	68.957352
839.016052	969.371887	1920.539551	1542.803101	60.287079
839.318787	983.024963	1852.273926	1622.446289	73.560204
839.621338	998.953613	1784.008301	1613.344238	78.260872
839.923889	1014.882263	1815.865601	1497.292725	60.227280
840.226440	1080.872437	1784.008301	1561.007324	68.284798
840.528931	1005.780212	1947.845825	1501.843750	52.657005
840.831299	976.198425	1988.805176	1724.844727	73.932579
841.133606	942.065613	2134.438477	1749.875488	67.748093
841.435913	942.065613	2084.376953	1690.711914	65.537857
841.738220	1008.055725	1925.090576	1649.752563	69.975189
842.040405	983.024963	1950.121338	1686.160889	72.705879
842.342529	1001.229126	1849.998413	1599.691162	70.509392
842.644592	923.861450	1872.753662	1551.905151	66.187042
842.946594	983.024963	1772.630737	1469.986450	61.671471
843.248596	928.412476	1777.181763	1504.119263	67.828423
843.550598	960.269775	1733.946899	1479.088501	67.058815
843.852478	969.371887	1708.916138	1458.608887	66.153854
844.154236	1044.463989	1702.089600	1485.915039	67.128021
844.455994	978.473938	1649.752563	1399.445313	62.711868
844.757690	967.096313	1624.721802	1410.822876	67.474052
845.059326	1046.739624	1645.201538	1406.271851	60.076042
845.360962	953.443237	1588.313477	1344.832764	61.648743
845.662476	914.759338	1488.190552	1351.659302	76.190475
845.963989	957.994263	1504.119263	1342.557251	70.416664
846.265381	951.167725	1558.731689	1417.649414	76.779022
846.566772	935.239075	1515.496826	1390.343262	78.431381
846.868042	912.483826	1465.435425	1319.802124	73.662560
847.169373	973.922913	1529.150024	1363.036987	70.081963
847.470581	923.861450	1517.772339	1212.852539	48.658997
847.771729	1017.157776	1481.364014	1308.424438	62.745098
848.072815	976.198425	1513.221313	1278.842651	56.355927
848.373901	992.127075	1551.905151	1272.016113	50.000000
848.674866	926.136963	1435.853638	1260.638550	65.625000
848.975891	942.065613	1401.720825	1287.944824	75.247536
849.276794	964.820801	1510.945801	1326.628662	66.250008
849.577637	960.269775	1581.486938	1237.883301	44.688644
849.878357	1003.504700	1451.782227	1224.230225	49.238586
850.179077	955.718750	1463.159912	1281.118164	64.125549
850.479736	987.576050	1417.649414	1262.914063	64.021172
850.780396	992.127075	1415.373901	1365.312500	88.172058
851.080994	1017.157776	1499.568237	1317.526489	62.264137
851.381470	1023.984375	1440.404663	1269.740601	59.016392
851.681946	951.167725	1410.822876	1231.056763	60.891090
851.982361	1019.433350	1403.996338	1269.740601	65.088753
852.282715	955.718750	1454.057739	1256.087524	60.273987
852.583008	962.545288	1351.659302	1308.424438	88.888893
852.883240	983.024963	1403.996338	1249.260864	63.243233
853.183411	930.687988	1454.057739	1315.250977	73.478264
853.483521	1005.780212	1415.373901	1215.128052	51.111099
853.783630	951.167725	1422.200562	1210.577026	55.072445
854.083679	1069.494751	1399.445313	1244.709839	53.103436
854.383667	962.545288	1390.343262	1260.638550	69.680847
854.683533	898.830688	1442.680176	1244.709839	63.598324
854.983337	976.198425	1363.036987	1237.883301	67.647049
855.283203	969.371887	1431.302612	1240.158813	58.620678
855.582886	971.647400	1467.710938	1326.628662	71.559639
855.882629	960.269775	1413.098389	1308.424438	76.884422
856.182312	994.402588	1401.720825	1317.526489	79.329590
856.481873	1014.882263	1426.751587	1278.842651	64.088379
856.781372	1037.637451	1390.343262	1322.077637	80.645164
857.080872	987.576050	1338.006226	1274.291626	81.818176
857.380310	935.239075	1376.690063	1265.189575	74.742271
857.679688	964.820801	1335.730713	1276.567139	84.049072
857.979004	973.922913	1367.588013	1256.087524	71.676308
858.278259	935.239075	1360.761475	1217.403687	66.310165
858.577454	914.759338	1360.761475	1242.434326	73.469376
858.876648	953.443237	1365.312500	1281.118164	79.557991
859.175720	960.269775	1417.649414	1237.883301	60.696522
859.474792	973.922913	1335.730713	1237.883301	72.955971
859.773743	1017.157776	1358.485962	1301.597900	83.333321
860.072693	1014.882263	1415.373901	1240.158813	56.250000
860.371521	1012.606750	1433.578125	1212.852539	47.567554
860.670349	987.576050	1315.250977	1242.434326	77.777779
860.969116	967.096313	1481.364014	1301.597900	65.044250
861.267883	957.994263	1322.077637	1256.087524	81.875000
861.566589	946.616638	1285.669312	1201.474976	75.167770
861.865112	1014.882263	1422.200562	1194.648438	44.134079
862.163635	994.402588	1365.312500	1226.505737	62.576691
862.462158	1010.331238	1369.863525	1199.199463	52.531647
862.760620	964.820801	1394.894287	1219.679199	59.259266
863.059021	967.096313	1408.547363	1178.719727	47.938137
863.357361	1010.331238	1390.343262	1210.577026	52.694592
863.655640	1053.566162	1335.730713	1276.567139	79.032242
863.953857	910.208313	1365.312500	1242.434326	72.999992
864.251953	973.922913	1435.853638	1224.230225	54.187199
864.550110	980.749451	1344.832764	1233.332275	69.375008
864.848206	905.657288	1340.281738	1215.128052	71.204178
865.146179	1012.606750	1347.108276	1219.679199	61.904785
865.444092	980.749451	1287.944824	1180.995239	65.185158
865.741943	985.300537	1422.200562	1285.669312	68.750000
866.039795	976.198425	1349.383789	1210.577026	62.804874
866.337646	989.851563	1351.659302	1260.638550	74.842781
866.635376	996.678101	1435.853638	1242.434326	55.958542
866.933044	969.371887	1435.853638	1210.577026	51.707306
867.230652	994.402588	1426.751587	1272.016113	64.210518
867.528198	937.514587	1333.455200	1235.607788	75.287354
867.825745	962.545288	1406.271851	1171.893188	47.179485
868.123230	983.024963	1333.455200	1206.026001	63.636356
868.420593	985.300537	1338.006226	1249.260864	74.838692
868.717896	926.136963	1449.506714	1212.852539	54.782604
869.015198	953.443237	1365.312500	1215.128052	63.535892
869.312439	896.555176	1312.975464	1269.740601	89.617493
869.609619	889.728638	1374.414551	1242.434326	72.769951
869.906738	942.065613	1369.863525	1171.893188	53.723396
870.203796	946.616638	1415.373901	1226.505737	59.708748
870.500854	964.820801	1376.690063	1194.648438	55.801113
870.797791	892.004150	1324.353149	1281.118164	89.999977
871.094666	973.922913	1394.894287	1144.586914	40.540524
871.391602	1010.331238	1342.557251	1190.097412	54.109604
871.688293	992.127075	1328.904175	1178.719727	55.405384
871.985107	969.371887	1358.485962	1155.964600	47.953217
872.281738	994.402588	1358.485962	1215.128052	60.624977
872.578369	998.953613	1347.108276	1190.097412	54.901978
872.874939	907.932800	1381.241089	1294.771362	81.730782
873.171509	910.208313	1388.067749	1176.444214	55.714272
873.467957	957.994263	1317.526489	1194.648438	65.822800
873.764343	919.310425	1365.312500	1212.852539	65.816315
874.060669	937.514587	1326.628662	1228.781250	74.853798
874.356995	953.443237	1338.006226	1297.046875	89.349121
874.653198	1005.780212	1378.965576	1199.199463	51.829269
874.949463	907.932800	1338.006226	1115.005249	48.148163
875.245544	1017.157776	1358.485962	1256.087524	70.000008
875.541626	973.922913	1417.649414	1249.260864	62.051273
875.837646	985.300537	1317.526489	1174.168701	56.849312
876.133606	960.269775	1365.312500	1249.260864	71.348297
876.429565	971.647400	1353.934937	1176.444214	53.571407
876.725403	994.402588	1317.526489	1208.301514	66.197182
877.021179	994.402588	1403.996338	1272.016113	67.777771
877.316956	962.545288	1403.996338	1201.474976	54.123711
877.612610	919.310425	1365.312500	1251.536499	74.489807
877.908203	987.576050	1526.874512	1278.842651	54.008423
878.203857	951.167725	1397.169800	1178.719727	51.020390
878.499390	953.443237	1419.924927	1278.842651	69.756096
878.794800	989.851563	1381.241089	1249.260864	66.279060
879.090271	987.576050	1372.139038	1265.189575	72.189354
879.385559	921.585938	1435.853638	1353.934937	84.070808
879.680847	998.953613	1403.996338	1338.006226	83.707863
879.976196	1005.780212	1483.639526	1262.914063	53.809528
880.271301	957.994263	1515.496826	1303.873413	62.040817
880.566467	992.127075	1556.456177	1344.832764	62.500000
880.861572	994.402588	1624.721802	1474.537476	76.173294
881.156555	869.248962	1820.416626	1538.252075	70.334930
881.451477	973.922913	2004.733887	1738.497925	74.172180
881.746460	1019.433350	2703.318604	2177.673340	68.783783
882.041321	921.585938	3431.485352	2680.563477	70.081596
882.336121	905.657288	4384.928711	3219.861816	66.514053
882.630798	932.963501	4644.337891	3536.159424	70.141014
882.925537	914.759338	4803.624512	3490.648926	66.237564
883.220215	1017.157776	4485.051270	3390.525879	68.438324
883.514771	910.208313	4068.631104	3001.411865	66.210373
883.809326	907.932800	3690.894775	2853.503174	69.910057
884.103760	942.065613	3458.791504	2600.920166	65.913200
884.398132	917.034912	3217.586426	2548.583252	70.919876
884.692505	889.728638	3106.085938	2473.491211	71.457901
884.986816	946.616638	2899.013428	2264.143311	67.482529
885.281067	1001.229126	2714.696289	2111.683350	64.807442
885.575256	1012.606750	2514.450439	2072.999512	70.606071
885.869385	1014.882263	2371.092773	1909.161987	65.939598
886.163452	989.851563	2118.509766	1809.039063	72.580650
886.457458	1019.433350	2011.560425	1633.823975	61.926605
886.751465	1046.739624	1861.375977	1535.976563	60.055870
887.045410	962.545288	1665.681274	1515.496826	78.640770
887.339233	962.545288	1647.477051	1394.894287	63.122929
887.632996	971.647400	1613.344238	1353.934937	59.574478
887.926758	960.269775	1520.047852	1383.516602	75.609756
888.220398	1042.188477	1592.864502	1358.485962	57.438034
888.514099	1012.606750	1506.394775	1294.771362	57.142864
888.807678	1010.331238	1501.843750	1276.567139	54.166656
889.101196	932.963501	1510.945801	1285.669312	61.023636
889.394653	962.545288	1508.670288	1283.393677	58.749992
889.688049	978.473938	1538.252075	1260.638550	50.406509
889.981384	1010.331238	1460.884399	1294.771362	63.131313
890.274719	1017.157776	1413.098389	1242.434326	56.896549
890.567932	948.892151	1388.067749	1171.893188	50.777191
>>>>>End Processed Spectral Data<<<<<
