Jaz Data File
++++++++++++++++++++++++++++++++++++
Date: Wed Feb 07 06:53:53 2024
User: jaz
Dark Spectrum Present: Yes
Reference Spectrum Present: Yes
Processed Spectrum Present: Yes
Spectrometers: JAZA3692
Integration Time (usec): 49800 (JAZA3692)
Spectra Averaged: 1 (JAZA3692)
Boxcar Smoothing: 0 (JAZA3692)
Correct for Electrical Dark: No (JAZA3692)
Strobe/Lamp Enabled: Yes (JAZA3692)
Correct for Detector Non-linearity: No (JAZA3692)
Correct for Stray Light: No (JAZA3692)
Number of Pixels in Processed Spectrum: 2048
>>>>>Begin Processed Spectral Data<<<<<
W	D	R	S	P
190.244385	0.000000	0.000000	0.000000	0.000000
190.627136	0.000000	0.000000	0.000000	0.000000
191.009842	912.483826	932.963501	910.208313	-11.111078
191.392532	962.545288	928.412476	932.963501	86.666718
191.775177	957.994263	923.861450	898.830688	173.333435
192.157791	955.718750	953.443237	901.106262	2400.008057
192.540390	928.412476	907.932800	948.892151	-100.000000
192.922943	869.248962	1008.055725	917.034912	34.426239
193.305481	880.626526	978.473938	935.239075	55.813995
193.687958	944.341125	946.616638	942.065613	-100.000000
194.070419	944.341125	971.647400	953.443237	33.333408
194.452866	955.718750	967.096313	955.718750	0.000000
194.835251	969.371887	951.167725	907.932800	337.500214
195.217621	978.473938	953.443237	935.239075	172.727341
195.599960	948.892151	1017.157776	946.616638	-3.333321
195.982254	955.718750	914.759338	951.167725	11.111061
196.364517	905.657288	971.647400	969.371887	96.551735
196.746750	1008.055725	944.341125	996.678101	17.857170
197.128952	976.198425	948.892151	1001.229126	-91.666481
197.511139	953.443237	935.239075	955.718750	-12.499958
197.893280	932.963501	1033.086426	978.473938	45.454563
198.275391	939.790100	901.106262	907.932800	82.352997
198.657471	930.687988	980.749451	996.678101	131.818192
199.039520	964.820801	955.718750	939.790100	275.000671
199.421539	960.269775	946.616638	967.096313	-49.999775
199.803513	914.759338	960.269775	928.412476	30.000013
200.185471	948.892151	1053.566162	1010.331238	58.695644
200.567383	962.545288	1030.810913	946.616638	-23.333340
200.949265	1005.780212	935.239075	935.239075	100.000000
201.331131	964.820801	928.412476	1023.984375	-162.500122
201.712967	1080.872437	944.341125	860.146851	161.666641
202.094742	873.799988	1030.810913	932.963501	37.681145
202.476517	885.177612	1001.229126	951.167725	56.862778
202.858231	928.412476	951.167725	932.963501	19.999893
203.239944	942.065613	985.300537	967.096313	57.894634
203.621582	946.616638	957.994263	894.279663	-459.999146
204.003235	907.932800	923.861450	892.004150	-100.000000
204.384827	903.381775	985.300537	898.830688	-5.555609
204.766388	928.412476	935.239075	885.177612	-633.329468
205.147934	1003.504700	955.718750	878.351013	261.904785
205.529449	980.749451	957.994263	967.096313	60.000107
205.910904	896.555176	964.820801	953.443237	83.333389
206.292343	962.545288	985.300537	930.687988	-139.999786
206.673767	964.820801	1012.606750	937.514587	-57.142765
207.055115	892.004150	1001.229126	930.687988	35.416660
207.436462	937.514587	1001.229126	907.932800	-46.428631
207.817780	942.065613	944.341125	989.851563	2100.008057
208.199051	930.687988	1042.188477	930.687988	0.000000
208.580307	887.453125	973.922913	907.932800	23.684198
208.961517	901.106262	1005.780212	957.994263	54.347813
209.342712	948.892151	944.341125	860.146851	1950.006714
209.723846	944.341125	932.963501	887.453125	499.998932
210.104965	914.759338	930.687988	905.657288	-57.142639
210.486069	917.034912	1021.708862	901.106262	-15.217397
210.867111	871.524475	942.065613	939.790100	96.774208
211.248123	973.922913	1069.494751	896.555176	-80.952438
211.629120	937.514587	976.198425	866.973450	-182.352997
212.010071	946.616638	967.096313	937.514587	-44.444313
212.390991	994.402588	930.687988	876.075500	185.714249
212.771881	907.932800	980.749451	932.963501	34.374969
213.152756	989.851563	953.443237	976.198425	37.500042
213.533569	992.127075	983.024963	937.514587	599.997986
213.914368	1008.055725	992.127075	980.749451	171.428680
214.295135	962.545288	1017.157776	960.269775	-4.166653
214.675858	994.402588	1026.259888	903.381775	-285.714142
215.056549	928.412476	1033.086426	948.892151	19.565207
215.437225	926.136963	1026.259888	912.483826	-13.636374
215.817841	951.167725	976.198425	932.963501	-72.727585
216.198441	873.799988	1055.841675	937.514587	35.000004
216.579025	983.024963	960.269775	896.555176	380.000336
216.959549	932.963501	973.922913	942.065613	22.222271
217.340057	967.096313	1008.055725	921.585938	-111.110916
217.720535	953.443237	917.034912	892.004150	168.750107
218.100967	926.136963	1010.331238	942.065613	18.918922
218.481369	951.167725	910.208313	896.555176	133.333328
218.861740	996.678101	910.208313	944.341125	60.526314
219.242065	994.402588	996.678101	912.483826	-3600.013428
219.622391	926.136963	992.127075	962.545288	55.172394
220.002670	946.616638	951.167725	905.657288	-899.990601
220.382919	951.167725	992.127075	882.902100	-166.666763
220.763123	983.024963	953.443237	939.790100	146.153961
221.143295	978.473938	962.545288	957.994263	128.571320
221.523453	948.892151	957.994263	976.198425	299.999329
221.903549	955.718750	1003.504700	932.963501	-47.619122
222.283630	910.208313	1055.841675	939.790100	20.312508
222.663696	919.310425	1042.188477	962.545288	35.185181
223.043701	948.892151	1030.810913	1003.504700	66.666718
223.423676	964.820801	1058.117188	914.759338	-53.658524
223.803635	1033.086426	1042.188477	928.412476	-1150.004028
224.183548	1008.055725	998.953613	869.248962	1524.995117
224.563431	951.167725	987.576050	926.136963	-68.750107
224.943283	960.269775	1026.259888	946.616638	-20.689671
225.323105	873.799988	1069.494751	983.024963	55.813950
225.702881	885.177612	978.473938	894.279663	9.756065
226.082642	910.208313	1042.188477	921.585938	8.620708
226.462357	903.381775	1028.535400	969.371887	52.727287
226.842041	955.718750	1037.637451	917.034912	-47.222229
227.221695	892.004150	1019.433350	887.453125	-3.571415
227.601318	987.576050	1058.117188	951.167725	-51.612896
227.980911	930.687988	1044.463989	905.657288	-21.999983
228.360474	917.034912	1012.606750	996.678101	83.333321
228.739990	962.545288	1133.209351	946.616638	-9.333336
229.119476	905.657288	1149.138062	960.269775	22.429897
229.498932	821.463013	1149.138062	919.310425	29.861111
229.878372	885.177612	1210.577026	1005.780212	37.062943
230.257736	901.106262	1240.158813	926.136963	7.382543
230.637115	944.341125	1233.332275	939.790100	-1.574798
231.016449	935.239075	1142.311401	967.096313	15.384595
231.395737	871.524475	1133.209351	894.279663	8.695645
231.774994	898.830688	1183.270874	948.892151	17.599997
232.154221	926.136963	1153.689087	926.136963	0.000000
232.533417	939.790100	1117.280762	964.820801	14.102545
232.912582	921.585938	1133.209351	896.555176	-11.827973
233.291702	935.239075	1121.831787	898.830688	-19.512222
233.670792	944.341125	1185.546387	937.514587	-2.830178
234.049866	942.065613	1126.382813	957.994263	8.641977
234.428894	955.718750	1149.138062	942.065613	-7.058828
234.807892	951.167725	1121.831787	878.351013	-42.666695
235.186874	944.341125	1128.658325	917.034912	-14.814794
235.565781	882.902100	1151.413574	926.136963	16.101683
235.944687	1019.433350	1149.138062	987.576050	-24.561405
236.323547	967.096313	1199.199463	851.044800	-49.999973
236.702377	955.718750	1199.199463	937.514587	-7.476635
237.081177	985.300537	1169.617676	889.728638	-51.851879
237.459946	932.963501	1274.291626	987.576050	16.000015
237.838669	953.443237	1210.577026	976.198425	8.849552
238.217361	894.279663	1151.413574	962.545288	26.548666
238.596039	948.892151	1083.147949	923.861450	-18.644037
238.974670	914.759338	1174.168701	962.545288	18.421059
239.353271	905.657288	1169.617676	969.371887	24.137939
239.731842	957.994263	1140.035889	917.034912	-22.499992
240.110367	914.759338	1240.158813	994.402588	24.475531
240.488876	896.555176	1192.372925	919.310425	7.692320
240.867340	971.647400	1244.709839	930.687988	-15.000017
241.245789	901.106262	1303.873413	857.871338	-10.734471
241.624176	935.239075	1376.690063	894.279663	-9.278360
242.002548	932.963501	1281.118164	969.371887	10.457532
242.380890	887.453125	1401.720825	971.647400	16.371683
242.759186	957.994263	1529.150024	937.514587	-3.585655
243.137451	944.341125	1622.446289	980.749451	5.369127
243.515686	939.790100	1670.232300	926.136963	-1.869161
243.893890	928.412476	1683.885376	932.963501	0.602408
244.272049	869.248962	1665.681274	894.279663	3.142853
244.650192	1026.259888	1590.588989	971.647400	-9.677419
245.028290	932.963501	1590.588989	989.851563	8.650526
245.406357	928.412476	1510.945801	989.851563	10.546880
245.784393	912.483826	1497.292725	1033.086426	20.622566
246.162384	973.922913	1433.578125	953.443237	-4.455443
246.540359	889.728638	1549.629639	923.861450	5.172414
246.918289	955.718750	1620.170776	1014.882263	8.904106
247.296204	964.820801	1795.385864	971.647400	0.821922
247.674057	1005.780212	1995.631714	1030.810913	2.528733
248.051895	996.678101	2339.235352	951.167725	-3.389827
248.429703	919.310425	2359.715088	910.208313	-0.631914
248.807465	907.932800	2325.582275	912.483826	0.321026
249.185196	1001.229126	2093.479248	989.851563	-1.041663
249.562897	946.616638	1959.223389	930.687988	-1.573034
249.940567	889.728638	1884.131226	1037.637451	14.874138
250.318192	976.198425	1642.926025	971.647400	-0.682591
250.695801	960.269775	1667.956787	919.310425	-5.787777
251.073349	1019.433350	1661.130127	896.555176	-19.148947
251.450882	992.127075	1567.833862	939.790100	-9.090908
251.828400	985.300537	1563.282837	903.381775	-14.173230
252.205872	914.759338	1613.344238	962.545288	6.840393
252.583313	905.657288	1633.823975	960.269775	7.499998
252.960693	978.473938	1733.946899	903.381775	-9.939755
253.338074	983.024963	1768.079712	1042.188477	7.536228
253.715408	951.167725	1722.569214	917.034912	-4.424779
254.092682	928.412476	1720.293701	964.820801	4.597700
254.469955	894.279663	1570.109375	930.687988	5.387204
254.847198	930.687988	1658.854614	976.198425	6.250003
255.224365	866.973450	1565.558350	930.687988	9.120515
255.601563	919.310425	1535.976563	892.004150	-4.428048
255.978683	1005.780212	1576.935913	903.381775	-17.928288
256.355743	896.555176	1576.935913	969.371887	10.702348
256.732819	937.514587	1526.874512	917.034912	-3.474901
257.109894	894.279663	1586.037964	930.687988	5.263157
257.486877	932.963501	1558.731689	919.310425	-2.181811
257.863831	887.453125	1688.436401	919.310425	3.977274
258.240753	1008.055725	1818.141113	939.790100	-8.426967
258.617645	914.759338	1788.559326	921.585938	0.781254
258.994507	967.096313	1797.661377	978.473938	1.369866
259.371307	964.820801	1984.254150	1010.331238	4.464288
259.748108	971.647400	2209.530762	983.024963	0.919114
260.124878	951.167725	2364.266113	957.994263	0.483090
260.501617	919.310425	2555.409912	992.127075	4.450625
260.878296	946.616638	2846.676514	951.167725	0.239523
261.254944	960.269775	2983.207764	928.412476	-1.574804
261.631561	851.044800	2924.044189	994.402588	6.915476
262.008179	962.545288	2555.409912	987.576050	1.571431
262.384735	928.412476	2252.765625	957.994263	2.233678
262.761261	905.657288	2025.213501	978.473938	6.504064
263.137695	873.799988	1952.396851	885.177612	1.054854
263.514191	937.514587	1986.529663	996.678101	5.639910
263.890594	976.198425	1934.192627	919.310425	-5.938241
264.267029	957.994263	1925.090576	969.371887	1.176473
264.643341	898.830688	1868.202637	987.576050	9.154934
265.019653	953.443237	1790.834839	901.106262	-6.250000
265.395935	926.136963	1865.927002	973.922913	5.084747
265.772217	953.443237	1815.865601	969.371887	1.846966
266.148407	989.851563	1897.784302	914.759338	-8.270681
266.524597	976.198425	1884.131226	992.127075	1.754386
266.900726	939.790100	2088.927979	1064.943726	10.891088
267.276855	937.514587	2136.714111	1012.606750	6.261858
267.652924	992.127075	2198.153076	960.269775	-2.641510
268.028992	1005.780212	2191.326416	907.932800	-8.253362
268.404999	996.678101	2204.979736	928.412476	-5.649717
268.781006	935.239075	2198.153076	989.851563	4.324323
269.156921	946.616638	2195.877686	962.545288	1.275046
269.532837	967.096313	2245.938965	971.647400	0.355875
269.908661	901.106262	2209.530762	928.412476	2.086954
270.284546	901.106262	2093.479248	1012.606750	9.351141
270.660339	976.198425	2141.265137	910.208313	-5.664063
271.036133	976.198425	2195.877686	1033.086426	4.664177
271.411835	885.177612	2195.877686	953.443237	5.208333
271.787537	967.096313	2407.500977	948.892151	-1.263823
272.163239	978.473938	2748.829102	998.953613	1.156812
272.538849	939.790100	2796.614990	960.269775	1.102941
272.914459	946.616638	2848.952148	978.473938	1.674641
273.290070	864.697876	2673.737061	969.371887	5.786166
273.665588	960.269775	2607.746826	951.167725	-0.552484
274.041046	960.269775	2562.236328	953.443237	-0.426135
274.416565	942.065613	2466.664551	1028.535400	5.671642
274.791962	953.443237	2523.552490	1012.606750	3.768114
275.167389	905.657288	2421.154053	946.616638	2.702701
275.542755	930.687988	2255.041016	907.932800	-1.718212
275.918060	930.687988	2302.827148	935.239075	0.331678
276.293365	948.892151	2402.949951	1014.882263	4.538342
276.668640	976.198425	2437.082764	957.994263	-1.246106
277.043854	955.718750	2400.674561	1049.015137	6.456695
277.419037	919.310425	2523.552490	1023.984375	6.524823
277.794189	928.412476	2544.032227	960.269775	1.971832
278.169312	983.024963	2466.664551	1053.566162	4.754605
278.544373	987.576050	2532.654541	1010.331238	1.472753
278.919464	1028.535400	2437.082764	1017.157776	-0.807756
279.294464	976.198425	2437.082764	1021.708862	3.115266
279.669464	928.412476	2450.735840	1019.433350	5.979076
280.044403	969.371887	2311.929199	1039.912964	5.254232
280.419312	985.300537	2439.358398	1033.086426	3.286381
280.794189	998.953613	2521.277100	1005.780212	0.448433
281.169037	1030.810913	2603.195801	992.127075	-2.460202
281.543854	935.239075	2644.155273	1074.045776	8.122499
281.918671	960.269775	2701.043213	983.024963	1.307188
282.293365	955.718750	2853.503174	944.341125	-0.599521
282.668091	980.749451	3012.789551	1028.535400	2.351624
283.042786	957.994263	2980.932129	957.994263	0.000000
283.417419	973.922913	3112.912354	944.341125	-1.382980
283.792053	923.861450	3008.238525	928.412476	0.218340
284.166595	989.851563	2974.105713	1042.188477	2.637611
284.541138	921.585938	2782.961914	951.167725	1.589243
284.915619	937.514587	2835.298828	1012.606750	3.956834
285.290100	898.830688	2935.421875	962.545288	3.128492
285.664520	983.024963	3015.064941	1049.015137	3.247484
286.038940	935.239075	3035.544678	980.749451	2.166845
286.413300	932.963501	3231.239502	914.759338	-0.792079
286.787628	944.341125	3231.239502	946.616638	0.099502
287.161896	964.820801	3345.015625	987.576050	0.956025
287.536194	930.687988	3317.709229	1074.045776	6.005719
287.910400	937.514587	3231.239502	1010.331238	3.174603
288.284607	939.790100	3060.575439	1017.157776	3.648067
288.658752	878.351013	2978.656738	1012.606750	6.392200
289.032867	926.136963	2869.431641	964.820801	1.990632
289.406921	960.269775	3005.962891	960.269775	0.000000
289.781006	960.269775	3010.513916	980.749451	0.998890
290.154999	964.820801	2921.768799	914.759338	-2.558140
290.529022	953.443237	3110.636963	967.096313	0.632909
290.902954	928.412476	3438.312012	1017.157776	3.535811
291.276825	971.647400	3392.801514	969.371887	-0.093985
291.650757	930.687988	3370.046387	1042.188477	4.570894
292.024597	948.892151	3253.994629	951.167725	0.098719
292.398407	971.647400	3217.586426	942.065613	-1.317123
292.772156	914.759338	3267.647949	973.922913	2.514508
293.145905	946.616638	3056.024414	967.096313	0.970873
293.519592	962.545288	2983.207764	948.892151	-0.675676
293.893280	942.065613	2971.830078	1046.739624	5.156954
294.266907	976.198425	3108.361328	987.576050	0.533619
294.640533	937.514587	3372.321777	903.381775	-1.401869
295.014069	912.483826	3445.138428	976.198425	2.515724
295.387604	910.208313	3495.199951	1012.606750	3.961267
295.761078	898.830688	3586.220703	1017.157776	4.403049
296.134552	917.034912	3620.353516	1019.433350	3.787879
296.507996	882.902100	3704.547852	980.749451	3.467741
296.881378	921.585938	3743.231689	914.759338	-0.241937
297.254730	921.585938	3736.405273	971.647400	1.778497
297.628021	964.820801	3982.161377	1012.606750	1.583711
298.001282	953.443237	4161.927734	1001.229126	1.489360
298.374573	910.208313	4032.222900	1021.708862	3.571429
298.747803	953.443237	4171.029785	1069.494751	3.606788
299.121002	885.177612	3811.497314	1017.157776	4.510108
299.494141	1014.882263	3652.210938	980.749451	-1.294219
299.867188	944.341125	3463.342773	985.300537	1.626018
300.240265	935.239075	3483.822266	978.473938	1.696427
300.613312	914.759338	3351.842041	996.678101	3.361345
300.986328	919.310425	3288.127441	1001.229126	3.458212
301.359314	976.198425	3340.464600	992.127075	0.673725
301.732239	898.830688	3326.811523	996.678101	4.029991
302.105103	1053.566162	3499.750977	1001.229126	-2.139537
302.477997	976.198425	3440.587402	1026.259888	2.031394
302.850830	944.341125	3381.423828	1033.086426	3.641456
303.223602	946.616638	3228.964111	1023.984375	3.389832
303.596375	923.861450	3144.769775	1030.810913	4.815573
303.969116	894.279663	3160.698486	971.647400	3.413656
304.341766	957.994263	3112.912354	1033.086426	3.484688
304.714478	923.861450	3108.361328	994.402588	3.229166
305.087067	910.208313	3119.739014	1078.596802	7.621007
305.459656	898.830688	3208.484375	1037.637451	6.009851
305.832214	841.942688	3074.228516	1051.290649	9.378188
306.204681	964.820801	3017.340576	1110.454102	7.095342
306.577148	935.239075	3056.024414	1067.219238	6.223174
306.949646	930.687988	3242.617188	1121.831787	8.267718
307.322021	912.483826	3110.636963	1142.311401	10.455485
307.694397	994.402588	3128.841064	1192.372925	9.275055
308.066742	923.861450	3158.422852	1253.812012	14.765785
308.439026	928.412476	3288.127441	1183.270874	10.800389
308.811279	926.136963	3315.433838	1267.465088	14.285714
309.183502	964.820801	3397.352539	1281.118164	13.002805
309.555695	917.034912	3634.006836	1406.271851	18.006699
309.927887	980.749451	3606.700439	1353.934937	14.211442
310.299988	983.024963	3513.404053	1344.832764	14.298561
310.672058	892.004150	3670.415039	1472.261963	20.884521
311.044128	894.279663	3677.241699	1390.343262	17.825024
311.416168	969.371887	3611.251465	1492.741699	19.810509
311.788147	917.034912	3586.220703	1517.772339	22.506392
312.160065	1014.882263	3775.089111	1403.996338	14.097280
312.531982	983.024963	3531.608398	1476.812988	19.374998
312.903870	926.136963	3542.985840	1485.915039	21.391304
313.275696	907.932800	3429.209961	1449.506714	21.480143
313.647491	992.127075	3381.423828	1392.618774	16.761906
314.019318	964.820801	3360.944336	1417.649414	18.898384
314.391022	1012.606750	3340.464600	1501.843750	21.016619
314.762726	939.790100	3451.965088	1533.701050	23.641304
315.134369	946.616638	3533.883789	1492.741699	21.108183
315.505981	926.136963	3738.680664	1451.782227	18.689320
315.877594	948.892151	3779.640137	1510.945801	19.855305
316.249146	992.127075	3611.251465	1529.150024	20.503910
316.620636	978.473938	3426.934326	1367.588013	15.892194
316.992157	1008.055725	3381.423828	1365.312500	15.052733
317.363586	983.024963	3370.046387	1426.751587	18.589134
317.735016	937.514587	3306.331787	1447.231201	21.517769
318.106354	992.127075	3363.219727	1353.934937	15.259119
318.477722	912.483826	3356.393066	1374.414551	18.901304
318.849060	912.483826	3347.291016	1426.751587	21.121498
319.220306	969.371887	3374.597412	1353.934937	15.988647
319.591522	921.585938	3456.516113	1403.996338	19.030519
319.962738	942.065613	3495.199951	1410.822876	18.360071
320.333923	932.963501	3529.332764	1413.098389	18.492552
320.705017	948.892151	3556.638916	1435.853638	18.673649
321.076111	903.381775	3476.995850	1458.608887	21.573830
321.447144	942.065613	3340.464600	1424.476074	20.113853
321.818176	892.004150	3203.933350	1413.098389	22.539368
322.189178	969.371887	3272.198975	1358.485962	16.897234
322.560120	919.310425	3385.974854	1353.934937	17.619928
322.931030	873.799988	3279.025391	1369.863525	20.624411
323.301910	894.279663	3454.240479	1447.231201	21.599998
323.672729	932.963501	3679.517090	1447.231201	18.724108
324.043549	926.136963	3706.823486	1508.670288	20.949263
324.414337	919.310425	3902.518066	1545.078613	20.976355
324.785095	939.790100	4211.988770	1535.976563	18.219751
325.155792	955.718750	4180.131836	1547.354126	18.348621
325.526428	983.024963	4034.498291	1547.354126	18.493662
325.897034	932.963501	4045.875977	1488.190552	17.836256
326.267670	937.514587	3979.885986	1520.047852	19.147343
326.638184	928.412476	3952.579590	1479.088501	18.209181
327.008728	951.167725	4068.631104	1481.364014	17.007298
327.379211	935.239075	4148.274414	1410.822876	14.801698
327.749634	907.932800	4041.324951	1476.812988	18.155411
328.120026	910.208313	3731.854004	1449.506714	19.112902
328.490417	907.932800	3811.497314	1492.741699	20.141068
328.860748	962.545288	3768.262451	1331.179688	13.138686
329.231079	971.647400	3743.231689	1469.986450	17.980295
329.601318	912.483826	3663.588379	1347.108276	15.798181
329.971558	951.167725	3684.068115	1397.169800	16.319735
330.341736	903.381775	3772.813477	1394.894287	17.129263
330.711914	901.106262	3693.170166	1474.537476	20.537897
331.082062	944.341125	3818.323975	1410.822876	16.231194
331.452148	939.790100	3715.925537	1360.761475	15.163935
331.822174	969.371887	3772.813477	1383.516602	14.772724
332.192200	973.922913	3895.691650	1497.292725	17.912773
332.562134	903.381775	3745.507324	1542.803101	22.497997
332.932129	994.402588	3934.375488	1460.884399	15.866875
333.302063	978.473938	4084.559814	1474.537476	15.970695
333.671906	1021.708862	4209.713379	1510.945801	15.346182
334.041718	928.412476	4207.437988	1488.190552	17.071478
334.411499	937.514587	4257.499512	1474.537476	16.175463
334.781281	939.790100	4196.060547	1551.905151	18.798040
335.151001	953.443237	4305.285156	1551.905151	17.854719
335.520721	1014.882263	4198.335938	1447.231201	13.581129
335.890350	921.585938	4086.835449	1442.680176	16.462975
336.259979	880.626526	4168.753906	1469.986450	17.923878
336.629547	955.718750	4152.825684	1520.047852	17.651243
336.999084	967.096313	4223.366699	1506.394775	16.561844
337.368622	953.443237	4027.671875	1424.476074	15.321985
337.738098	851.044800	4105.039551	1540.527588	21.188812
338.107513	885.177612	4198.335938	1499.568237	18.543957
338.476898	894.279663	4177.855957	1583.762451	20.997923
338.846252	951.167725	4148.274414	1469.986450	16.227758
339.215576	973.922913	4414.510254	1506.394775	15.476191
339.584869	896.555176	4293.907715	1524.598877	18.486269
339.954132	1044.463989	4205.162598	1549.629639	15.982720
340.323334	928.412476	4134.621094	1429.027100	15.613914
340.692505	894.279663	3948.028564	1481.364014	19.225037
341.061646	953.443237	3857.007813	1403.996338	15.517241
341.430786	894.279663	4073.182129	1442.680176	17.251253
341.799896	983.024963	4275.703613	1533.701050	16.724258
342.168915	923.861450	4218.815430	1449.506714	15.953037
342.537903	937.514587	4225.642090	1460.884399	15.916956
342.906830	948.892151	4273.428223	1542.803101	17.864475
343.275757	992.127075	4421.336914	1508.670288	15.063039
343.644684	969.371887	4537.388672	1556.456177	16.454079
344.013550	944.341125	4541.939453	1588.313477	17.900063
344.382355	960.269775	4628.409180	1524.598877	15.384614
344.751129	985.300537	4894.645020	1513.221313	13.504074
345.119873	887.453125	4990.217285	1688.436401	19.523016
345.488586	1012.606750	5217.769043	1658.854614	15.367966
345.857269	992.127075	5415.739746	1656.579102	15.020574
346.225891	926.136963	5443.045898	1704.365112	17.229218
346.594482	955.718750	5484.005371	1756.702026	17.688440
346.963043	907.932800	5374.780273	1763.528564	19.154352
347.331543	885.177612	5208.666992	1656.579102	17.842106
347.700043	942.065613	5058.482910	1681.609863	17.965725
348.068512	992.127075	5024.350098	1513.221313	12.923249
348.436951	878.351013	4887.818848	1576.935913	17.423382
348.805328	1005.780212	4628.409180	1647.477051	17.713568
349.173645	957.994263	4612.480469	1574.660400	16.874222
349.541931	946.616638	4592.000977	1567.833862	17.041201
349.910217	912.483826	4783.144531	1613.344238	18.106997
350.278473	939.790100	4940.155762	1563.282837	15.585894
350.646667	901.106262	4935.604492	1645.201538	18.443316
351.014801	932.963501	5019.798828	1567.833862	15.534522
351.382935	1012.606750	4880.992188	1658.854614	16.705881
351.751007	964.820801	4965.186523	1622.446289	16.439135
352.119049	914.759338	4962.910645	1597.415649	16.863409
352.487091	957.994263	4987.941406	1727.120239	19.085262
352.855072	948.892151	5063.033691	1681.609863	17.809734
353.222992	957.994263	5154.054688	1672.507813	17.028200
353.590881	953.443237	5160.881348	1756.702026	19.091400
353.958740	912.483826	5449.872559	1827.243164	20.160480
354.326599	887.453125	5481.729492	1881.855713	21.644379
354.694397	882.902100	5809.404785	1793.110352	18.475748
355.062134	912.483826	5784.374023	1881.855713	19.897243
355.429840	878.351013	5707.006348	1849.998413	20.122526
355.797516	946.616638	5970.966797	1881.855713	18.614130
356.165192	896.555176	6157.559082	1938.743774	19.809690
356.532776	892.004150	6303.192383	2011.560425	20.689655
356.900360	967.096313	6435.172852	2009.284912	19.059509
357.267883	976.198425	6426.070801	2007.009399	18.914406
357.635376	978.473938	6906.205566	2136.714111	19.539351
358.002808	960.269775	7277.115723	2145.816162	18.768013
358.370270	964.820801	7568.382324	2138.989502	17.780840
358.737640	937.514587	7561.555664	2234.561523	19.580900
359.105011	905.657288	7302.146484	2214.081787	20.455355
359.472321	926.136963	6967.644531	2138.989502	20.075329
359.839569	978.473938	6837.939941	2189.051025	20.660196
360.206787	921.585938	6915.307617	2193.602051	21.222475
360.574005	907.932800	7170.166016	2277.796387	21.875000
360.941193	873.799988	7390.891602	2252.765625	21.159216
361.308319	887.453125	8055.343750	2405.225586	21.174604
361.675415	944.341125	8335.232422	2500.797363	21.059116
362.042450	932.963501	8831.295898	2566.787354	20.685680
362.409424	971.647400	9766.535156	2721.522949	19.896507
362.776428	898.830688	9736.953125	2739.727051	20.829044
363.143402	901.106262	9163.522461	2637.328613	21.013494
363.510284	978.473938	8594.641602	2528.103516	20.346581
363.877136	971.647400	7727.668457	2443.909424	21.791849
364.243988	937.514587	7384.064941	2330.133301	21.602541
364.610779	894.279663	6935.787598	2198.153076	21.581921
364.977539	905.657288	6712.786133	2357.439453	25.000000
365.344269	983.024963	6717.337402	2166.295898	20.634924
365.710938	926.136963	6544.397949	2154.918213	21.871204
366.077576	937.514587	6505.713867	2141.265137	21.618309
366.444183	866.973450	6355.529785	2161.744873	23.590384
366.810760	1001.229126	6332.774414	2204.979736	22.577892
367.177277	998.953613	6530.744629	2202.704102	21.760592
367.543823	894.279663	6564.877441	2300.551514	24.799358
367.910248	930.687988	6469.305664	2230.010498	23.459328
368.276642	928.412476	6328.223145	2325.582275	25.874422
368.643036	939.790100	6305.468262	2361.990479	26.505510
369.009399	885.177612	6214.447266	2243.663574	25.491035
369.375671	892.004150	6000.548340	2252.765625	26.636972
369.741974	951.167725	6168.937012	2284.622803	25.556036
370.108215	923.861450	6089.293457	2227.734863	25.242290
370.474396	910.208313	6066.538574	2255.041016	26.081200
370.840546	932.963501	5993.721680	2357.439453	28.147480
371.206665	994.402588	6200.793945	2309.653564	25.262238
371.572784	955.718750	6289.539551	2407.500977	27.218430
371.938843	935.239075	6485.234375	2432.531738	26.978271
372.304840	905.657288	6705.959961	2434.807373	26.363281
372.670807	957.994263	6305.468262	2505.348389	28.936169
373.036713	1017.157776	6530.744629	2496.246338	26.826250
373.402649	930.687988	6441.999512	2343.786377	25.639965
373.768524	942.065613	6360.080566	2450.735840	27.845440
374.134308	987.576050	6430.621582	2473.491211	27.299334
374.500122	944.341125	6487.509766	2548.583252	28.940887
374.865875	962.545288	6521.642578	2596.369141	29.390093
375.231567	962.545288	6482.958984	2587.267090	29.431160
375.597260	905.657288	6721.888672	2710.145264	31.025038
375.962891	946.616638	6874.348145	2742.002686	30.287910
376.328461	932.963501	6919.858887	2662.359375	28.886354
376.694031	960.269775	7229.329590	2794.339600	29.255901
377.059540	887.453125	7563.831055	2830.747803	29.107019
377.425049	964.820801	7793.658691	2960.452637	29.223593
377.790497	978.473938	8005.282227	3238.066162	32.156738
378.155945	960.269775	8260.140625	3317.709229	32.294262
378.521301	873.799988	8112.231445	3315.433838	33.731529
378.886597	901.106262	7937.016602	3131.116699	31.694698
379.251892	957.994263	7613.892578	3147.045166	32.888885
379.617157	976.198425	7299.870605	3026.442627	32.421734
379.982422	978.473938	7047.288086	3001.411865	33.333332
380.347595	973.922913	7104.175781	2919.493164	31.737194
380.712738	903.381775	7076.869629	3142.494141	36.269810
381.077820	985.300537	7258.911133	3108.361328	33.841133
381.442902	898.830688	7022.257324	3081.055176	35.637310
381.807953	989.851563	7124.655762	3174.351563	35.608307
382.172974	928.412476	6958.542480	3160.698486	37.018871
382.537933	939.790100	6953.991699	3265.372314	38.668179
382.902832	898.830688	6899.378906	3294.954102	39.931744
383.267700	914.759338	7256.635742	3249.443604	36.813778
383.632538	944.341125	7308.972656	3322.260254	37.361462
383.997345	948.892151	7479.636719	3420.107666	37.839722
384.362152	953.443237	7893.781738	3640.833252	38.721313
384.726898	930.687988	7588.861816	3602.149414	40.123035
385.091553	953.443237	7745.873047	3734.129639	40.938023
385.456238	973.922913	7638.923340	3695.445801	40.833050
385.820862	987.576050	7750.423828	3820.599365	41.890984
386.185425	889.728638	7579.759766	3920.722412	45.306122
386.549988	1005.780212	7736.770508	4014.018799	44.692364
386.914490	1005.780212	7921.087891	4027.671875	43.698586
387.278961	1010.331238	8046.241699	4077.733398	43.596378
387.643372	857.871338	7987.078125	4239.295410	47.430576
388.007782	912.483826	8053.068359	4359.897949	48.279160
388.372101	930.687988	8196.425781	4380.377441	47.478859
388.736450	983.024963	8089.476563	4428.163574	48.479027
389.100739	971.647400	8175.946289	4528.286621	49.368290
389.464966	892.004150	7996.180176	4444.092285	50.000004
389.829163	841.942688	7802.760742	4537.388672	53.089252
390.193329	912.483826	7714.015625	4421.336914	51.589161
390.557495	969.371887	7896.057129	4605.654297	52.496719
390.921570	1010.331238	8134.986816	4880.992188	54.327690
391.285614	937.514587	8200.976563	4910.573730	54.699249
391.649597	873.799988	8842.673828	5190.462891	54.169048
392.013550	944.341125	9313.707031	5611.434082	55.763992
392.377502	978.473938	9325.083984	5870.843750	58.615047
392.741455	964.820801	9393.349609	5854.915039	58.018356
393.105316	898.830688	9432.034180	5950.486816	59.200001
393.469086	983.024963	9020.164063	5866.292480	60.758778
393.832886	942.065613	8824.469727	5704.730469	60.421474
394.196655	973.922913	9006.511719	6107.498047	63.909348
394.560333	853.320313	9195.379883	6257.682129	64.784500
394.924042	878.351013	9391.074219	6376.009277	64.581657
395.287659	948.892151	9290.951172	6462.479004	66.093842
395.651245	1001.229126	9409.278320	6453.376953	64.844391
396.014771	898.830688	8956.450195	6455.652344	68.963562
396.378296	928.412476	8460.386719	6248.580078	70.634438
396.741791	921.585938	8303.375000	6250.855469	72.194824
397.105255	930.687988	8353.436523	6437.448242	74.187614
397.468628	983.024963	8155.466797	6296.366211	74.079948
397.832001	955.718750	8128.160156	6403.315430	75.951775
398.195313	951.167725	8132.711426	6494.336426	77.186310
398.558624	937.514587	8353.436523	6533.020020	75.452591
398.921844	917.034912	8266.966797	6446.550293	75.232208
399.285095	903.381775	8419.426758	6726.439453	77.475021
399.648254	887.453125	8458.110352	6787.878418	77.938087
400.011383	912.483826	8346.610352	6967.644531	81.450867
400.374451	912.483826	8119.058105	6926.685547	83.454376
400.737549	939.790100	8567.335938	7004.053223	79.504776
401.100586	882.902100	8018.935547	6881.174805	84.056114
401.463562	921.585938	8246.487305	6994.951172	82.913956
401.826508	928.412476	8451.284180	7372.687500	85.662437
402.189392	983.024963	8137.262207	7204.298828	86.959290
402.552246	971.647400	8330.681641	7468.259277	88.280769
402.915070	855.595825	8367.089844	7566.106445	89.336563
403.277893	948.892151	8756.204102	7782.281250	87.525505
403.640656	985.300537	8758.479492	7977.976074	89.959023
404.003326	907.932800	9031.541992	8157.742188	89.243698
404.366028	946.616638	9131.665039	8430.804688	91.437309
404.728699	955.718750	9582.217773	8676.560547	89.501450
405.091248	1003.504700	9750.606445	8883.632813	90.088448
405.453857	942.065613	9789.290039	9118.011719	92.412552
405.816345	983.024963	9832.525391	9131.665039	92.080231
406.178833	882.902100	9834.800781	9033.817383	91.052361
406.541260	1008.055725	9841.627930	9288.675781	93.740334
406.903687	992.127075	9680.065430	8976.929688	91.906761
407.266052	967.096313	9213.583984	8831.295898	95.364235
407.628387	1028.535400	9163.522461	8983.755859	97.790207
407.990662	955.718750	9170.348633	8790.336914	95.373962
408.352905	896.555176	9163.522461	8881.357422	96.586845
408.715118	914.759338	9256.818359	8872.255859	95.390083
409.077332	937.514587	8901.836914	8808.541016	98.828575
409.439484	914.759338	9197.655273	8856.327148	95.879128
409.801575	898.830688	9347.839844	9083.878906	96.875839
410.163605	980.749451	9466.166992	9067.950195	95.307037
410.525635	989.851563	9618.625977	9493.472656	98.549583
410.887604	912.483826	9702.820313	9893.964844	102.174484
411.249573	892.004150	9655.035156	9498.023438	98.208252
411.611481	948.892151	9689.167969	9579.942383	98.750320
411.973328	921.585938	9347.839844	9636.831055	103.429649
412.335144	976.198425	9457.064453	9432.034180	99.704865
412.696930	973.922913	9411.553711	9493.472656	100.970879
413.058685	939.790100	9611.799805	9441.135742	98.032013
413.420410	919.310425	9470.717773	9477.543945	100.079826
413.782104	889.728638	9591.320313	9391.074219	97.698738
414.143707	912.483826	9645.932617	9604.973633	99.531013
414.505310	882.902100	9709.647461	9529.880859	97.963387
414.866852	930.687988	9862.107422	9773.362305	99.006363
415.228394	921.585938	9748.331055	10046.424805	103.377167
415.589874	948.892151	10046.424805	10080.557617	100.375191
415.951324	951.167725	10230.741211	10219.364258	99.877396
416.312683	935.239075	10326.313477	10453.742188	101.356911
416.674072	1046.739624	10745.008789	10658.539063	99.108398
417.035370	923.861450	10838.305664	10851.958984	100.137711
417.396667	942.065613	11159.154297	11218.317383	100.579063
417.757935	951.167725	11131.847656	11348.022461	102.123383
418.119141	880.626526	11607.431641	11889.595703	102.630455
418.480286	896.555176	11741.687500	11921.453125	101.657570
418.841400	882.902100	12503.986328	12665.548828	101.390251
419.202484	946.616638	12779.325195	12918.131836	101.173073
419.563568	957.994263	13320.898438	13475.633789	101.251610
419.924591	973.922913	14374.464844	14506.445313	100.984886
420.285553	957.994263	14201.525391	14401.771484	101.512032
420.646484	996.678101	15457.613281	15666.960938	101.447678
421.007355	960.269775	15459.888672	15655.583008	101.349655
421.368225	946.616638	16247.218750	17020.896484	105.056519
421.729065	912.483826	16852.507813	17052.751953	101.256233
422.089874	942.065613	17362.224609	17699.000000	102.050987
422.450592	930.687988	17107.365234	17369.050781	101.617668
422.811279	937.514587	17086.884766	17212.039063	100.774979
423.171936	960.269775	16920.773438	16982.210938	100.384933
423.532593	1017.157776	16888.916016	16943.527344	100.344078
423.893127	953.443237	17055.029297	17350.845703	101.837189
424.253723	930.687988	17330.367188	17498.755859	101.026779
424.614197	996.678101	16875.261719	17173.355469	101.877335
424.974670	948.892151	17899.246094	18176.859375	101.637802
425.335052	919.310425	18165.482422	18256.503906	100.527779
425.695496	923.861450	16827.476563	17350.845703	103.290878
426.055817	928.412476	17532.888672	17425.937500	99.355888
426.416168	944.341125	17125.570313	17209.763672	100.520317
426.776398	889.728638	16201.708008	16379.198242	101.159157
427.136627	989.851563	15475.817383	15384.795898	99.371658
427.496826	998.953613	15198.203125	15530.429688	102.339745
427.856995	962.545288	14620.220703	14834.120117	101.566147
428.217102	873.799988	13951.217773	14445.005859	103.775887
428.577179	932.963501	13871.575195	14365.363281	103.816391
428.937195	905.657288	13673.604492	14181.045898	103.974335
429.297180	944.341125	13259.459961	13662.226563	103.270508
429.657135	937.514587	13168.438477	13361.858398	101.581398
430.017059	905.657288	13539.348633	13735.043945	101.548996
430.376984	869.248962	13245.806641	13498.389648	102.040817
430.736786	1003.504700	13063.764648	13334.551758	102.245285
431.096588	885.177612	12936.335938	13259.459961	102.681267
431.456360	967.096313	12949.989258	13386.888672	103.646027
431.816071	907.932800	12788.426758	12849.866211	100.517143
432.175781	955.718750	12906.753906	12808.906250	99.181259
432.535400	860.146851	12949.989258	13011.427734	100.508186
432.895020	930.687988	12893.100586	13081.968750	101.578857
433.254578	996.678101	12865.794922	13136.582031	102.281441
433.614105	907.932800	13391.439453	13334.551758	99.544296
433.973602	960.269775	13612.165039	13796.482422	101.456833
434.333038	951.167725	13621.267578	13721.390625	100.790230
434.692444	1026.259888	13430.124023	13468.807617	100.311867
435.051819	998.953613	13714.563477	14099.126953	103.024353
435.411133	917.034912	13723.666016	13880.676758	101.226013
435.770416	923.861450	13132.030273	13202.571289	100.577820
436.129669	962.545288	13684.982422	13980.799805	102.325165
436.488861	989.851563	13427.848633	13507.491211	100.640320
436.848083	989.851563	13662.226563	13550.726563	99.120132
437.207184	996.678101	13605.338867	13600.788086	99.963905
437.566254	978.473938	13837.442383	14115.055664	102.158905
437.925293	939.790100	13546.175781	13878.401367	102.635376
438.284363	955.718750	13644.022461	14119.606445	103.748207
438.643311	953.443237	14151.463867	14299.373047	101.120689
439.002258	866.973450	14372.189453	14333.505859	99.713562
439.361145	914.759338	14747.650391	14970.651367	101.612106
439.719971	948.892151	15084.427734	15227.785156	101.014160
440.078827	892.004150	15307.428711	15489.469727	101.262817
440.437592	985.300537	15739.777344	15985.533203	101.665634
440.796295	942.065613	16017.390625	16203.983398	101.237740
441.155029	998.953613	17264.376953	17182.457031	99.496353
441.513672	928.412476	17243.896484	17642.113281	102.440727
441.872253	878.351013	17064.130859	17278.029297	101.321518
442.230865	903.381775	16638.607422	17066.406250	102.718735
442.589386	944.341125	16777.414063	16718.251953	99.626335
442.947876	928.412476	16597.648438	16845.679688	101.582916
443.306335	894.279663	15971.880859	16320.035156	102.309082
443.664764	962.545288	15471.265625	15728.399414	101.772270
444.023102	921.585938	15612.348633	16081.105469	103.190826
444.381500	921.585938	15607.796875	15828.522461	101.502945
444.739777	955.718750	15573.664063	15880.859375	102.101494
445.098022	951.167725	16090.208008	16256.320313	101.097244
445.456238	930.687988	15876.308594	16310.933594	102.908043
445.814423	921.585938	16679.568359	16816.099609	100.866425
446.172577	937.514587	17330.367188	17564.744141	101.429749
446.530701	930.687988	17437.316406	17874.216797	102.646820
446.888733	962.545288	17799.123047	18217.820313	102.486832
447.246765	967.096313	18898.201172	19062.037109	100.913696
447.604736	957.994263	18215.544922	18408.962891	101.120773
447.962677	894.279663	18741.189453	18568.250000	99.030983
448.320587	935.239075	18732.087891	18538.667969	98.913177
448.678436	989.851563	18361.177734	18547.769531	101.074135
449.036255	996.678101	17869.664063	18333.871094	102.751183
449.394043	926.136963	16852.507813	17369.050781	103.243317
449.751770	939.790100	17264.376953	17480.550781	101.324219
450.109467	1008.055725	16652.261719	16913.945313	101.672722
450.467163	951.167725	16424.708984	16932.150391	103.279411
450.824768	948.892151	16411.056641	16552.138672	100.912437
451.182343	923.861450	16126.616211	16606.750000	103.158203
451.539886	937.514587	15573.664063	15730.675781	101.072769
451.897369	1017.157776	15889.961914	15785.288086	99.296204
452.254822	898.830688	15393.898438	15698.818359	102.103615
452.612274	942.065613	16176.677734	16031.043945	99.044060
452.969635	919.310425	15978.707031	16213.085938	101.556366
453.326965	921.585938	15942.298828	15767.083984	98.833511
453.684326	914.759338	15562.287109	15653.307617	100.621407
454.041534	942.065613	15245.989258	15025.263672	98.456886
454.398773	967.096313	14900.110352	15220.958984	102.302795
454.755951	976.198425	14602.016602	14531.475586	99.482300
455.113098	980.749451	14247.036133	14137.810547	99.176666
455.470215	1001.229126	14390.393555	14358.536133	99.762062
455.827240	930.687988	14363.086914	14574.710938	101.575485
456.184265	996.678101	13764.625000	14442.730469	105.310997
456.541260	935.239075	14162.841797	14283.444336	100.911751
456.898193	926.136963	14181.045898	14217.454102	100.274673
457.255096	910.208313	14274.341797	14376.740234	100.766220
457.611969	880.626526	14208.351563	14508.720703	102.253716
457.968781	953.443237	14347.158203	14458.659180	100.832489
458.325531	976.198425	14460.934570	14551.955078	100.674988
458.682312	989.851563	15207.305664	15475.817383	101.888603
459.039001	953.443237	15837.625000	15889.961914	100.351631
459.395630	951.167725	16599.923828	16861.609375	101.672249
459.752289	996.678101	18215.544922	18242.849609	100.158577
460.108856	955.718750	19514.867188	19678.703125	100.882774
460.465363	932.963501	19967.695313	20336.330078	101.936646
460.821899	948.892151	20136.083984	20322.675781	100.972481
461.178345	951.167725	19271.384766	19567.203125	101.614708
461.534760	964.820801	19114.375000	19351.029297	101.303909
461.891144	905.657288	18195.064453	18276.982422	100.473801
462.247467	960.269775	17105.089844	17439.591797	102.071884
462.603760	951.167725	16891.191406	17444.142578	103.468948
462.960052	894.279663	16115.238281	16322.310547	101.360443
463.316254	914.759338	15644.205078	15921.819336	101.884758
463.672424	967.096313	15300.601563	15478.092773	101.238297
464.028564	914.759338	14902.385742	15029.814453	100.911011
464.384644	942.065613	15022.988281	15095.804688	100.517128
464.740723	873.799988	15170.897461	14954.722656	98.487984
465.096741	896.555176	14872.803711	14975.202148	100.732658
465.452698	951.167725	14683.935547	15173.172852	103.562553
465.808655	1053.566162	14777.232422	14954.722656	101.293312
466.164520	928.412476	14647.527344	15036.641602	102.836296
466.520355	921.585938	15398.449219	15883.134766	103.348000
466.876190	937.514587	16094.758789	15710.195313	97.462837
467.231964	926.136963	15555.459961	15874.033203	102.177635
467.587677	960.269775	16208.535156	16492.974609	101.865387
467.943390	1003.504700	16279.076172	16495.250000	101.415161
468.299011	898.830688	15819.420898	16015.115234	101.311569
468.654633	939.790100	15619.174805	15728.399414	100.744064
469.010223	896.555176	15587.317383	15703.369141	100.789970
469.365723	969.371887	15123.111328	15462.164063	102.395500
469.721191	964.820801	15491.746094	15525.878906	100.234962
470.076660	964.820801	14708.966797	15050.294922	102.483444
470.432068	946.616638	15002.508789	15202.754883	101.424644
470.787445	905.657288	14918.314453	15239.163086	102.289703
471.142792	862.422363	14668.006836	14995.681641	102.373505
471.498016	955.718750	15191.376953	15489.469727	102.093987
471.853271	939.790100	15054.845703	15177.723633	100.870544
472.208496	957.994263	15111.733398	15280.122070	101.189713
472.563660	951.167725	15412.102539	15355.214844	99.606613
472.918762	969.371887	15521.327148	15687.440430	101.141518
473.273865	907.932800	15751.155273	16010.564453	101.747658
473.628876	907.932800	16433.810547	16879.812500	102.872635
473.983917	912.483826	16206.258789	16438.361328	101.517624
474.338837	942.065613	16169.850586	16461.117188	101.912735
474.693787	971.647400	16137.993164	16477.046875	102.235565
475.048645	1028.535400	15742.052734	16176.677734	102.953918
475.403503	880.626526	16213.085938	16383.750000	101.113091
475.758270	923.861450	16454.291016	16706.873047	101.626366
476.113037	971.647400	16313.208984	16554.414063	101.572235
476.467773	987.576050	16820.650391	16925.324219	100.661110
476.822418	996.678101	17623.908203	17751.337891	100.766388
477.177063	955.718750	17312.162109	17626.183594	101.919861
477.531647	923.861450	17673.970703	17719.480469	100.271698
477.886200	992.127075	18115.421875	18465.851563	102.046509
478.240723	971.647400	18568.250000	18716.158203	100.840553
478.595184	923.861450	18800.353516	19191.742188	102.189407
478.949585	923.861450	19319.171875	19207.671875	99.393867
479.303986	960.269775	19457.978516	19614.990234	100.848816
479.658325	1026.259888	19442.048828	19628.642578	101.013229
480.012634	930.687988	19603.611328	19587.683594	99.914703
480.366913	951.167725	20386.390625	20425.074219	100.199036
480.721130	989.851563	20914.312500	21080.423828	100.833702
481.075317	912.483826	21253.365234	21512.773438	101.275307
481.429474	919.310425	22197.705078	22725.626953	102.481026
481.783569	889.728638	23358.220703	23390.078125	100.141785
482.137604	969.371887	24639.339844	24932.880859	101.240143
482.491669	955.718750	26657.726563	26634.970703	99.911461
482.845612	921.585938	29668.240234	30353.171875	102.382645
483.199554	967.096313	33365.960938	33716.390625	101.081612
483.553436	926.136963	38749.843750	39584.960938	102.207916
483.907318	994.402588	46288.644531	46668.656250	100.838982
484.261139	973.922913	52205.000000	52794.359375	101.150391
484.614899	944.341125	54667.113281	54742.203125	100.139771
484.968628	912.483826	54116.437500	54159.671875	100.081261
485.322357	969.371887	51265.207031	51658.875000	100.782707
485.675964	885.177612	47594.792969	47770.007813	100.375114
486.029572	928.412476	43378.253906	43765.089844	100.911278
486.383148	948.892151	40620.320313	40872.906250	100.636696
486.736694	903.381775	38790.804688	39334.652344	101.435432
487.090149	946.616638	39154.886719	39512.144531	100.935028
487.443604	919.310425	40167.492188	40410.972656	100.620361
487.796997	873.799988	42199.535156	42270.074219	100.170692
488.150360	973.922913	43610.355469	43464.722656	99.658432
488.503693	939.790100	43660.417969	43994.917969	100.782997
488.856964	989.851563	42836.679688	42732.003906	99.749863
489.210175	996.678101	40602.117188	40690.863281	100.224075
489.563416	946.616638	38014.851563	38344.800781	100.890114
489.916565	967.096313	35768.910156	36442.464844	101.935402
490.269653	1053.566162	33482.011719	34057.718750	101.775314
490.622772	951.167725	32835.765625	33186.195313	101.099060
490.975769	882.902100	32824.386719	32892.652344	100.213722
491.328735	976.198425	34474.140625	34369.464844	99.687515
491.681732	892.004150	36585.824219	36205.812500	98.935356
492.034607	989.851563	38167.308594	38595.109375	101.150696
492.387482	967.096313	39232.253906	39402.917969	100.446007
492.740326	901.106262	38372.105469	38192.339844	99.520256
493.093079	957.994263	36462.945313	36499.355469	100.102547
493.445862	930.687988	32983.675781	33197.574219	100.667328
493.798523	921.585938	30585.275391	30530.662109	99.815895
494.151215	846.493713	28170.947266	28223.285156	100.191544
494.503815	917.034912	26241.306641	26279.990234	100.152756
494.856384	898.830688	24477.777344	24607.482422	100.550087
495.208923	955.718750	23940.753906	23672.242188	98.831795
495.561432	919.310425	23201.210938	23278.578125	100.347221
495.913879	973.922913	22336.511719	22543.583984	100.969322
496.266296	1003.504700	23110.189453	22873.535156	98.929489
496.618683	946.616638	23171.628906	22873.535156	98.658745
496.970978	946.616638	23879.314453	23840.630859	99.831314
497.323273	894.279663	23672.242188	23767.814453	100.419579
497.675507	964.820801	24120.519531	24284.357422	100.707550
498.027710	948.892151	24172.857422	24113.693359	99.745247
498.379852	921.585938	23870.212891	23890.693359	100.089249
498.731995	921.585938	23221.689453	23492.476563	101.214287
499.084076	928.412476	22894.015625	23219.414063	101.481400
499.436096	957.994263	22841.677734	22969.107422	100.582306
499.788086	921.585938	22238.664063	22327.410156	100.416313
500.140106	1035.361938	21908.714844	21854.101563	99.738358
500.491943	912.483826	21476.365234	21296.599609	99.125816
500.843842	923.861450	21305.701172	21255.640625	99.754387
501.195679	980.749451	20584.361328	20791.433594	101.056297
501.547455	873.799988	20231.656250	20377.289063	100.752319
501.899231	1001.229126	19924.460938	20165.666016	101.274651
502.250885	864.697876	19995.001953	19981.347656	99.928627
502.602600	1014.882263	19715.111328	19735.591797	100.109520
502.954193	892.004150	19863.021484	19958.593750	100.503784
503.305786	942.065613	19844.816406	19922.185547	100.409302
503.657379	948.892151	20204.349609	19906.255859	98.451897
504.008820	1035.361938	19876.673828	20129.257813	101.340584
504.360291	957.994263	20349.982422	20158.837891	99.014313
504.711700	907.932800	20288.542969	20336.330078	100.246574
505.063080	942.065613	20538.851563	20452.380859	99.558754
505.414368	973.922913	20459.207031	19949.490234	97.384094
505.765656	994.402588	20136.083984	20154.287109	100.095100
506.116943	926.136963	20179.318359	20293.093750	100.590942
506.468109	1003.504700	20111.052734	19899.429688	98.892464
506.819305	1001.229126	19776.550781	19860.746094	100.448433
507.170410	923.861450	19837.990234	19742.417969	99.494705
507.521484	976.198425	19913.082031	19828.888672	99.555397
507.872559	964.820801	20115.603516	20192.970703	100.403992
508.223480	912.483826	20415.972656	20208.900391	98.938278
508.574493	985.300537	20450.105469	20379.564453	99.637596
508.925385	901.106262	20764.126953	20843.771484	100.400970
509.276245	983.024963	21073.597656	20859.699219	98.935326
509.627045	985.300537	21235.160156	21348.935547	100.561859
509.977814	948.892151	21576.488281	21667.509766	100.441261
510.328613	953.443237	21649.304688	21419.476563	98.889496
510.679260	1026.259888	21840.449219	21687.988281	99.267517
511.029999	962.545288	22029.316406	21540.080078	97.677689
511.380585	985.300537	22309.205078	22074.828125	98.900871
511.731140	983.024963	22473.042969	22420.707031	99.756462
512.081726	969.371887	22609.574219	22382.023438	98.948479
512.432129	889.728638	22730.177734	22304.654297	98.051674
512.782654	992.127075	23114.740234	22372.919922	96.646774
513.133057	935.239075	22909.943359	22721.076172	99.140526
513.483398	892.004150	22725.626953	22527.656250	99.093277
513.833801	937.514587	22859.882813	22771.136719	99.595177
514.183960	898.830688	22532.207031	22102.132813	98.011986
514.534302	994.402588	22338.787109	21917.816406	98.027725
514.884460	932.963501	22400.226563	22154.470703	98.855209
515.234619	871.524475	22211.359375	21685.712891	97.536781
515.584717	928.412476	22099.857422	22120.337891	100.096733
515.934753	921.585938	22395.675781	21665.234375	96.598495
516.284851	953.443237	22493.523438	22281.900391	99.017540
516.634766	903.381775	22816.646484	22229.562500	97.320877
516.984741	885.177612	22711.972656	22668.738281	99.801918
517.334595	896.555176	23606.251953	23533.435547	99.679359
517.684448	1005.780212	24593.828125	24418.613281	99.257187
518.034363	1012.606750	25588.230469	25030.728516	97.731483
518.384094	901.106262	26298.193359	26332.326172	100.134399
518.733826	946.616638	27722.669922	27055.941406	97.509979
519.083496	901.106262	28175.498047	27709.017578	98.289673
519.433167	932.963501	28450.835938	27934.292969	98.122879
519.782776	980.749451	27954.773438	27977.527344	100.084358
520.132324	892.004150	27854.650391	27383.617188	98.253014
520.481873	919.310425	27131.035156	27001.330078	99.505165
520.831299	903.381775	26502.990234	26163.937500	98.675552
521.180786	905.657288	25560.925781	25192.291016	98.504845
521.530151	998.953613	25533.619141	25003.421875	97.838989
521.879517	957.994263	25080.791016	24666.644531	98.283173
522.228882	928.412476	24575.625000	25003.421875	101.809082
522.578064	955.718750	24891.921875	24575.625000	98.678581
522.927307	894.279663	24814.554688	24693.951172	99.495811
523.276489	969.371887	24725.808594	24555.144531	99.281609
523.625610	980.749451	25042.105469	24712.156250	98.628716
523.974792	930.687988	25433.496094	25196.841797	99.034172
524.323792	905.657288	25990.998047	25918.181641	99.709724
524.672852	896.555176	26853.421875	26259.509766	97.711929
525.021790	964.820801	27781.833984	27119.656250	97.530754
525.370728	907.932800	28746.654297	28641.980469	99.624001
525.719604	939.790100	30480.601563	29638.658203	97.149895
526.068420	957.994263	32041.609375	31393.085938	97.913620
526.417297	980.749451	33274.941406	32833.488281	98.633026
526.765991	905.657288	34094.128906	33352.308594	97.764816
527.114746	951.167725	35347.941406	34785.886719	98.365967
527.463379	973.922913	36383.300781	36014.667969	98.958939
527.812012	951.167725	38768.046875	38101.320313	98.236961
528.160706	998.953613	42026.593750	41491.847656	98.696617
528.509155	948.892151	46812.015625	46413.796875	99.131721
528.857727	946.616638	51590.609375	51092.269531	99.015991
529.206177	955.718750	54471.417969	54182.425781	99.459984
529.554565	955.718750	54412.253906	53825.167969	98.901749
529.902893	971.647400	53010.531250	52414.347656	98.854347
530.251221	910.208313	49868.039063	49023.820313	98.275620
530.599548	901.106262	45956.417969	45749.347656	99.540405
530.947876	930.687988	42479.421875	41965.156250	98.762260
531.296021	955.718750	39432.500000	38715.710938	98.137085
531.644165	942.065613	36918.050781	36469.773438	98.753952
531.992249	946.616638	35259.195313	34660.734375	98.255852
532.340454	948.892151	34246.589844	33536.625000	97.867821
532.688354	955.718750	34417.253906	33955.320313	98.619507
533.036438	953.443237	35850.832031	35200.031250	98.135101
533.384338	948.892151	37823.707031	37329.917969	98.660904
533.732239	882.902100	39896.707031	39057.039063	97.847771
534.080139	987.576050	40165.218750	39726.042969	98.879013
534.427917	976.198425	39487.113281	38947.812500	98.599617
534.775757	907.932800	37568.847656	36820.203125	97.957924
535.123474	901.106262	35800.769531	35029.367188	97.789658
535.471191	896.555176	34123.710938	33138.410156	97.034653
535.818848	901.106262	32644.621094	32107.597656	98.308243
536.166382	957.994263	32000.648438	31197.390625	97.412407
536.513977	962.545288	31848.189453	31108.644531	97.605537
536.861511	1008.055725	32558.152344	31777.648438	97.526146
537.208984	971.647400	32373.833984	31634.291016	97.644928
537.556396	885.177612	32442.099609	31686.626953	97.606003
537.903809	939.790100	31304.339844	30953.910156	98.845924
538.251160	944.341125	30808.275391	30102.865234	97.637917
538.598389	953.443237	29247.269531	28641.980469	97.860703
538.945740	905.657288	28630.603516	27579.312500	96.208138
539.292969	905.657288	28175.498047	27511.046875	97.563423
539.640137	910.208313	28091.304688	27017.257813	96.048553
539.987244	955.718750	28177.773438	27347.208984	96.948929
540.334351	939.790100	28826.296875	28550.958984	99.012650
540.681458	964.820801	30853.787109	30498.804688	98.812332
541.028442	951.167725	33766.453125	33161.164063	98.155464
541.375366	905.657288	37179.734375	36255.871094	97.453102
541.722290	951.167725	39869.398438	39134.406250	98.111443
542.069153	948.892151	41678.437500	40497.445313	97.100403
542.416016	917.034912	41632.929688	40283.542969	96.685844
542.762756	932.963501	40044.613281	39753.347656	99.255295
543.109558	887.453125	38617.863281	37664.421875	97.473015
543.456299	937.514587	37439.144531	36656.363281	97.855492
543.802917	921.585938	35916.820313	34740.375000	96.638268
544.149536	903.381775	34207.902344	32874.449219	95.996185
544.496094	953.443237	31763.994141	30794.623047	96.853767
544.842651	928.412476	30214.365234	29502.126953	97.567986
545.189148	992.127075	28510.000000	27938.843750	97.924416
545.535583	935.239075	27916.089844	27422.300781	98.169853
545.882019	926.136963	27299.423828	26926.238281	98.584984
546.228333	1010.331238	26939.890625	26389.214844	97.876259
546.574707	978.473938	27046.839844	26553.052734	98.105797
546.920898	910.208313	27144.687500	26762.400391	98.542809
547.267212	903.381775	27272.117188	26735.093750	97.963409
547.613342	910.208313	27005.880859	26275.439453	97.200912
547.959473	976.198425	26309.572266	25936.386719	98.526901
548.305664	994.402588	25727.039063	24862.339844	96.503815
548.651611	962.545288	24448.195313	24134.173828	98.662926
548.997742	935.239075	23883.867188	23148.873047	96.797218
549.343689	973.922913	22737.003906	22409.328125	98.494347
549.689575	894.279663	21719.845703	21153.242188	97.279289
550.035522	930.687988	21178.271484	20545.677734	96.875710
550.381287	917.034912	20429.625000	19794.755859	96.746361
550.727173	976.198425	19888.052734	19721.939453	99.121643
551.072876	898.830688	19462.529297	18859.515625	96.751648
551.418640	887.453125	19505.763672	19030.179688	97.445610
551.764282	885.177612	19291.865234	19089.343750	98.899742
552.109863	960.269775	19510.314453	18982.394531	97.154076
552.455505	898.830688	19694.632813	19071.140625	96.682808
552.801025	964.820801	19910.806641	19642.294922	98.582748
553.146545	930.687988	20411.421875	19549.000000	95.572952
553.491943	973.922913	20447.830078	19703.734375	96.179008
553.837341	926.136963	20445.554688	19806.132813	96.724174
554.182800	901.106262	19794.755859	19462.529297	98.241600
554.528015	978.473938	19428.396484	18936.884766	97.335968
554.873352	998.953613	19050.660156	18570.525391	97.340225
555.218628	1014.882263	19157.609375	18304.289063	95.296623
555.563721	887.453125	18595.556641	18383.931641	98.804924
555.908875	903.381775	18445.371094	17717.205078	95.849014
556.254028	935.239075	18147.279297	17391.804688	95.610779
556.599121	914.759338	18131.349609	17532.888672	96.523926
556.944031	951.167725	17751.337891	17225.693359	96.871193
557.289063	914.759338	17762.714844	17271.203125	97.082664
557.633972	978.473938	17557.917969	17378.152344	98.915733
557.978882	935.239075	17387.253906	16832.027344	96.625168
558.323792	964.820801	17503.306641	16929.875000	96.532745
558.668518	996.678101	17362.224609	16804.720703	96.593430
559.013306	978.473938	17232.519531	16786.517578	97.256058
559.358032	960.269775	17346.294922	16629.505859	95.625610
559.702637	901.106262	17141.498047	16595.373047	96.637245
560.047363	953.443237	17055.029297	16695.496094	97.767097
560.391846	930.687988	17284.855469	16577.169922	95.672752
560.736450	960.269775	16902.568359	16722.802734	98.872398
561.080933	892.004150	17373.601563	16729.628906	96.092781
561.425354	987.576050	17450.968750	16806.996094	96.088455
561.769775	944.341125	17655.765625	17205.212891	97.303932
562.114136	923.861450	17519.234375	16868.435547	96.078430
562.458496	921.585938	17596.601563	17029.998047	96.602081
562.802673	894.279663	17548.816406	17121.017578	97.431335
563.146912	953.443237	17400.908203	16686.394531	95.655785
563.491150	942.065613	17430.490234	16768.312500	95.983994
563.835266	960.269775	17255.273438	16536.208984	95.587212
564.179443	1012.606750	17389.529297	16602.199219	95.192444
564.523438	964.820801	16954.906250	16649.986328	98.093071
564.867493	905.657288	17353.121094	16638.607422	95.655785
565.211426	901.106262	17519.234375	16704.597656	95.097900
565.555359	901.106262	17412.285156	17325.814453	99.476288
565.899231	937.514587	17899.246094	17662.591797	98.604774
566.243042	948.892151	18572.800781	17881.042969	96.074890
566.586914	983.024963	18734.363281	18172.308594	96.833733
566.930603	962.545288	19460.253906	18645.617188	95.596016
567.274292	937.514587	19391.988281	18713.882813	96.325523
567.617981	946.616638	19494.386719	18531.841797	94.810455
567.961609	971.647400	18788.974609	18399.861328	97.816093
568.305237	898.830688	18518.187500	17794.572266	95.893066
568.648682	919.310425	18563.699219	17796.847656	95.653847
568.992188	860.146851	18031.226563	17557.917969	97.243568
569.335632	926.136963	18172.308594	17364.500000	95.316010
569.679016	942.065613	17947.033203	17139.222656	95.249565
570.022461	960.269775	17956.134766	17132.396484	95.153305
570.365662	942.065613	18076.736328	17412.285156	96.122185
570.708984	887.453125	17917.451172	17243.896484	96.044891
571.052185	935.239075	18033.501953	17250.722656	95.421875
571.395386	951.167725	18245.125000	17717.205078	96.947372
571.738525	951.167725	18748.015625	17994.818359	95.767807
572.081604	880.626526	19159.884766	18472.677734	96.240509
572.424683	923.861450	19605.886719	18627.414063	94.762489
572.767578	946.616638	19428.396484	18957.363281	97.451363
573.110596	985.300537	19640.019531	18750.291016	95.230545
573.453552	964.820801	19580.857422	18647.892578	94.988380
573.796387	896.555176	19237.251953	18279.257813	94.776672
574.139282	939.790100	19041.558594	18249.677734	95.625397
574.481995	928.412476	19112.099609	18038.052734	94.093353
574.824768	866.973450	18445.371094	17983.441406	97.372177
575.167480	946.616638	18668.373047	17972.062500	96.070869
575.510132	946.616638	18543.218750	17601.154297	94.646324
575.852722	921.585938	18854.964844	17881.042969	94.569221
576.195251	937.514587	18206.441406	17448.693359	95.612076
576.537842	923.861450	18019.849609	17357.671875	96.126709
576.880188	946.616638	17881.042969	17125.570313	95.538841
577.222717	978.473938	17498.755859	16968.558594	96.790634
577.565063	930.687988	17478.275391	16285.902344	92.794281
577.907410	978.473938	16711.423828	15992.360352	95.429573
578.249756	978.473938	16597.648438	15755.706055	94.609558
578.591919	1017.157776	16360.994141	15600.970703	95.046715
578.934204	973.922913	15908.166016	14982.029297	93.798569
579.276306	955.718750	15471.265625	14838.670898	95.641953
579.618469	955.718750	15232.335938	14724.895508	96.445656
579.960571	996.678101	14959.273438	14442.730469	96.300522
580.302551	967.096313	14765.854492	14517.822266	98.202507
580.644531	1023.984375	14865.977539	14010.381836	93.818840
580.986511	935.239075	14490.516602	14035.412109	96.642601
581.328369	917.034912	14590.639648	13746.420898	93.825920
581.670227	901.106262	14265.240234	13689.533203	95.692146
582.012024	928.412476	14358.536133	13712.288086	95.188072
582.353821	907.932800	14253.862305	13514.318359	94.458656
582.695496	907.932800	14313.025391	13687.257813	95.331863
583.037231	962.545288	14112.780273	13566.655273	95.847031
583.378845	942.065613	14090.024414	13514.318359	95.621330
583.720398	944.341125	14260.688477	13525.695313	94.480522
584.062012	864.697876	13769.176758	13127.479492	95.027328
584.403442	923.861450	14051.340820	13257.184570	93.950432
584.744934	969.371887	13823.789063	13182.091797	95.007965
585.086365	1003.504700	13721.390625	13134.305664	95.383781
585.427734	942.065613	13632.645508	13141.132813	96.126945
585.768982	1033.086426	13928.462891	13109.275391	93.647430
586.110291	1005.780212	13796.482422	13086.520508	94.449394
586.451599	951.167725	13443.777344	13020.530273	96.612022
586.792725	955.718750	13578.032227	13188.918945	96.917259
587.133850	937.514587	13646.297852	13084.244141	95.577438
587.474915	951.167725	13823.789063	13218.500000	95.297859
587.815979	976.198425	13521.144531	13209.398438	97.514969
588.157043	1012.606750	13737.319336	13259.459961	96.244637
588.497925	987.576050	13732.767578	13277.664063	96.429214
588.838867	989.851563	14071.820313	13364.133789	94.590370
589.179749	923.861450	14117.331055	13646.297852	96.429802
589.520569	869.248962	14037.687500	13423.296875	95.334373
589.861450	951.167725	14003.554688	13491.562500	96.077408
590.202087	942.065613	14429.077148	13593.960938	93.807999
590.542847	892.004150	14212.903320	13669.053711	95.917320
590.883484	960.269775	14376.740234	13657.675781	94.640434
591.224121	912.483826	14053.616211	13571.206055	96.329010
591.564636	987.576050	14365.363281	13659.951172	94.726990
591.905151	921.585938	14060.443359	13564.379883	96.224457
592.245667	903.381775	13871.575195	13341.378906	95.911568
592.585999	928.412476	13805.584961	13366.409180	96.589500
592.926453	1008.055725	13518.869141	13029.631836	96.089485
593.266724	946.616638	13805.584961	12993.223633	93.682533
593.607056	1026.259888	13655.400391	13088.795898	95.513512
593.947388	967.096313	13958.044922	12938.611328	92.152740
594.287476	889.728638	13771.452148	13020.530273	94.170639
594.627686	967.096313	14210.626953	13689.533203	96.065292
594.967773	969.371887	14353.985352	13550.726563	93.998642
595.307861	948.892151	14383.567383	13760.074219	95.359077
595.647888	976.198425	14394.944336	13958.044922	96.744110
595.987854	892.004150	14724.895508	14062.718750	95.213028
596.327820	953.443237	14788.609375	14083.198242	94.901321
596.667725	885.177612	14986.580078	14636.149414	97.514923
597.007568	946.616638	15919.543945	15038.916992	94.118538
597.347351	912.483826	16158.473633	15450.786133	95.358208
597.687073	969.371887	16611.302734	15676.062500	94.020943
598.026794	1010.331238	16474.771484	15685.165039	94.894051
598.366455	942.065613	16087.931641	15382.520508	95.342552
598.706116	937.514587	15332.458984	14715.792969	95.716095
599.045654	985.300537	15057.121094	14192.422852	93.855110
599.385193	944.341125	14408.597656	13543.899414	93.577827
599.724731	878.351013	14058.167969	13220.775391	93.646400
600.064087	957.994263	13955.769531	12936.335938	92.156860
600.403564	957.994263	13575.756836	12676.926758	92.876472
600.742920	930.687988	13248.082031	12601.833984	94.753372
601.082153	953.443237	13111.550781	12629.140625	96.032196
601.421387	992.127075	13307.246094	12326.496094	92.036209
601.760620	964.820801	13179.816406	12412.965820	93.722046
602.099854	962.545288	13136.582031	12624.589844	95.794395
602.438843	871.524475	13095.622070	12558.599609	95.606857
602.778015	894.279663	13694.083984	12658.722656	91.911118
603.117065	960.269775	13830.615234	13070.591797	94.094772
603.456055	937.514587	13923.912109	13320.898438	95.356575
603.794983	967.096313	14342.607422	13851.094727	96.325279
604.133850	914.759338	14943.344727	14162.841797	94.436340
604.472778	983.024963	15682.889648	14472.312500	91.764702
604.811584	917.034912	16056.075195	15318.805664	95.130013
605.150330	880.626526	16454.291016	15396.173828	93.205727
605.489075	930.687988	16552.138672	15405.275391	92.658409
605.827698	907.932800	16367.821289	15619.174805	95.157494
606.166382	935.239075	16219.912109	15307.428711	94.030075
606.504883	989.851563	15744.328125	14472.312500	91.378784
606.843445	957.994263	15161.794922	14394.944336	94.601089
607.181946	964.820801	14624.772461	13926.187500	94.885895
607.520386	921.585938	14292.545898	13548.451172	94.434998
607.858826	944.341125	13898.880859	13066.040039	93.571053
608.197083	873.799988	13757.798828	12847.590820	92.935364
608.535461	923.861450	13434.674805	12697.406250	94.106949
608.873718	992.127075	13675.879883	13193.469727	96.196632
609.211914	937.514587	14017.208008	13107.000000	93.041061
609.550171	910.208313	14442.730469	13555.277344	93.442070
609.888245	889.728638	14863.702148	13912.534180	93.193291
610.226318	960.269775	14854.599609	13923.912109	93.301674
610.564392	951.167725	15280.122070	14342.607422	93.457199
610.902344	926.136963	14586.087891	14454.108398	99.033821
611.240295	957.994263	14840.946289	14217.454102	95.508934
611.578247	998.953613	14435.904297	13983.075195	96.629967
611.916138	855.595825	14237.933594	13639.471680	95.527969
612.253845	937.514587	13930.738281	13393.715820	95.866905
612.591675	917.034912	13318.623047	12829.386719	96.055054
612.929382	960.269775	12990.948242	12310.567383	94.344620
613.267090	948.892151	12554.047852	12228.648438	97.196075
613.604736	898.830688	12645.069336	11969.239258	94.246414
613.942261	939.790100	12324.220703	11841.810547	95.762543
614.279785	942.065613	12269.608398	11753.064453	95.439926
614.617310	894.279663	11962.413086	11395.808594	94.880760
614.954712	976.198425	11809.953125	11404.910156	96.261284
615.292175	905.657288	11894.147461	11231.970703	93.973907
615.629517	935.239075	11805.402344	11311.614258	95.457397
615.966797	880.626526	11714.380859	11177.358398	95.043060
616.304138	907.932800	11611.982422	11170.531250	95.875847
616.641296	921.585938	11773.544922	11038.551758	93.227089
616.978516	962.545288	11759.891602	10908.846680	92.118019
617.315552	932.963501	11577.849609	11081.786133	95.339890
617.652771	1033.086426	11671.146484	10735.907227	91.208542
617.989685	944.341125	11916.902344	11059.031250	92.181671
618.326721	901.106262	11530.063477	11136.398438	96.296295
618.663696	912.483826	11491.379883	11238.796875	97.612389
619.000549	957.994263	11566.472656	10863.335938	93.371933
619.337463	930.687988	11746.238281	10936.153320	92.509987
619.674194	932.963501	11382.155273	11068.132813	96.994766
620.010986	985.300537	11377.604492	10833.754883	94.766808
620.347778	992.127075	11461.797852	10913.397461	94.762009
620.684387	976.198425	11475.451172	10747.285156	93.064590
621.020996	1053.566162	11338.919922	10719.978516	93.982300
621.357605	992.127075	11425.389648	10628.958008	92.366417
621.694214	976.198425	11470.900391	10649.437500	92.172592
622.030579	951.167725	11250.174805	10640.334961	94.078651
622.367065	923.861450	11077.235352	10551.589844	94.822945
622.703430	942.065613	11068.132813	10421.885742	93.617989
623.039795	926.136963	11218.317383	10349.068359	91.554276
623.376160	1008.055725	11040.827148	10358.170898	93.195740
623.712402	907.932800	10797.346680	10151.098633	93.465256
624.048645	946.616638	10906.571289	10456.018555	95.476357
624.384766	942.065613	10963.458984	10349.068359	93.869209
624.720886	1012.606750	10824.652344	10207.986328	93.715218
625.057007	953.443237	11284.307617	10364.997070	91.101318
625.392944	953.443237	11159.154297	10371.824219	92.285400
625.729004	948.892151	11288.858398	10467.395508	92.055458
626.064941	978.473938	11466.349609	10508.355469	90.865700
626.400818	994.402588	11737.136719	10870.163086	91.929672
626.736633	935.239075	11730.309570	10970.286133	92.959534
627.072449	953.443237	11746.238281	11241.073242	95.319420
627.408264	969.371887	11900.973633	11388.981445	95.316406
627.743896	971.647400	12085.291016	11388.981445	93.734642
628.079590	937.514587	12119.423828	11168.255859	91.493690
628.415161	946.616638	11976.066406	11404.910156	94.821533
628.750793	912.483826	11885.044922	11090.888672	92.762344
629.086365	957.994263	11755.340820	11045.377930	93.424652
629.421753	955.718750	11514.135742	10635.784180	91.681030
629.757263	973.922913	11313.889648	10499.252930	92.121475
630.092651	962.545288	11022.623047	10522.007813	95.023743
630.427917	976.198425	10958.908203	10294.456055	93.343971
630.763184	969.371887	10979.387695	10182.956055	92.043655
631.098511	841.942688	10779.141602	10060.077148	92.763916
631.433716	896.555176	10526.559570	9880.311523	93.289223
631.768799	901.106262	10456.018555	9841.627930	93.569901
632.103943	923.861450	10499.252930	9825.699219	92.965782
632.438965	969.371887	10371.824219	9846.178711	94.409485
632.773987	967.096313	10066.904297	9368.319336	92.323082
633.109070	939.790100	10192.057617	9639.106445	94.023613
633.443848	935.239075	10096.485352	9589.044922	94.461014
633.778870	926.136963	10137.445313	9525.330078	93.354744
634.113708	1035.361938	10522.007813	9450.238281	88.702332
634.448425	930.687988	10358.170898	9493.472656	90.827911
634.783264	960.269775	10296.731445	9702.820313	93.638802
635.117859	942.065613	10201.160156	9548.084961	92.946663
635.452576	973.922913	10303.558594	9577.666992	92.219505
635.787170	976.198425	9925.821289	9286.400391	92.855331
636.121704	953.443237	10178.404297	9245.441406	89.886536
636.456177	907.932800	9652.758789	9001.959961	92.557899
636.790588	892.004150	9896.240234	9065.674805	90.775841
637.125122	962.545288	9630.003906	8947.347656	92.123909
637.459412	901.106262	9545.809570	8867.704102	92.155830
637.793762	973.922913	9472.993164	8792.612305	91.994644
638.128052	887.453125	9356.941406	8503.621094	89.924774
638.462280	928.412476	9341.012695	8485.416992	89.829590
638.796509	978.473938	9031.541992	8360.263672	91.664314
639.130615	960.269775	9129.389648	8567.335938	93.119774
639.464722	919.310425	8735.724609	8401.222656	95.720520
639.798767	937.514587	9074.777344	8444.458008	92.253914
640.132751	892.004150	8883.632813	8150.915527	90.831436
640.466736	866.973450	8769.857422	8228.283203	93.147133
640.800598	980.749451	8644.703125	8230.558594	94.596199
641.134521	967.096313	8619.672852	8100.854004	93.220337
641.468262	898.830688	8601.468750	8078.098633	93.205315
641.802063	948.892151	8644.703125	8098.578613	92.903610
642.135803	939.790100	8678.835938	7905.159180	90.002945
642.469421	951.167725	8512.723633	7775.454590	90.249779
642.803101	964.820801	8282.895508	7764.077148	92.910454
643.136658	937.514587	8346.610352	7991.628906	95.208839
643.470215	998.953613	8519.549805	7695.811523	89.046906
643.803711	912.483826	8419.426758	7857.373535	92.512886
644.137085	994.402588	8467.212891	7820.964844	91.352005
644.470581	914.759338	8510.448242	7757.250488	90.083878
644.803833	973.922913	8298.824219	7707.188965	91.922958
645.137207	919.310425	8303.375000	7720.842285	92.110947
645.470459	953.443237	8385.293945	7707.188965	90.875694
645.803589	1003.504700	8196.425781	7477.361328	90.003166
646.136780	971.647400	8464.937500	7616.167969	88.672935
646.469849	964.820801	8130.436035	7714.015625	94.188629
646.802979	917.034912	8449.008789	7845.995605	91.993965
647.135986	939.790100	8282.895508	7843.720215	94.019218
647.468994	939.790100	8307.926758	7611.617188	90.549721
647.801941	944.341125	8239.661133	7830.066895	94.385521
648.134766	976.198425	8571.886719	7959.771973	91.941284
648.467651	885.177612	8474.039063	7648.025391	89.115448
648.800354	926.136963	8282.895508	7807.312012	93.535416
649.133179	914.759338	8198.701172	7545.626953	91.034058
649.465881	932.963501	8203.252930	7927.914551	96.212830
649.798462	957.994263	8237.385742	7636.647949	91.747421
650.131104	912.483826	8414.875977	7698.086914	90.445862
650.463623	937.514587	8412.600586	7866.475586	92.694061
650.796143	973.922913	8373.916992	7695.811523	90.836403
651.128662	962.545288	8471.763672	7632.096680	88.818184
651.461060	953.443237	8376.192383	7761.801270	91.722862
651.793396	914.759338	8360.263672	7780.005859	92.206604
652.125732	921.585938	8344.334961	7714.015625	91.508278
652.458008	967.096313	8137.262207	7780.005859	95.017464
652.790222	957.994263	8517.274414	7673.056152	88.832031
653.122437	885.177612	8271.518555	7691.260254	92.144173
653.454529	971.647400	8289.722656	7541.076172	89.769897
653.786621	896.555176	8276.069336	7684.433594	91.982727
654.118713	937.514587	8173.670898	7620.719238	92.358490
654.450623	917.034912	8091.751953	7475.085938	91.405014
654.782654	926.136963	8214.629883	7525.147461	90.540123
655.114502	903.381775	7993.904785	7324.901367	90.564819
655.446350	973.922913	7930.189941	7563.831055	94.733398
655.778198	953.443237	8100.854004	7329.452637	89.207260
656.109863	962.545288	7939.291992	7324.901367	91.193741
656.441650	978.473938	7859.648926	7293.043945	91.765869
656.773254	901.106262	7741.321777	7347.656738	94.244843
657.104919	921.585938	8000.730957	7390.891602	91.385406
657.436462	939.790100	7798.209961	7288.493164	92.568016
657.767944	923.861450	7998.455566	7318.074707	90.382759
658.099548	917.034912	7996.180176	7445.503906	92.221138
658.430908	955.718750	8228.283203	7575.208984	91.020027
658.762268	914.759338	8378.467773	7716.291016	91.128044
659.093628	928.412476	8692.489258	8041.690430	91.617821
659.424927	862.422363	8733.449219	8205.528320	93.292862
659.756226	942.065613	9247.716797	8223.732422	87.671234
660.087341	992.127075	9161.247070	8740.275391	94.846794
660.418518	923.861450	9270.471680	8758.479492	93.865868
660.749573	912.483826	9193.104492	8462.662109	91.178886
661.080627	957.994263	9172.624023	8567.335938	92.631584
661.411621	912.483826	9040.644531	8278.344727	90.621498
661.742554	907.932800	8690.213867	8221.457031	93.976616
662.073547	923.861450	8542.304688	7809.587402	90.382324
662.404297	994.402588	8398.947266	7855.097656	92.655190
662.735229	926.136963	8312.477539	7711.740234	91.866913
663.065979	957.994263	8073.547852	7359.034180	89.958427
663.396667	932.963501	8014.384277	7404.544922	91.388176
663.727417	976.198425	7641.198730	7295.319824	94.810516
664.057922	935.239075	7668.504883	7268.013672	94.052048
664.388611	869.248962	7579.759766	7095.073730	92.777214
664.719116	928.412476	7575.208984	6985.848633	91.133163
665.049622	969.371887	7388.616211	6781.051758	90.535263
665.380005	996.678101	7306.697266	6726.439453	90.804184
665.710388	885.177612	7379.514160	6944.889648	93.307640
666.040771	971.647400	7245.258301	6742.368164	91.984039
666.371033	930.687988	7320.350586	6660.449219	89.672363
666.701294	930.687988	7117.829102	6674.102539	92.828247
667.031555	939.790100	7145.135254	6751.470215	93.656036
667.361633	919.310425	7402.269043	6771.949707	90.277290
667.691772	889.728638	7445.503906	6717.337402	88.892746
668.021790	857.871338	7249.809082	6601.285645	89.854042
668.351807	926.136963	7249.809082	6678.653320	90.967979
668.681763	969.371887	7233.880859	6660.449219	90.846344
669.011719	901.106262	7318.074707	6740.092773	90.992912
669.341614	942.065613	7268.013672	6619.490234	89.748199
669.671387	932.963501	7258.911133	6890.276855	94.172661
670.001221	967.096313	7293.043945	6735.541504	91.187050
670.330933	928.412476	7295.319824	6535.295898	88.062904
670.660583	896.555176	7172.441406	6751.470215	93.292244
670.990173	905.657288	7131.482422	6658.173828	92.397659
671.319763	889.728638	7026.808105	6749.194824	95.476456
671.649292	937.514587	7060.940918	6621.765625	92.827950
671.978821	1001.229126	7115.553711	6546.673340	90.695938
672.308289	964.820801	6933.511719	6451.101563	91.917656
672.637695	989.851563	6938.062988	6303.192383	89.326698
672.966980	946.616638	7017.706055	6441.999512	90.517242
673.296326	914.759338	6926.685547	6471.581055	92.429970
673.625610	926.136963	6915.307617	6385.111328	91.147415
673.954773	914.759338	6856.144043	6405.590820	92.416695
674.283936	960.269775	6737.816895	6246.304688	91.492729
674.613037	921.585938	6744.643555	6291.814941	92.223526
674.942078	919.310425	6694.582031	6087.018066	89.479904
675.271118	932.963501	6765.123535	6250.855469	91.182205
675.600098	869.248962	6690.031250	6198.518555	91.555901
675.928955	912.483826	6594.459473	6127.977539	91.790146
676.257813	919.310425	6605.836914	6150.732910	91.996803
676.586670	978.473938	6649.071777	6066.538574	89.727127
676.915466	921.585938	6530.744629	6150.732910	93.225159
677.244141	955.718750	6498.887207	6141.630859	93.555016
677.572876	953.443237	6569.428711	6064.262695	91.004852
677.901489	957.994263	6592.183594	6116.600098	91.558975
678.230042	932.963501	6562.602051	6284.988281	95.068710
678.558594	951.167725	6585.357422	6123.426270	91.801292
678.887085	942.065613	6796.980469	6241.753418	90.516907
679.215515	917.034912	6703.684082	6075.640625	89.146675
679.543945	969.371887	6862.970703	6405.590820	92.239380
679.872253	912.483826	6915.307617	6519.367188	93.404099
680.200562	907.932800	7001.777344	6467.030273	91.224800
680.528809	917.034912	7277.115723	6655.898438	90.232552
680.856995	960.269775	7347.656738	6594.459473	88.208054
681.185120	951.167725	7404.544922	6869.797363	91.713684
681.513306	866.973450	7327.176758	6662.725098	89.714691
681.841309	914.759338	7356.758789	6678.653320	89.473679
682.169373	996.678101	7204.298828	6660.449219	91.238998
682.497314	928.412476	7381.789551	6651.347168	88.681236
682.825134	957.994263	7170.166016	6612.663574	91.025642
683.153076	946.616638	7022.257324	6471.581055	90.936325
683.480896	928.412476	7090.522949	6464.754395	89.844902
683.808655	969.371887	6928.960938	6330.499023	89.958000
684.136414	873.799988	6767.398926	6316.845703	92.355209
684.464050	960.269775	6571.704102	6032.405762	90.389290
684.791626	930.687988	6507.989258	6005.099609	90.983276
685.119263	1001.229126	6546.673340	6059.711914	91.218712
685.446838	912.483826	6558.050781	5884.496582	88.069328
685.774292	980.749451	6362.355957	5802.578125	89.598312
686.101685	960.269775	6287.264160	5679.699707	88.594612
686.429077	957.994263	6241.753418	5859.465820	92.764854
686.756348	937.514587	6407.866699	5741.139160	87.811981
687.083679	962.545288	6223.549316	5754.791992	91.089966
687.410950	896.555176	6275.886230	5743.414551	90.101524
687.738159	1001.229126	6259.957520	5716.108398	89.658165
688.065308	992.127075	6207.620605	5827.608887	92.713791
688.392395	921.585938	6366.907227	5882.221191	91.099037
688.719421	926.136963	6544.397949	5900.425293	88.537865
689.046448	1014.882263	6296.366211	5879.945801	92.115463
689.373413	919.310425	6262.233398	5907.251953	93.356041
689.700317	962.545288	6184.865723	5659.220215	89.934639
690.027100	978.473938	6100.671387	5707.006348	92.314529
690.353943	882.902100	6036.956543	5588.679199	91.302437
690.680725	935.239075	5986.895020	5577.301270	91.891891
691.007446	930.687988	5980.068848	5449.872559	89.499779
691.334106	964.820801	5970.966797	5404.361816	88.681816
691.660645	960.269775	5875.394531	5415.739746	90.648148
691.987244	983.024963	5752.516602	5358.851563	91.746185
692.313721	955.718750	5775.271973	5231.422363	88.715767
692.640259	973.922913	5597.781250	5254.177734	92.568901
692.966675	907.932800	5647.842773	5174.534180	90.014397
693.293030	832.840637	5606.883301	5165.432129	90.753098
693.619324	857.871338	5590.954590	5040.278809	88.365387
693.945618	996.678101	5470.352051	5099.441895	91.709045
694.271851	944.341125	5361.126953	5008.421387	92.014435
694.598083	901.106262	5593.229980	4969.737305	86.711937
694.924194	871.524475	5454.423340	5051.656250	91.211525
695.250244	894.279663	5538.617676	5001.594727	88.437042
695.576294	960.269775	5440.770020	5088.064453	92.127998
695.902283	855.595825	5443.045898	4792.246582	85.813484
696.228210	962.545288	5356.576172	5003.870117	91.973061
696.554138	923.861450	5402.086426	4915.125000	89.126015
696.879944	894.279663	5584.127930	5110.819824	89.907814
697.205750	903.381775	5593.229980	5169.983398	90.975258
697.531433	962.545288	5750.241211	5345.198242	91.539917
697.857178	971.647400	5798.026855	5267.830566	89.014618
698.182739	962.545288	5889.047852	5477.178711	91.639725
698.508423	971.647400	6232.651367	5661.495605	89.143600
698.833984	985.300537	6385.111328	5850.363770	90.096931
699.159485	978.473938	6710.510742	6109.773438	89.519653
699.484924	960.269775	6769.674316	6228.100586	90.677643
699.810303	960.269775	6935.787598	6421.519531	91.393753
700.135681	953.443237	6851.593262	6289.539551	90.470680
700.460999	987.576050	6774.225586	6339.601074	92.489189
700.786255	1001.229126	6505.713867	5975.517578	90.367920
701.111450	998.953613	6485.234375	5788.924805	87.308167
701.436646	889.728638	6271.335449	5848.088379	92.135300
701.761719	889.728638	6011.925781	5513.586914	90.270996
702.086792	1044.463989	5916.354004	5179.085449	84.866890
702.411865	919.310425	5700.179688	5308.790039	91.813423
702.736816	978.473938	5456.698730	5058.482910	91.107735
703.061646	1001.229126	5413.463867	4926.502441	88.963387
703.386536	948.892151	5210.942871	4901.471680	92.738914
703.711365	976.198425	5081.237793	4739.909668	91.685135
704.036194	885.177612	5019.798828	4660.266602	91.304352
704.360901	948.892151	4969.737305	4460.020996	87.323158
704.685547	994.402588	5115.370605	4651.164551	88.735512
705.010132	989.851563	4885.542969	4498.704590	90.070099
705.334717	1023.984375	4739.909668	4528.286621	94.304970
705.659302	903.381775	4810.451172	4405.408203	89.633072
705.983765	889.728638	4892.369629	4400.857422	87.720306
706.308228	892.004150	4883.267578	4343.969238	86.488029
706.632568	926.136963	4685.297363	4437.265625	93.401939
706.956909	935.239075	4796.797852	4425.888184	90.394821
707.281189	989.851563	4708.052734	4428.163574	92.472458
707.605408	980.749451	4667.093262	4305.285156	90.185181
707.929626	905.657288	4830.930664	4455.469727	90.434784
708.253784	1010.331238	4862.788086	4482.775879	90.135849
708.577820	951.167725	4783.144531	4275.703613	86.757721
708.901855	973.922913	4844.583984	4378.102051	87.948265
709.225830	921.585938	4855.961426	4341.693848	86.928864
709.549805	919.310425	4867.338867	4428.163574	88.876083
709.873718	837.391663	4849.134766	4487.327148	90.981285
710.197510	1028.535400	4824.104004	4560.143555	93.045563
710.521362	935.239075	4906.022949	4409.959473	87.507164
710.845093	964.820801	5088.064453	4555.592773	87.086098
711.168701	987.576050	5053.931641	4703.501465	91.382202
711.492432	948.892151	4985.666016	4639.787109	91.431801
711.816040	921.585938	4997.043457	4673.919922	92.071480
712.139587	942.065613	5138.125977	4692.124023	89.370934
712.463074	898.830688	5201.840332	4796.797852	90.586998
712.786499	937.514587	5065.309082	4746.736328	92.282249
713.109924	1001.229126	5065.309082	4701.226074	91.041443
713.433350	971.647400	5119.921875	4437.265625	83.543610
713.756592	921.585938	4960.635254	4469.123047	87.830994
714.079834	907.932800	4983.390625	4494.153809	87.995537
714.403015	973.922913	4744.460938	4412.234863	91.188896
714.726196	1001.229126	4953.808594	4580.623535	90.558441
715.049255	869.248962	4833.206055	4430.438965	89.839264
715.372375	905.657288	4735.358887	4314.387207	89.007713
715.695435	998.953613	4710.328125	4271.152344	88.166763
716.018311	967.096313	4774.042480	4293.907715	87.387932
716.341248	983.024963	4880.992188	4391.755371	87.448921
716.664063	946.616638	4769.491699	4277.979004	87.142853
716.987000	953.443237	4680.746094	4387.204102	92.124550
717.309692	864.697876	4744.460938	4491.877930	93.489731
717.632385	978.473938	4767.216309	4350.795898	89.009010
717.955078	937.514587	4571.521484	4168.753906	88.916710
718.277649	932.963501	4594.276367	4248.397461	90.553146
718.600220	983.024963	4505.531250	4232.468750	92.248062
718.922791	901.106262	4425.888184	4039.049316	89.025169
719.245300	971.647400	4441.816406	4077.733398	89.508202
719.567688	919.310425	4341.693848	3920.722412	87.699471
719.890015	912.483826	4177.855957	3788.742188	88.083633
720.212341	967.096313	4127.794922	3802.395264	89.704811
720.534607	928.412476	4080.008789	3779.640137	90.469315
720.856873	994.402588	4175.580566	3750.058350	86.623756
721.179016	937.514587	4114.141602	3731.854004	87.965614
721.501160	980.749451	4202.886719	3665.864014	83.333336
721.823242	905.657288	4027.671875	3645.384277	87.755096
722.145264	983.024963	3927.548828	3624.904541	89.721794
722.467224	971.647400	3932.099854	3597.598389	88.701004
722.789185	973.922913	3957.130615	3561.189941	86.727684
723.111023	921.585938	3838.803711	3581.669678	91.185638
723.432861	919.310425	3909.344727	3565.741211	88.508377
723.754578	973.922913	3932.099854	3588.496338	88.384621
724.076294	937.514587	3843.354736	3520.230713	88.880188
724.397949	960.269775	3779.640137	3495.199951	89.911217
724.719666	946.616638	3982.161377	3627.180176	88.305847
725.041260	892.004150	3731.854004	3563.465576	94.070518
725.362732	971.647400	3893.416016	3536.159424	87.772591
725.684265	912.483826	3920.722412	3497.475586	85.930412
726.005676	912.483826	3841.079102	3467.893799	87.257195
726.327087	912.483826	3829.701416	3415.556641	85.803429
726.648438	994.402588	3938.926514	3440.587402	83.075729
726.969666	969.371887	3943.477539	3597.598389	88.370316
727.290894	976.198425	3904.793701	3697.721191	92.929291
727.612061	978.473938	3936.650879	3681.792725	91.384621
727.933228	971.647400	4009.467773	3606.700439	86.741570
728.254395	903.381775	4070.906738	3731.854004	89.295975
728.575378	987.576050	4130.070313	3740.956299	87.617676
728.896301	957.994263	4034.498291	3731.854004	90.162727
729.217285	935.239075	4084.559814	3713.649902	88.222542
729.538147	912.483826	4093.661865	3763.711426	89.628044
729.858948	1033.086426	4084.559814	3784.191162	90.156601
730.179810	953.443237	4107.314941	3702.272461	87.157295
730.500549	980.749451	4159.651855	3779.640137	88.045822
730.821228	962.545288	4086.835449	3759.160400	89.512024
731.141846	942.065613	4098.212891	3759.160400	89.257393
731.462402	892.004150	4016.294189	3750.058350	91.478516
731.782898	921.585938	4193.784668	3684.068115	84.422813
732.103455	973.922913	4280.254395	3786.466553	85.065384
732.423889	955.718750	4166.478516	3734.129639	86.534378
732.744263	971.647400	4141.447754	3750.058350	87.652550
733.064636	921.585938	4186.958496	3791.017578	87.874557
733.384888	962.545288	4271.152344	3765.986816	84.731773
733.705200	942.065613	4248.397461	3738.680664	84.583618
734.025330	953.443237	4145.999023	3866.109863	91.233070
734.345520	923.861450	4280.254395	3704.547852	82.847466
734.665527	976.198425	4234.744141	3811.497314	87.011177
734.985596	923.861450	4082.284424	3672.690674	87.031700
735.305542	967.096313	3918.446777	3670.415039	91.595993
735.625549	953.443237	3882.038574	3638.557861	91.686104
735.945435	907.932800	3932.099854	3556.638916	87.584648
736.265259	964.820801	3861.558838	3529.332764	88.531029
736.585083	930.687988	3861.558838	3558.914551	89.673912
736.904785	937.514587	3759.160400	3408.730225	87.580643
737.224426	930.687988	3852.456787	3454.240479	86.370712
737.544128	944.341125	3752.333740	3474.720215	90.113449
737.863708	978.473938	3720.476563	3483.822266	91.369293
738.183289	905.657288	3695.445801	3397.352539	89.314842
738.502808	1003.504700	3777.364502	3365.495361	85.151772
738.822205	823.738525	3763.711426	3335.913574	85.448921
739.141541	971.647400	3841.079102	3413.281250	85.091202
739.460938	1010.331238	3918.446777	3451.965088	83.959312
739.780212	973.922913	3995.814453	3547.536865	85.165665
740.099426	960.269775	3913.895752	3461.067139	84.668724
740.418640	937.514587	3954.855225	3426.934326	82.503769
740.737793	921.585938	3845.630127	3495.199951	88.015564
741.056885	928.412476	3920.722412	3470.169189	84.942963
741.375977	946.616638	3845.630127	3372.321777	83.673470
741.694946	951.167725	3754.609375	3308.607178	84.090904
742.013855	928.412476	3718.200928	3335.913574	86.296898
742.332703	907.932800	3688.619141	3294.954102	85.842880
742.651550	905.657288	3606.700439	3269.923340	87.531593
742.970398	919.310425	3558.914551	3206.208740	86.637939
743.289124	892.004150	3606.700439	3215.310791	85.582565
743.607788	957.994263	3563.465576	3217.586426	86.724899
743.926453	935.239075	3470.169189	3226.688477	90.394974
744.245056	967.096313	3492.924316	3160.698486	86.846848
744.563599	985.300537	3417.832275	3215.310791	91.674454
744.882141	971.647400	3454.240479	3103.810303	85.884506
745.200500	907.932800	3438.312012	3174.351563	89.568344
745.518860	896.555176	3451.965088	3115.187988	86.821014
745.837219	919.310425	3517.955078	3192.555664	87.478111
746.155518	901.106262	3440.587402	3042.371338	84.319000
746.473755	919.310425	3411.005615	2994.585449	83.287666
746.791992	923.861450	3365.495361	3012.789551	85.554527
747.110107	964.820801	3370.046387	3115.187988	89.403969
747.428162	964.820801	3281.301025	3021.891602	88.801567
747.746216	919.310425	3445.138428	3056.024414	84.594589
748.064148	887.453125	3392.801514	3035.544678	85.740234
748.382080	930.687988	3322.260254	3106.085938	90.960999
748.700073	1008.055725	3417.832275	3081.055176	86.024551
749.017822	951.167725	3404.179199	3035.544678	84.972168
749.335632	1001.229126	3331.362549	2894.462402	81.250000
749.653320	939.790100	3438.312012	3074.228516	85.428047
749.971008	930.687988	3399.628174	3131.116699	89.124420
750.288696	948.892151	3385.974854	3053.749023	86.367889
750.606262	983.024963	3458.791504	2985.483398	80.882362
750.923828	921.585938	3349.566650	2962.728027	84.067474
751.241272	876.075500	3304.056152	2999.136475	87.441429
751.558716	946.616638	3358.668701	3067.402100	87.924530
751.876038	946.616638	3420.107666	3060.575439	85.464584
752.193481	951.167725	3354.117676	2944.523926	82.954544
752.510681	987.576050	3322.260254	2919.493164	82.748543
752.827942	992.127075	3326.811523	2883.084961	80.994148
753.145081	903.381775	3272.198975	3074.228516	91.642647
753.462219	937.514587	3263.096924	2926.319824	85.518593
753.779297	1001.229126	3226.688477	3015.064941	90.490791
754.096375	976.198425	3224.413086	3012.789551	90.587044
754.413330	973.922913	3210.759766	2946.799316	88.199387
754.730286	983.024963	3190.280273	2965.003662	89.793816
755.047119	953.443237	3137.943115	2880.809326	88.229164
755.363892	935.239075	3142.494141	2994.585449	93.298973
755.680725	983.024963	3162.973877	2905.840088	88.204597
755.997498	957.994263	3331.362549	2990.034424	85.618416
756.314148	962.545288	3267.647949	2935.421875	85.587364
756.630737	935.239075	3213.035400	3015.064941	91.308685
756.947327	946.616638	3192.555664	2946.799316	89.057747
757.263855	914.759338	3194.831299	2908.115479	87.425140
757.580261	910.208313	3096.983887	2892.187012	90.634758
757.896729	887.453125	3128.841064	2867.156250	88.324875
758.213074	989.851563	3228.964111	2928.595215	86.585358
758.529419	930.687988	3249.443604	2901.289063	84.985283
758.845642	910.208313	3199.382324	2965.003662	89.761429
759.161865	946.616638	3381.423828	3083.330566	87.757004
759.478149	967.096313	3367.770752	2994.585449	84.454987
759.794189	894.279663	3365.495361	2994.585449	84.990784
760.110229	957.994263	3322.260254	2951.350586	84.311844
760.426270	985.300537	3324.535889	2928.595215	83.073929
760.742249	917.034912	3329.086914	3026.442627	87.452827
761.058105	989.851563	3276.750000	3058.300049	90.447762
761.374023	955.718750	3354.117676	3037.820313	86.812149
761.689819	942.065613	3299.505127	2960.452637	85.617767
762.005554	930.687988	3351.842041	3001.411865	85.526314
762.321289	955.718750	3242.617188	2999.136475	89.353233
762.636902	948.892151	3290.403076	2980.932129	86.783279
762.952515	983.024963	3449.689453	2985.483398	81.180817
763.268127	946.616638	3463.342773	3174.351563	88.517174
763.583618	917.034912	3618.078125	3269.923340	87.110359
763.899048	962.545288	4036.773926	3454.240479	81.051079
764.214478	976.198425	4378.102051	3945.753174	87.290970
764.529785	973.922913	4696.674805	4075.457764	83.312965
764.845093	1033.086426	4796.797852	4328.040527	87.545341
765.160400	910.208313	4769.491699	4314.387207	88.207542
765.475586	971.647400	4541.939453	4141.447754	88.782661
765.790771	976.198425	4423.612305	3882.038574	84.290436
766.105835	960.269775	4262.050293	3793.293213	85.802902
766.420837	889.728638	3847.905762	3536.159424	89.461533
766.735840	932.963501	3845.630127	3547.536865	89.765625
767.050842	912.483826	3761.435791	3310.882813	84.185310
767.365662	939.790100	3583.945313	3338.188965	90.705673
767.680542	912.483826	3529.332764	3156.147461	85.739136
767.995300	894.279663	3470.169189	3147.045166	87.455826
768.309998	896.555176	3533.883789	3160.698486	85.849876
768.624817	853.320313	3461.067139	2971.830078	81.239090
768.939392	910.208313	3308.607178	3040.095703	88.804550
769.254028	937.514587	3310.882813	2858.054199	80.920425
769.568481	948.892151	3101.534912	2817.094727	86.786469
769.882935	914.759338	3108.361328	2908.115479	90.871368
770.197388	935.239075	3233.515137	2917.217773	86.237625
770.511841	932.963501	3256.270264	2899.013428	84.622917
770.826172	944.341125	3099.259277	2817.094727	86.906021
771.140442	892.004150	3112.912354	2719.247314	82.274590
771.454651	951.167725	2976.381104	2705.594238	86.629219
771.768860	946.616638	3083.330566	2753.380127	84.558044
772.082886	896.555176	2965.003662	2671.461426	85.808578
772.397034	973.922913	3005.962891	2805.717041	90.145576
772.711060	957.994263	2951.350586	2632.777588	84.018265
773.025024	887.453125	2994.585449	2623.675537	82.397408
773.338928	946.616638	2919.493164	2580.440674	82.814308
773.652771	923.861450	2805.717041	2710.145264	94.921410
773.966614	971.647400	2839.849854	2628.226563	88.672356
774.280457	955.718750	2848.952148	2616.848877	87.740379
774.594116	910.208313	2892.187012	2582.716064	84.385757
774.907776	887.453125	2805.717041	2555.409912	86.951370
775.221375	848.769287	2780.686523	2480.317627	84.452293
775.534912	953.443237	2746.553711	2503.072998	86.421318
775.848450	894.279663	2730.625000	2507.624023	87.856262
776.161926	967.096313	2748.829102	2550.858887	88.888893
776.475342	917.034912	2614.573486	2657.808350	102.546913
776.788696	946.616638	2771.584229	2546.307861	87.655869
777.101990	944.341125	2737.451416	2450.735840	84.010155
777.415283	971.647400	2737.451416	2528.103516	88.144333
777.728516	921.585938	2851.227539	2507.624023	82.193405
778.041626	967.096313	2616.848877	2330.133301	82.620689
778.354736	962.545288	2705.594238	2468.940186	86.422981
778.667725	951.167725	2723.798340	2473.491211	85.879341
778.980774	932.963501	2707.869873	2450.735840	85.512810
779.293640	921.585938	2694.216553	2439.358398	85.622604
779.606567	987.576050	2653.257324	2443.909424	87.431694
779.919434	967.096313	2721.522949	2355.164063	79.118027
780.232239	946.616638	2698.767578	2421.154053	84.155846
780.544983	907.932800	2744.278076	2498.521729	86.617096
780.857666	860.146851	2619.124512	2462.113525	91.073738
781.170227	953.443237	2707.869873	2371.092773	80.804153
781.482849	978.473938	2607.746826	2430.256104	89.106140
781.795410	976.198425	2519.001465	2305.102539	86.135696
782.107910	985.300537	2578.165039	2316.480225	83.571434
782.420288	944.341125	2498.521729	2400.674561	93.704262
782.732666	1008.055725	2591.818115	2298.276123	81.465530
783.044983	912.483826	2471.215576	2316.480225	90.072998
783.357300	948.892151	2550.858887	2300.551514	84.375000
783.669495	969.371887	2514.450439	2398.398926	92.488960
783.981689	914.759338	2623.675537	2359.715088	84.553925
784.293762	983.024963	2425.705078	2311.929199	92.113579
784.605835	923.861450	2539.481201	2207.255127	79.436615
784.917908	882.902100	2521.277100	2293.724854	86.111099
785.229858	905.657288	2464.388916	2264.143311	87.153297
785.541748	876.075500	2489.419678	2236.836914	84.344147
785.853577	967.096313	2434.807373	2223.183838	85.581390
786.165405	844.218201	2443.909424	2168.571289	82.788048
786.477173	953.443237	2503.072998	2164.020264	78.120407
786.788879	935.239075	2371.092773	2284.622803	93.977798
787.100525	967.096313	2396.123291	2095.754639	78.980896
787.412109	967.096313	2427.980713	2223.183838	85.981308
787.723694	1035.361938	2382.470215	2218.632813	87.837845
788.035156	921.585938	2450.735840	2168.571289	81.547623
788.346558	919.310425	2432.531738	2232.285889	86.766914
788.658081	985.300537	2459.837891	2200.428711	82.407417
788.969360	962.545288	2539.481201	2255.041016	81.962479
789.280640	971.647400	2580.440674	2425.705078	90.381882
789.591919	996.678101	2687.390137	2387.021240	82.234177
789.903076	937.514587	2712.420898	2377.919189	81.153839
790.214172	955.718750	2628.226563	2425.705078	87.891151
790.525269	967.096313	2528.103516	2282.347412	84.256569
790.836365	953.443237	2534.930176	2357.439453	88.776970
791.147339	983.024963	2473.491211	2204.979736	81.984734
791.458191	957.994263	2437.082764	2286.898438	89.846153
791.769104	957.994263	2402.949951	2223.183838	87.559059
792.079895	960.269775	2430.256104	2134.438477	79.876167
792.390686	892.004150	2412.052002	2100.305664	79.491020
792.701416	882.902100	2509.899414	2111.683350	75.524483
793.012085	944.341125	2289.173828	2036.591064	81.218277
793.322693	928.412476	2341.510986	2127.612061	84.863129
793.633240	973.922913	2327.857666	2111.683350	84.033623
793.943787	948.892151	2282.347412	2111.683350	87.201363
794.254272	944.341125	2266.418701	2032.040039	82.271942
794.564636	912.483826	2243.663574	2134.438477	91.794861
794.875000	967.096313	2371.092773	2032.040039	75.850883
795.185303	903.381775	2334.684326	2027.489014	78.537361
795.495544	937.514587	2175.397949	2100.305664	93.933815
795.805786	937.514587	2339.235352	2022.937988	77.435066
796.115906	994.402588	2368.817139	2113.958740	81.456947
796.426025	980.749451	2355.164063	2059.346436	78.476830
796.736023	971.647400	2352.888428	2143.540527	84.843491
797.045959	901.106262	2346.062012	2127.612061	84.881897
797.355896	921.585938	2264.143311	2200.428711	95.254234
797.665833	953.443237	2359.715088	2157.193604	85.598694
797.975708	955.718750	2364.266113	2079.825928	79.806129
798.285461	885.177612	2446.184814	2164.020264	81.924202
798.595154	903.381775	2323.306641	2113.958740	85.256409
798.904846	919.310425	2311.929199	2113.958740	85.784302
799.214478	930.687988	2298.276123	2079.825928	84.026611
799.524109	957.994263	2327.857666	2066.172852	80.897011
799.833557	1012.606750	2218.632813	2111.683350	91.132080
800.143005	942.065613	2220.908203	2027.489014	84.875450
800.452393	951.167725	2166.295898	2002.458252	86.516846
800.761780	869.248962	2189.051025	2000.182739	85.689659
801.071106	1003.504700	2277.796387	2079.825928	84.464272
801.380371	896.555176	2107.132324	1995.631714	90.789467
801.689575	917.034912	2152.642578	1959.223389	84.346230
801.998718	873.799988	2164.020264	1920.539551	81.128746
802.307800	919.310425	2104.856689	1922.815063	84.644913
802.616882	996.678101	2138.989502	1977.427612	85.856583
802.925903	946.616638	2216.357178	1909.161987	75.806465
803.234863	942.065613	2107.132324	2047.968750	94.921875
803.543701	892.004150	2204.979736	1993.356201	83.882141
803.852539	992.127075	2104.856689	1993.356201	89.979553
804.161316	944.341125	2050.244141	1959.223389	91.769547
804.470032	928.412476	2123.060791	1911.437500	82.285728
804.778809	944.341125	2143.540527	1952.396851	84.060722
805.087341	903.381775	2118.509766	1947.845825	85.955070
805.395935	926.136963	2170.846924	1995.631714	85.923210
805.704468	985.300537	2066.172852	1954.672363	89.684212
806.012939	969.371887	2086.652588	1991.080688	91.446022
806.321350	951.167725	2138.989502	1954.672363	84.482765
806.629761	937.514587	2161.744873	1981.978638	85.315987
806.938049	928.412476	2191.326416	2072.999512	90.630646
807.246277	896.555176	2195.877686	1863.651489	74.430817
807.554504	969.371887	2223.183838	1991.080688	81.488197
807.862671	1010.331238	2111.683350	1909.161987	81.611572
808.170715	948.892151	2209.530762	1947.845825	79.241875
808.478821	953.443237	2154.918213	1900.059814	78.787872
808.786804	1008.055725	2104.856689	2004.733887	90.871376
809.094727	953.443237	2068.448486	1925.090576	87.142845
809.402649	1019.433350	2134.438477	1820.416626	71.836739
809.710510	996.678101	2123.060791	1884.131226	78.787888
810.018311	996.678101	2134.438477	1915.988525	80.800003
810.326050	960.269775	2032.040039	1877.304688	85.562637
810.633667	930.687988	2107.132324	1877.304688	80.464218
810.941345	898.830688	2041.142212	1809.039063	79.681274
811.248901	914.759338	2054.795166	1845.447388	81.636734
811.556396	944.341125	1927.366089	1772.630737	84.259262
811.863892	955.718750	1993.356201	1820.416626	83.333336
812.171326	885.177612	1991.080688	1881.855713	90.123459
812.478699	969.371887	2025.213501	1849.998413	83.405174
812.786011	944.341125	1906.886475	1768.079712	85.579201
813.093262	939.790100	2000.182739	1756.702026	77.038628
813.400391	932.963501	1959.223389	1740.773438	78.713974
813.707642	987.576050	1929.641602	1886.406738	95.410629
814.014709	921.585938	1920.539551	1747.599976	82.687927
814.321716	978.473938	1959.223389	1724.844727	76.102089
814.628723	985.300537	1847.722900	1708.916138	83.905014
814.935669	989.851563	1972.876587	1667.956787	68.981483
815.242554	928.412476	1877.304688	1763.528564	88.009583
815.549438	944.341125	2047.968750	1722.569214	70.515457
815.856201	992.127075	1945.570313	1715.742676	75.894981
816.162964	957.994263	1988.805176	1768.079712	78.587204
816.469604	996.678101	1977.427612	1718.018188	73.549881
816.776184	871.524475	1979.703125	1763.528564	80.492798
817.082825	889.728638	2050.244141	1699.814087	69.803932
817.389343	957.994263	2011.560425	1749.875488	75.161987
817.695801	957.994263	2018.386963	1774.906250	77.038628
818.002197	946.616638	2009.284912	1827.243164	82.869377
818.308533	939.790100	2022.937988	1861.375977	85.084023
818.614868	953.443237	1943.294800	1824.967651	88.045967
818.921143	978.473938	2009.284912	1995.631714	98.675484
819.227356	901.106262	2013.835938	1868.202637	86.912064
819.533447	823.738525	2000.182739	1904.610962	91.876213
819.839539	919.310425	2068.448486	1934.192627	88.316818
820.145569	919.310425	2134.438477	2011.560425	89.887650
820.451538	889.728638	2204.979736	1959.223389	81.314873
820.757568	903.381775	2309.653564	2109.407715	85.760513
821.063416	994.402588	2496.246338	2266.418701	84.696968
821.369263	932.963501	2721.522949	2298.276123	76.335884
821.675049	946.616638	2660.083740	2498.521729	90.571045
821.980713	878.351013	2767.033203	2559.960938	89.036148
822.286438	964.820801	3213.035400	2716.971924	77.935226
822.592102	932.963501	4059.529053	3636.282227	86.462891
822.897583	937.514587	5884.496582	5206.391602	86.292549
823.203125	935.239075	8271.518555	7072.318848	83.653847
823.508545	932.963501	9903.066406	8599.193359	85.464241
823.813965	957.994263	10421.885742	8567.335938	80.403938
824.119263	978.473938	9375.145508	7786.832031	81.084007
824.424622	962.545288	7884.679688	6687.755859	82.708748
824.729858	887.453125	6753.745605	5747.965332	82.854927
825.035095	987.576050	5838.986328	4958.359863	81.848030
825.340149	887.453125	5072.135742	4562.419434	87.819473
825.645264	892.004150	4689.848145	4064.080078	83.523071
825.950256	942.065613	4200.611328	3834.252441	88.756981
826.255310	967.096313	4082.284424	3665.864014	86.632576
826.560242	987.576050	3797.844238	3392.801514	85.587051
826.865112	971.647400	3597.598389	3133.392090	82.322357
827.169922	892.004150	3338.188965	3003.687500	86.325584
827.474670	935.239075	3618.078125	3178.902588	83.630196
827.779419	948.892151	4177.855957	3565.741211	81.042999
828.084045	996.678101	4651.164551	4045.875977	83.437111
828.388672	921.585938	5012.972168	4303.009766	82.647385
828.693176	855.595825	4974.288574	4412.234863	86.353592
828.997681	903.381775	4305.285156	3827.426025	85.953186
829.302124	896.555176	3811.497314	3308.607178	82.747849
829.606567	946.616638	3467.893799	2937.697266	78.971115
829.910828	919.310425	3128.841064	2682.839111	79.814621
830.215149	960.269775	2839.849854	2468.940186	80.266357
830.519348	910.208313	2682.839111	2464.388916	87.676498
830.823547	937.514587	2682.839111	2300.551514	78.096474
831.127686	928.412476	2473.491211	2166.295898	80.117821
831.431763	896.555176	2391.572266	2079.825928	79.147644
831.735779	917.034912	2220.908203	1970.601074	80.802803
832.039734	967.096313	2161.744873	2107.132324	95.428566
832.343628	971.647400	2214.081787	1852.273926	70.879120
832.647461	973.922913	2161.744873	1997.907227	86.206879
832.951233	957.994263	2057.070801	1906.886475	86.335411
833.255127	946.616638	2098.030273	1913.713013	83.992096
833.558777	969.371887	2132.163086	1938.743774	83.365944
833.862366	967.096313	2257.316650	1941.019287	75.485008
834.165955	946.616638	2587.267090	2305.102539	82.801666
834.469482	1010.331238	3008.238525	2666.910400	82.915718
834.773010	948.892151	3347.291016	2837.574463	78.747635
835.076416	1012.606750	3479.271240	2994.585449	80.350555
835.379822	946.616638	3415.556641	2933.146240	80.460831
835.683105	998.953613	3115.187988	2789.788574	84.623657
835.986389	946.616638	2899.013428	2614.573486	85.431244
836.289612	910.208313	2803.441650	2387.021240	78.004807
836.592773	928.412476	2582.716064	2239.112549	79.229721
836.895874	939.790100	2393.847900	2173.122314	84.820030
837.198914	1008.055725	2284.622803	2018.386963	79.144386
837.501892	910.208313	2232.285889	2013.835938	83.476768
837.804871	939.790100	2070.723877	1847.722900	80.281693
838.107666	955.718750	2032.040039	1738.497925	72.727280
838.410583	992.127075	1984.254150	1790.834839	80.504585
838.713379	914.759338	1856.824951	1679.334351	81.159424
839.016052	953.443237	1811.314575	1658.854614	82.228111
839.318787	973.922913	1822.692139	1622.446289	76.407501
839.621338	919.310425	1886.406738	1729.395752	83.764702
839.923889	923.861450	1770.355225	1565.558350	75.806450
840.226440	996.678101	1699.814087	1665.681274	95.145630
840.528931	907.932800	1859.100464	1672.507813	80.382782
840.831299	910.208313	1952.396851	1752.151001	80.786026
841.133606	903.381775	2075.274902	1722.569214	69.902916
841.435913	973.922913	2075.274902	1900.059814	84.090904
841.738220	942.065613	1972.876587	1856.824951	88.741707
842.040405	901.106262	1877.304688	1768.079712	88.811188
842.342529	876.075500	1740.773438	1631.548462	87.368423
842.644592	930.687988	1831.794189	1636.099487	78.282837
842.946594	980.749451	1722.569214	1579.211426	80.674850
843.248596	960.269775	1681.609863	1551.905151	82.018921
843.550598	953.443237	1677.058838	1551.905151	82.704399
843.852478	946.616638	1622.446289	1474.537476	78.114487
844.154236	951.167725	1535.976563	1506.394775	94.941635
844.455994	969.371887	1556.456177	1529.150024	95.348854
844.757690	919.310425	1547.354126	1442.680176	83.333336
845.059326	967.096313	1526.874512	1360.761475	70.325203
845.360962	1001.229126	1533.701050	1419.924927	78.632462
845.662476	953.443237	1515.496826	1376.690063	75.303642
845.963989	905.657288	1474.537476	1303.873413	70.000000
846.265381	910.208313	1463.159912	1417.649414	91.769531
846.566772	921.585938	1488.190552	1413.098389	86.746994
846.868042	985.300537	1415.373901	1372.139038	89.947098
847.169373	987.576050	1479.088501	1424.476074	88.888901
847.470581	946.616638	1465.435425	1328.904175	73.684212
847.771729	846.493713	1490.466064	1297.046875	69.964676
848.072815	967.096313	1417.649414	1219.679199	56.060627
848.373901	942.065613	1435.853638	1385.792114	89.861740
848.674866	964.820801	1474.537476	1338.006226	73.214287
848.975891	926.136963	1454.057739	1365.312500	83.189667
849.276794	939.790100	1469.986450	1328.904175	73.390564
849.577637	923.861450	1451.782227	1287.944824	68.965530
849.878357	971.647400	1363.036987	1242.434326	69.186035
850.179077	983.024963	1397.169800	1240.158813	62.087906
850.479736	946.616638	1374.414551	1328.904175	89.361710
850.780396	953.443237	1401.720825	1367.588013	92.385788
851.080994	994.402588	1429.027100	1244.709839	57.591610
851.381470	973.922913	1403.996338	1351.659302	87.830673
851.681946	948.892151	1369.863525	1312.975464	86.486481
851.982361	955.718750	1394.894287	1287.944824	75.647675
852.282715	985.300537	1390.343262	1287.944824	74.719101
852.583008	903.381775	1322.077637	1342.557251	104.891289
852.883240	930.687988	1433.578125	1208.301514	55.203613
853.183411	939.790100	1322.077637	1265.189575	85.119041
853.483521	901.106262	1333.455200	1292.495850	90.526321
853.783630	917.034912	1399.445313	1206.026001	59.905651
854.083679	964.820801	1381.241089	1231.056763	63.934437
854.383667	896.555176	1401.720825	1324.353149	84.684692
854.683533	955.718750	1333.455200	1310.699951	93.975891
854.983337	998.953613	1381.241089	1251.536499	66.071449
855.283203	935.239075	1392.618774	1212.852539	60.696499
855.582886	962.545288	1324.353149	1290.220337	90.566040
855.882629	964.820801	1388.067749	1226.505737	61.827957
856.182312	996.678101	1413.098389	1174.168701	42.622948
856.481873	932.963501	1403.996338	1308.424438	79.710144
856.781372	923.861450	1351.659302	1333.455200	95.744698
857.080872	1030.810913	1331.179688	1233.332275	67.424240
857.380310	960.269775	1356.210449	1228.781250	67.816086
857.679688	926.136963	1403.996338	1240.158813	65.714279
857.979004	876.075500	1342.557251	1301.597900	91.219521
858.278259	992.127075	1331.179688	1278.842651	84.563744
858.577454	994.402588	1417.649414	1301.597900	72.580650
858.876648	1021.708862	1317.526489	1221.954712	67.692329
859.175720	1019.433350	1408.547363	1185.546387	42.690067
859.474792	912.483826	1372.139038	1256.087524	74.752487
859.773743	980.749451	1278.842651	1342.557251	121.374054
860.072693	960.269775	1326.628662	1285.669312	88.819885
860.371521	989.851563	1365.312500	1201.474976	56.363628
860.670349	1005.780212	1253.812012	1221.954712	87.155960
860.969116	951.167725	1294.771362	1251.536499	87.417229
861.267883	976.198425	1328.904175	1228.781250	71.612900
861.566589	946.616638	1265.189575	1224.230225	87.142868
861.865112	987.576050	1308.424438	1155.964600	52.482281
862.163635	937.514587	1406.271851	1246.985352	66.019409
862.462158	967.096313	1394.894287	1208.301514	56.382969
862.760620	944.341125	1353.934937	1281.118164	82.222198
863.059021	914.759338	1294.771362	1190.097412	72.455093
863.357361	935.239075	1349.383789	1246.985352	75.274719
863.655640	919.310425	1356.210449	1194.648438	63.020828
863.953857	898.830688	1358.485962	1326.628662	93.069305
864.251953	937.514587	1285.669312	1206.026001	77.124161
864.550110	962.545288	1388.067749	1237.883301	64.705872
864.848206	980.749451	1440.404663	1233.332275	54.950497
865.146179	969.371887	1303.873413	1256.087524	85.714302
865.444092	878.351013	1340.281738	1210.577026	71.921173
865.741943	942.065613	1344.832764	1283.393677	84.745758
866.039795	896.555176	1363.036987	1301.597900	86.829262
866.337646	876.075500	1342.557251	1249.260864	79.999992
866.635376	914.759338	1351.659302	1203.750488	66.145844
866.933044	953.443237	1297.046875	1287.944824	97.351006
867.230652	992.127075	1324.353149	1267.465088	82.876701
867.528198	976.198425	1317.526489	1153.689087	52.000019
867.825745	996.678101	1292.495850	1192.372925	66.153847
868.123230	873.799988	1322.077637	1180.995239	68.527901
868.420593	914.759338	1331.179688	1260.638550	83.060112
868.717896	951.167725	1367.588013	1224.230225	65.573776
869.015198	928.412476	1299.322388	1217.403687	77.914124
869.312439	980.749451	1351.659302	1244.709839	71.165642
869.609619	992.127075	1342.557251	1290.220337	85.064949
869.906738	873.799988	1331.179688	1292.495850	91.542290
870.203796	994.402588	1312.975464	1208.301514	67.142853
870.500854	942.065613	1310.699951	1303.873413	98.148155
870.797791	926.136963	1349.383789	1212.852539	67.741928
871.094666	905.657288	1272.016113	1194.648438	78.881996
871.391602	953.443237	1308.424438	1210.577026	72.435890
871.688293	967.096313	1331.179688	1269.740601	83.124992
871.985107	946.616638	1360.761475	1235.607788	69.780212
872.281738	955.718750	1326.628662	1233.332275	74.846619
872.578369	926.136963	1292.495850	1217.403687	79.503113
872.874939	928.412476	1331.179688	1228.781250	74.576271
873.171509	862.422363	1358.485962	1285.669312	85.321106
873.467957	994.402588	1397.169800	1249.260864	63.276817
873.764343	914.759338	1331.179688	1235.607788	77.049179
874.060669	907.932800	1331.179688	1310.699951	95.161278
874.356995	967.096313	1306.148926	1221.954712	75.167801
874.653198	971.647400	1328.904175	1237.883301	74.522285
874.949463	973.922913	1363.036987	1144.586914	43.859631
875.245544	937.514587	1294.771362	1212.852539	77.070045
875.541626	901.106262	1358.485962	1242.434326	74.626854
875.837646	928.412476	1344.832764	1256.087524	78.688538
876.133606	907.932800	1347.108276	1158.240112	56.994827
876.429565	885.177612	1349.383789	1231.056763	74.509811
876.725403	992.127075	1310.699951	1217.403687	70.714310
877.021179	946.616638	1249.260864	1278.842651	109.774445
877.316956	964.820801	1285.669312	1251.536499	89.361702
877.612610	919.310425	1360.761475	1310.699951	88.659782
877.908203	885.177612	1310.699951	1217.403687	78.074883
878.203857	928.412476	1312.975464	1253.812012	84.615410
878.499390	905.657288	1283.393677	1231.056763	86.144592
878.794800	992.127075	1365.312500	1276.567139	76.219498
879.090271	889.728638	1326.628662	1249.260864	82.291649
879.385559	980.749451	1319.802124	1301.597900	94.630859
879.680847	948.892151	1429.027100	1267.465088	66.350708
879.976196	932.963501	1442.680176	1310.699951	74.107140
880.271301	951.167725	1567.833862	1328.904175	61.254612
880.566467	917.034912	1485.915039	1347.108276	75.599998
880.861572	978.473938	1697.538574	1488.190552	70.886063
881.156555	957.994263	1797.661377	1615.619751	78.319786
881.451477	887.453125	1993.356201	1797.661377	82.304520
881.746460	932.963501	2537.205811	2257.316650	82.553185
882.041321	1003.504700	3372.321777	2869.431641	78.770409
882.336121	926.136963	4132.345703	3522.506104	80.979416
882.630798	907.932800	4478.225098	3745.507324	79.477371
882.925537	998.953613	4528.286621	3811.497314	79.690514
883.220215	937.514587	4159.651855	3668.139648	84.745773
883.514771	1010.331238	3813.772949	3165.249512	76.866882
883.809326	1001.229126	3622.629150	3044.646729	77.951385
884.103760	914.759338	3306.331787	2937.697266	84.586105
884.398132	1037.637451	3135.667725	2621.399902	75.488068
884.692505	1035.361938	2924.044189	2478.042236	76.385551
884.986816	962.545288	2848.952148	2434.807373	78.045837
885.281067	907.932800	2664.634766	2280.071777	78.108810
885.575256	964.820801	2473.491211	2150.367188	78.582199
885.869385	971.647400	2257.316650	2018.386963	81.415932
886.163452	1008.055725	2020.662476	1861.375977	84.269661
886.457458	948.892151	1975.152100	1740.773438	77.161858
886.751465	964.820801	1849.998413	1615.619751	73.521851
887.045410	926.136963	1747.599976	1642.926025	87.257622
887.339233	866.973450	1681.609863	1572.384888	86.592178
887.632996	939.790100	1613.344238	1535.976563	88.513519
887.926758	935.239075	1561.007324	1363.036987	68.363632
888.220398	960.269775	1488.190552	1399.445313	83.189667
888.514099	937.514587	1438.129150	1267.465088	65.909088
888.807678	983.024963	1385.792114	1281.118164	74.011299
889.101196	928.412476	1474.537476	1347.108276	76.666664
889.394653	862.422363	1422.200562	1310.699951	80.081291
889.688049	951.167725	1385.792114	1249.260864	68.586380
889.981384	987.576050	1369.863525	1253.812012	69.642868
890.274719	889.728638	1365.312500	1292.495850	84.688995
890.567932	932.963501	1372.139038	1192.372925	59.067368
>>>>>End Processed Spectral Data<<<<<
